%OpenBCI Raw EEG Data
%Number of channels = 4
%Sample Rate = 200 Hz
%Board = OpenBCI_GUI$BoardGanglionBLE
Sample Index, EXG Channel 0, EXG Channel 1, EXG Channel 2, EXG Channel 3, Accel Channel 0, Accel Channel 1, Accel Channel 2, Other, Other, Other, Other, Other, Timestamp, Other, Timestamp (Formatted)
2.0, 0.44130819477140903, 0.8265178902074695, -1.7053943797945976, -0.40016929525882006, 0.0, 0.0, 0.0, 0.0, 0.0, 0.0, 0.0, 0.0, 1.6483371330320337E9, 0.0, 2022-03-26 18:25:33.032
2.0, -0.6320430925115943, 0.8751365896314383, -1.451081182807684, 2.4758137706667185, 0.0, 0.0, 0.0, 0.0, 0.0, 0.0, 0.0, 0.0, 1.6483371330320337E9, 0.0, 2022-03-26 18:25:33.032
3.0, 0.13463639840483665, -2.621669868938625, -12.207033455371857, -5.561231234110892, 0.0, 0.0, 0.0, 0.0, 0.0, 0.0, 0.0, 0.0, 1.6483371330328076E9, 0.0, 2022-03-26 18:25:33.032
3.0, 0.17951519787311554, -4.514059246517718, -13.534697939641774, -4.8095113430172205, 0.0, 0.0, 0.0, 0.0, 0.0, 0.0, 0.0, 0.0, 1.6483371330328076E9, 0.0, 2022-03-26 18:25:33.032
4.0, -0.9611542886123061, -9.121615991927683, -14.544470927678049, -11.556290863081813, 0.0, 0.0, 0.0, 0.0, 0.0, 0.0, 0.0, 0.0, 1.6483371330335555E9, 0.0, 2022-03-26 18:25:33.033
4.0, -2.5169526701793075, -2.543131969869137, -12.375328953377903, -12.263131954707205, 0.0, 0.0, 0.0, 0.0, 0.0, 0.0, 0.0, 0.0, 1.6483371330335555E9, 0.0, 2022-03-26 18:25:33.033
5.0, -0.07853789906948805, 2.288818772882223, -0.40390919521450996, 4.959107341244817, 0.0, 0.0, 0.0, 0.0, 0.0, 0.0, 0.0, 0.0, 1.648337133045814E9, 0.0, 2022-03-26 18:25:33.045
5.0, 1.2154674855992198, -1.5931973811239004, 0.9761138884350657, 5.471473635174334, 0.0, 0.0, 0.0, 0.0, 0.0, 0.0, 0.0, 0.0, 1.648337133045814E9, 0.0, 2022-03-26 18:25:33.045
6.0, 1.0621315874159336, 2.2252404736354947, 2.8872027657926083, 3.264932661317289, 0.0, 0.0, 0.0, 0.0, 0.0, 0.0, 0.0, 0.0, 1.6483371330760465E9, 0.0, 2022-03-26 18:25:33.076
6.0, 2.053205075673759, 0.7853789906948805, -6.731819920241833, 3.459407459013164, 0.0, 0.0, 0.0, 0.0, 0.0, 0.0, 0.0, 0.0, 1.6483371330760465E9, 0.0, 2022-03-26 18:25:33.076
7.0, 2.382316271774471, 1.6455559805035591, -3.062978063710034, 1.1331896865740418, 0.0, 0.0, 0.0, 0.0, 0.0, 0.0, 0.0, 0.0, 1.6483371331077793E9, 0.0, 2022-03-26 18:25:33.107
7.0, -2.056944975629449, 1.60815698094666, -4.656175444833934, -1.9148287773132324, 0.0, 0.0, 0.0, 0.0, 0.0, 0.0, 0.0, 0.0, 1.6483371331077793E9, 0.0, 2022-03-26 18:25:33.107
8.0, -7.150688715279102, 2.2289803735911846, -3.22005386184901, 6.7430396201089025, 0.0, 0.0, 0.0, 0.0, 0.0, 0.0, 0.0, 0.0, 1.648337133108342E9, 0.0, 2022-03-26 18:25:33.108
8.0, -7.7864717077463865, -1.3949826834723353, -4.270965749397874, -5.710827232338488, 0.0, 0.0, 0.0, 0.0, 0.0, 0.0, 0.0, 0.0, 1.648337133108342E9, 0.0, 2022-03-26 18:25:33.108
9.0, -3.066717963665724, 1.3875028835609555, -0.6731819920241833, -5.24333973787725, 0.0, 0.0, 0.0, 0.0, 0.0, 0.0, 0.0, 0.0, 1.6483371331234722E9, 0.0, 2022-03-26 18:25:33.123
9.0, 0.22439399734139442, 5.314397837035358, 4.270965749397874, -2.0756444754078984, 0.0, 0.0, 0.0, 0.0, 0.0, 0.0, 0.0, 0.0, 1.6483371331234722E9, 0.0, 2022-03-26 18:25:33.123
10.0, -4.84317044261843, -2.7263870676979423, -12.121015756390989, -2.8348441664129496, 0.0, 0.0, 0.9280000440776348, 0.0, 0.0, 0.0, 0.0, 0.0, 1.6483371331240704E9, 0.0, 2022-03-26 18:25:33.124
10.0, -3.8371373545378447, 2.4832935705780983, -2.3561369720846415, 3.414528659544885, 0.0, 0.0, 0.9280000440776348, 0.0, 0.0, 0.0, 0.0, 0.0, 1.6483371331240704E9, 0.0, 2022-03-26 18:25:33.124
11.0, -6.915075018070638, 5.542531734332442, -6.200754126533866, -3.347210460342467, 0.0, 0.4480000212788582, 0.9280000440776348, 0.0, 0.0, 0.0, 0.0, 0.0, 1.648337133124894E9, 0.0, 2022-03-26 18:25:33.124
11.0, -2.7189072677865624, 3.904455553740263, -1.1182300867512822, 2.9919199645519257, 0.0, 0.4480000212788582, 0.9280000440776348, 0.0, 0.0, 0.0, 0.0, 0.0, 1.648337133124894E9, 0.0, 2022-03-26 18:25:33.124
12.0, -2.2775990730151534, 1.8063716785982251, -6.6607618210837245, 5.422854935750365, 0.0, 0.4480000212788582, 0.9280000440776348, 0.0, 0.0, 0.0, 0.0, 0.0, 1.648337133125566E9, 0.0, 2022-03-26 18:25:33.125
12.0, -14.634228526614606, -3.6351827569305897, -14.551950727589428, -14.955859922803938, 0.0, 0.4480000212788582, 0.9280000440776348, 0.0, 0.0, 0.0, 0.0, 0.0, 1.648337133125566E9, 0.0, 2022-03-26 18:25:33.125
13.0, -6.83653711900115, 3.5529049579054117, -2.692727968096733, -0.044878799468278885, 0.0, 0.4480000212788582, 0.9280000440776348, 0.0, 0.0, 0.0, 0.0, 0.0, 1.6483371331362753E9, 0.0, 2022-03-26 18:25:33.136
13.0, -6.118476327508688, -0.7517198910936713, -6.757999219931662, 3.186394762247801, 0.0, 0.4480000212788582, 0.9280000440776348, 0.0, 0.0, 0.0, 0.0, 0.0, 1.6483371331362753E9, 0.0, 2022-03-26 18:25:33.136
14.0, -6.350350124761462, 1.61189688090235, -14.1181223327294, 0.5796844931319356, 0.0, 0.4480000212788582, 0.9280000440776348, 0.0, 0.0, 0.0, 0.0, 0.0, 1.6483371331370249E9, 0.0, 2022-03-26 18:25:33.137
14.0, -4.02787225227803, -4.7309734439477324, -15.494405516423285, 0.845217389985919, 0.0, 0.4480000212788582, 0.9280000440776348, 0.0, 0.0, 0.0, 0.0, 0.0, 1.6483371331370249E9, 0.0, 2022-03-26 18:25:33.137
15.0, -2.3037783727049828, -2.741346667520702, 2.2402000734582543, 10.707333573140204, 0.0, 0.4480000212788582, 0.9280000440776348, 0.0, 0.0, 0.0, 0.0, 0.0, 1.6483371331513073E9, 0.0, 2022-03-26 18:25:33.151
15.0, -1.3875028835609555, 0.2505732970312238, 9.865856083109975, 13.467379740439355, 0.0, 0.4480000212788582, 0.9280000440776348, 0.0, 0.0, 0.0, 0.0, 0.0, 1.6483371331513073E9, 0.0, 2022-03-26 18:25:33.151
16.0, -3.949334353208542, -2.1990611739456654, 13.242985743097961, 0.8751365896314383, 0.0, 0.4480000212788582, 0.9280000440776348, 0.0, 0.0, 0.0, 0.0, 0.0, 1.6483371331520076E9, 0.0, 2022-03-26 18:25:33.152
16.0, -3.010619464330375, -8.579330498352647, 3.4033089596778154, 10.774651772342622, 0.0, 0.4480000212788582, 0.9280000440776348, 0.0, 0.0, 0.0, 0.0, 0.0, 1.6483371331520076E9, 0.0, 2022-03-26 18:25:33.152
17.0, -0.4712273944169283, -0.07853789906948805, 17.020284698344767, 12.379068853333592, 0.0, 0.4480000212788582, 0.9280000440776348, 0.0, 0.0, 0.0, 0.0, 0.0, 1.648337133181946E9, 0.0, 2022-03-26 18:25:33.181
17.0, -4.117629851214588, -7.539638310670853, 24.57114270888269, 7.438661011867225, 0.0, 0.4480000212788582, 0.9280000440776348, 0.0, 0.0, 0.0, 0.0, 0.0, 1.648337133181946E9, 0.0, 2022-03-26 18:25:33.181
18.0, -0.8190380902960896, -5.097483639605343, 31.265563629567623, 19.69431316666305, 0.0, 0.4480000212788582, 0.9280000440776348, 0.0, 0.0, 0.0, 0.0, 0.0, 1.6483371331827514E9, 0.0, 2022-03-26 18:25:33.182
18.0, 0.044878799468278885, -12.988672546111047, 41.247356611303985, 28.086648667231202, 0.0, 0.4480000212788582, 0.9280000440776348, 0.0, 0.0, 0.0, 0.0, 0.0, 1.6483371331827514E9, 0.0, 2022-03-26 18:25:33.182
19.0, 1.9036090774461627, -3.6725817564874887, 51.82005378603935, 25.064809503033757, 0.0, 0.4480000212788582, 0.9280000440776348, 0.0, 0.0, 0.0, 0.0, 0.0, 1.648337133183421E9, 0.0, 2022-03-26 18:25:33.183
19.0, -3.6875413563102484, -15.632781814783812, 49.22830311674625, 24.402847210876644, 0.0, 0.4480000212788582, 0.9280000440776348, 0.0, 0.0, 0.0, 0.0, 0.0, 1.648337133183421E9, 0.0, 2022-03-26 18:25:33.183
20.0, -2.9545209649950266, -21.915813740342855, 54.6174989528954, 30.17725274246186, 0.0, 0.4480000212788582, 0.9280000440776348, 0.0, 0.0, 0.0, 0.0, 0.0, 1.6483371331957104E9, 0.0, 2022-03-26 18:25:33.195
20.0, -2.056944975629449, -15.228872619569302, 57.59445931762457, 25.831488993950188, 0.0, 0.4480000212788582, 0.9280000440776348, 0.0, 0.0, 0.0, 0.0, 0.0, 1.6483371331957104E9, 0.0, 2022-03-26 18:25:33.195
21.0, -5.763185831718147, -22.648834131658077, 40.11042702477425, 14.989519022405148, 0.0, 0.4480000212788582, 0.9280000440776348, 0.0, 0.0, 0.0, 0.0, 0.0, 1.6483371332112591E9, 0.0, 2022-03-26 18:25:33.211
21.0, -4.704794144257903, -20.756444754078984, 43.97374367900193, 26.99833778012544, 0.0, 0.4480000212788582, 0.9280000440776348, 0.0, 0.0, 0.0, 0.0, 0.0, 1.6483371332112591E9, 0.0, 2022-03-26 18:25:33.211
22.0, -9.331050389446318, -14.353736029937863, 46.80858784541488, 35.622547077946365, 0.0, 0.4480000212788582, 0.9280000440776348, 0.0, 0.0, 0.0, 0.0, 0.0, 1.6483371332120347E9, 0.0, 2022-03-26 18:25:33.212
22.0, -7.341423613019288, -12.06865715701133, 50.84767979755998, 28.14648706652224, 0.0, 0.4480000212788582, 0.9280000440776348, 0.0, 0.0, 0.0, 0.0, 0.0, 1.6483371332120347E9, 0.0, 2022-03-26 18:25:33.212
23.0, -9.65268178563565, -18.190873384475708, 44.78904186934233, 31.43759902752936, 0.0, 0.4480000212788582, 0.9280000440776348, 0.0, 0.0, 0.0, 0.0, 0.0, 1.6483371332256951E9, 0.0, 2022-03-26 18:25:33.225
23.0, -0.6470026923343539, -12.278091554529965, 57.744055315852165, 40.14782602433115, 0.0, 0.4480000212788582, 0.9280000440776348, 0.0, 0.0, 0.0, 0.0, 0.0, 1.6483371332256951E9, 0.0, 2022-03-26 18:25:33.225
24.0, -9.009418993256986, -17.087602897547185, 50.97857629600912, 31.961185021325946, 0.0, 0.4480000212788582, 0.9280000440776348, 0.0, 0.0, 0.0, 0.0, 0.0, 1.6483371332412932E9, 0.0, 2022-03-26 18:25:33.241
24.0, -6.989873017184436, -18.695759878493845, 51.13191219419241, 32.776483211666346, 0.0, 0.4480000212788582, 0.9280000440776348, 0.0, 0.0, 0.0, 0.0, 0.0, 1.6483371332412932E9, 0.0, 2022-03-26 18:25:33.241
25.0, -10.209926879033446, -19.043570574373007, 49.52001531329006, 33.80121579952538, 0.0, 0.4480000212788582, 0.9280000440776348, 0.0, 0.0, 0.0, 0.0, 0.0, 1.648337133242025E9, 0.0, 2022-03-26 18:25:33.242
25.0, -5.2508195377886295, -18.90145437605679, 45.709057258442044, 28.774790259078145, 0.0, 0.4480000212788582, 0.9280000440776348, 0.0, 0.0, 0.0, 0.0, 0.0, 1.648337133242025E9, 0.0, 2022-03-26 18:25:33.242
26.0, -4.603816845454276, -23.105101926252246, 37.185825259424746, 15.28871101886034, 0.0, 0.4480000212788582, 0.9280000440776348, 0.0, 0.0, 0.0, 0.0, 0.0, 1.6483371332556565E9, 0.0, 2022-03-26 18:25:33.255
26.0, -8.351196601055562, -20.96213925164193, 38.55836854316294, 27.914613269269466, 0.0, 0.4480000212788582, 0.9280000440776348, 0.0, 0.0, 0.0, 0.0, 0.0, 1.6483371332556565E9, 0.0, 2022-03-26 18:25:33.255
27.0, -2.9657406648620963, -18.50128508079797, 39.9832704262808, 30.809295834973454, 0.0, 0.4480000212788582, 0.9280000440776348, 0.0, 0.0, 0.0, 0.0, 0.0, 1.648337133271256E9, 0.0, 2022-03-26 18:25:33.271
27.0, -10.991565969772637, -23.860561717301607, 23.942839516326785, 19.74667176604271, 0.0, 0.4480000212788582, 0.9280000440776348, 0.0, 0.0, 0.0, 0.0, 0.0, 1.648337133271256E9, 0.0, 2022-03-26 18:25:33.271
28.0, -6.4588072234764695, -21.76247784215957, 26.58694878499955, 8.796244695782661, 0.0, 0.4480000212788582, 0.9280000440776348, 0.0, 0.0, 0.0, 0.0, 0.0, 1.6483371332720685E9, 0.0, 2022-03-26 18:25:33.272
28.0, -5.404155435971916, -19.25674487184733, 26.815082682296634, 19.26048477180302, 0.0, 0.4480000212788582, 0.9280000440776348, 0.0, 0.0, 0.0, 0.0, 0.0, 1.6483371332720685E9, 0.0, 2022-03-26 18:25:33.272
29.0, -7.307764513418078, -17.603709091432393, 32.29777601733804, 20.0832627620548, 0.0, 0.4480000212788582, 0.9280000440776348, 0.0, 0.0, 0.0, 0.0, 0.0, 1.6483371332856798E9, 0.0, 2022-03-26 18:25:33.285
29.0, -8.706487096846104, -19.009911474771798, 29.982777944765985, 22.387041134759784, 0.0, 0.4480000212788582, 0.9280000440776348, 0.0, 0.0, 0.0, 0.0, 0.0, 1.6483371332856798E9, 0.0, 2022-03-26 18:25:33.285
30.0, -9.701300485059619, -21.029457450844347, 28.382100763730705, 22.364601735025644, 0.0, 0.4480000212788582, 0.9280000440776348, 0.0, 0.0, 0.0, 0.0, 0.0, 1.6483371333176684E9, 0.0, 2022-03-26 18:25:33.317
30.0, -3.661362056620419, -16.92304729949683, 31.127187331207097, 26.710365483537316, 0.0, 0.4480000212788582, 0.9280000440776348, 0.0, 0.0, 0.0, 0.0, 0.0, 1.6483371333176684E9, 0.0, 2022-03-26 18:25:33.317
31.0, -15.060577121563256, -16.212466307915747, 27.230211577378213, 12.225732955150306, 0.0, 0.4640000220388174, 0.9280000440776348, 0.0, 0.0, 0.0, 0.0, 0.0, 1.6483371333185053E9, 0.0, 2022-03-26 18:25:33.318
31.0, -18.232012283988297, -17.899161187931895, 27.611681372858584, 6.7392997201532125, 0.0, 0.4640000220388174, 0.9280000440776348, 0.0, 0.0, 0.0, 0.0, 0.0, 1.6483371333185053E9, 0.0, 2022-03-26 18:25:33.318
32.0, -10.142608679831028, -5.804324731230736, 37.212004559114575, 28.51299726217985, 0.0, 0.4640000220388174, 0.9280000440776348, 0.0, 0.0, 0.0, 0.0, 0.0, 1.648337133319245E9, 0.0, 2022-03-26 18:25:33.319
32.0, -15.610342415049672, -10.202447079122066, 34.27244319394231, 21.407187346369028, 0.0, 0.4640000220388174, 0.9280000440776348, 0.0, 0.0, 0.0, 0.0, 0.0, 1.648337133319245E9, 0.0, 2022-03-26 18:25:33.319
33.0, -12.969973046332598, -12.225732955150306, 34.98676408547908, 15.486925716511905, 0.0, 0.4640000220388174, 0.9280000440776348, 0.0, 0.0, 0.0, 0.0, 0.0, 1.648337133319948E9, 0.0, 2022-03-26 18:25:33.319
33.0, -13.856329335831106, -13.25794534292072, 28.5316967619583, 19.35398227069527, 0.0, 0.4640000220388174, 0.9280000440776348, 0.0, 0.0, 0.0, 0.0, 0.0, 1.648337133319948E9, 0.0, 2022-03-26 18:25:33.319
34.0, -9.319830689579248, -17.207279696129262, 29.930419345386326, 7.778991907835007, 0.0, 0.4640000220388174, 0.9280000440776348, 0.0, 0.0, 0.0, 0.0, 0.0, 1.6483371333305767E9, 0.0, 2022-03-26 18:25:33.330
34.0, -11.518891863524914, -13.519738339819014, 31.0149903325364, 5.265779137611389, 0.0, 0.4640000220388174, 0.9280000440776348, 0.0, 0.0, 0.0, 0.0, 0.0, 1.6483371333305767E9, 0.0, 2022-03-26 18:25:33.330
35.0, -8.280138501897454, -15.094236221164465, 25.73051169514656, 14.51455172803253, 0.0, 0.4640000220388174, 0.9280000440776348, 0.0, 0.0, 0.0, 0.0, 0.0, 1.6483371333455837E9, 0.0, 2022-03-26 18:25:33.345
35.0, -12.139715256169438, -14.851142724044621, 16.305963806807995, 6.503686022944748, 0.0, 0.4640000220388174, 0.9280000440776348, 0.0, 0.0, 0.0, 0.0, 0.0, 1.6483371333455837E9, 0.0, 2022-03-26 18:25:33.345
36.0, -11.829303559847176, -14.07698343321681, 12.293051154352725, 4.581377445720136, 0.0, 0.4640000220388174, 0.9280000440776348, 0.0, 0.0, 0.0, 0.0, 0.0, 1.6483371333613193E9, 0.0, 2022-03-26 18:25:33.361
36.0, -9.136575591750443, -22.51793763320893, 12.637121950276196, 3.1976144621148705, 0.0, 0.4640000220388174, 0.9280000440776348, 0.0, 0.0, 0.0, 0.0, 0.0, 1.6483371333613193E9, 0.0, 2022-03-26 18:25:33.361
37.0, -6.4588072234764695, -20.973358951509, 14.985779122449458, -4.383162748068571, 0.0, 0.4640000220388174, 0.9280000440776348, 0.0, 0.0, 0.0, 0.0, 0.0, 1.648337133362074E9, 0.0, 2022-03-26 18:25:33.362
37.0, -11.025225069373846, -20.015944562852383, 9.727479784749448, -2.1878414740785956, 0.0, 0.4640000220388174, 0.9280000440776348, 0.0, 0.0, 0.0, 0.0, 0.0, 1.648337133362074E9, 0.0, 2022-03-26 18:25:33.362
38.0, -12.236952655017376, -24.92643320467323, 9.884555582888424, -2.5506117697805166, 0.0, 0.4640000220388174, 0.9280000440776348, 0.0, 0.0, 0.0, 0.0, 0.0, 1.64833713337569E9, 0.0, 2022-03-26 18:25:33.375
38.0, -8.115582903847098, -19.488618669100106, 14.86236242391169, 10.367002677172422, 0.0, 0.4640000220388174, 0.9280000440776348, 0.0, 0.0, 0.0, 0.0, 0.0, 1.64833713337569E9, 0.0, 2022-03-26 18:25:33.375
39.0, -6.952474017627537, -18.647141179069877, 15.32611001841724, 9.985532881692052, 0.0, 0.4640000220388174, 0.9280000440776348, 0.0, 0.0, 0.0, 0.0, 0.0, 1.6483371333918633E9, 0.0, 2022-03-26 18:25:33.391
39.0, -8.942100794054568, -16.46303960494697, 15.225132719613612, 9.753659084439278, 0.0, 0.4640000220388174, 0.9280000440776348, 0.0, 0.0, 0.0, 0.0, 0.0, 1.6483371333918633E9, 0.0, 2022-03-26 18:25:33.391
40.0, -8.781285095959902, -13.112089244648814, 16.182547108270228, 16.620115403085947, 0.0, 0.4640000220388174, 0.9280000440776348, 0.0, 0.0, 0.0, 0.0, 0.0, 1.6483371334060595E9, 0.0, 2022-03-26 18:25:33.406
40.0, -9.398368588648736, -15.849696012213826, 14.450973428785801, 9.906994982622564, 0.0, 0.4640000220388174, 0.9280000440776348, 0.0, 0.0, 0.0, 0.0, 0.0, 1.6483371334060595E9, 0.0, 2022-03-26 18:25:33.406
41.0, -10.43806077633053, -14.993258922360837, 14.043324333615601, 6.4214082239195704, 0.0, 0.4480000212788582, 0.9280000440776348, 0.0, 0.0, 0.0, 0.0, 0.0, 1.648337133422018E9, 0.0, 2022-03-26 18:25:33.422
41.0, -11.477752964012325, -10.651235073804855, 24.234551712870598, 12.745579048991203, 0.0, 0.4480000212788582, 0.9280000440776348, 0.0, 0.0, 0.0, 0.0, 0.0, 1.648337133422018E9, 0.0, 2022-03-26 18:25:33.422
42.0, -13.347702941857278, -19.3801615703851, 17.379315094090998, 11.395475164987147, 0.0, 0.4480000212788582, 0.9280000440776348, 0.0, 0.0, 0.0, 0.0, 0.0, 1.6483371334227495E9, 0.0, 2022-03-26 18:25:33.422
42.0, -13.6730742380023, -16.44808000512421, 18.778037677519023, -3.665101956576109, 0.0, 0.4480000212788582, 0.9280000440776348, 0.0, 0.0, 0.0, 0.0, 0.0, 1.6483371334227495E9, 0.0, 2022-03-26 18:25:33.422
43.0, -14.652928026393056, -12.618422450497746, 16.53783760406077, 2.8872027657926083, 0.0, 0.4480000212788582, 0.9280000440776348, 0.0, 0.0, 0.0, 0.0, 0.0, 1.6483371334234567E9, 0.0, 2022-03-26 18:25:33.423
43.0, -13.998445534147322, -9.570403986610472, 19.017391274683177, 14.06950363330543, 0.0, 0.4480000212788582, 0.9280000440776348, 0.0, 0.0, 0.0, 0.0, 0.0, 1.6483371334234567E9, 0.0, 2022-03-26 18:25:33.423
44.0, -13.744132337160408, -9.701300485059619, 16.635075002908707, 15.31489031855017, 0.0, 0.4480000212788582, 0.9280000440776348, 0.0, 0.0, 0.0, 0.0, 0.0, 1.648337133435592E9, 0.0, 2022-03-26 18:25:33.435
44.0, -15.72627931367606, -13.594536338932812, 18.246971883811057, 3.5229857582598925, 0.0, 0.4480000212788582, 0.9280000440776348, 0.0, 0.0, 0.0, 0.0, 0.0, 1.648337133435592E9, 0.0, 2022-03-26 18:25:33.435
45.0, -9.888295482844114, -9.794797983951867, 23.80446321796626, 9.424547888338566, 0.0, 0.4480000212788582, 0.9280000440776348, 0.0, 0.0, 0.0, 0.0, 0.0, 1.6483371334513113E9, 0.0, 2022-03-26 18:25:33.451
45.0, -11.189780667424202, -15.008218522183597, 15.875875311903656, 5.7744055315852165, 0.0, 0.4480000212788582, 0.9280000440776348, 0.0, 0.0, 0.0, 0.0, 0.0, 1.6483371334513113E9, 0.0, 2022-03-26 18:25:33.451
46.0, -8.44469409994781, -14.46967292856425, 13.590796438977122, 2.7637860672548413, 0.0, 0.4480000212788582, 0.9280000440776348, 0.0, 0.0, 0.0, 0.0, 0.0, 1.6483371334520447E9, 0.0, 2022-03-26 18:25:33.452
46.0, -4.854390142485499, -15.019438222050667, 16.04791070986539, 11.907841458916664, 0.0, 0.4480000212788582, 0.9280000440776348, 0.0, 0.0, 0.0, 0.0, 0.0, 1.6483371334520447E9, 0.0, 2022-03-26 18:25:33.452
47.0, -3.3098114607855678, -12.427687552757561, 18.08989608567208, 12.581023450940847, 0.0, 0.4480000212788582, 0.9280000440776348, 0.0, 0.0, 0.0, 0.0, 0.0, 1.6483371334656758E9, 0.0, 2022-03-26 18:25:33.465
47.0, -3.4369680592790246, -10.007972281426191, 11.055144269019365, 2.8460638662800193, 0.0, 0.4480000212788582, 0.9280000440776348, 0.0, 0.0, 0.0, 0.0, 0.0, 1.6483371334656758E9, 0.0, 2022-03-26 18:25:33.465
48.0, -4.671135044656694, -10.367002677172422, 7.326464013196528, 10.333343577571213, 0.0, 0.4480000212788582, 0.9280000440776348, 0.0, 0.0, 0.0, 0.0, 0.0, 1.6483371334813037E9, 0.0, 2022-03-26 18:25:33.481
48.0, -8.654128497466445, -15.30741051863879, 6.866456318646669, 9.955613682046533, 0.0, 0.4480000212788582, 0.9280000440776348, 0.0, 0.0, 0.0, 0.0, 0.0, 1.6483371334813037E9, 0.0, 2022-03-26 18:25:33.481
49.0, -8.08192380424589, -18.318029982969165, 5.4116352358832955, 0.16829549800604582, 0.0, 0.4480000212788582, 0.9280000440776348, 0.0, 0.0, 0.0, 0.0, 0.0, 1.6483371334820397E9, 0.0, 2022-03-26 18:25:33.482
49.0, -14.275198130868375, -15.71879951376468, 11.399215064942837, 7.891188906505704, 0.0, 0.4480000212788582, 0.9280000440776348, 0.0, 0.0, 0.0, 0.0, 0.0, 1.6483371334820397E9, 0.0, 2022-03-26 18:25:33.482
50.0, -9.076737192459404, -14.757645225152373, 13.538437839597464, 12.685740649700165, 0.0, 0.4480000212788582, 0.9280000440776348, 0.0, 0.0, 0.0, 0.0, 0.0, 1.6483371335119722E9, 0.0, 2022-03-26 18:25:33.511
50.0, -9.68634088523686, -11.085063468664885, 11.361816065385938, 13.411281241104007, 0.0, 0.4480000212788582, 0.9280000440776348, 0.0, 0.0, 0.0, 0.0, 0.0, 1.6483371335119722E9, 0.0, 2022-03-26 18:25:33.511
51.0, -8.43721430003643, -7.797691407613456, 14.286417830735445, 3.979253552854061, 0.0, 0.4640000220388174, 0.9280000440776348, 0.0, 0.0, 0.0, 0.0, 0.0, 1.648337133512692E9, 0.0, 2022-03-26 18:25:33.512
51.0, -5.991319729015231, -2.1018237750977278, 22.749811430461705, 4.4467410473152995, 0.0, 0.4640000220388174, 0.9280000440776348, 0.0, 0.0, 0.0, 0.0, 0.0, 1.648337133512692E9, 0.0, 2022-03-26 18:25:33.512
52.0, -4.701054244302213, -4.132589451037347, 18.8977144761011, 9.188934191130102, 0.0, 0.4640000220388174, 0.9280000440776348, 0.0, 0.0, 0.0, 0.0, 0.0, 1.6483371335134428E9, 0.0, 2022-03-26 18:25:33.513
52.0, -10.812050771899521, -5.819284331053495, 11.25335896667093, 4.472920347005129, 0.0, 0.4640000220388174, 0.9280000440776348, 0.0, 0.0, 0.0, 0.0, 0.0, 1.6483371335134428E9, 0.0, 2022-03-26 18:25:33.513
53.0, -8.717706796713173, 0.605863792821765, 14.742685625329614, 9.850896483287215, 0.0, 0.4640000220388174, 0.9280000440776348, 0.0, 0.0, 0.0, 0.0, 0.0, 1.648337133525699E9, 0.0, 2022-03-26 18:25:33.525
53.0, -11.361816065385938, -2.6029703691601753, 15.187733720056713, 14.533251227810979, 0.0, 0.4640000220388174, 0.9280000440776348, 0.0, 0.0, 0.0, 0.0, 0.0, 1.648337133525699E9, 0.0, 2022-03-26 18:25:33.525
54.0, -7.498499411158264, -10.116429380141199, 14.170480932109058, 7.573297410272062, 0.0, 0.4640000220388174, 0.9280000440776348, 0.0, 0.0, 0.0, 0.0, 0.0, 1.6483371335409904E9, 0.0, 2022-03-26 18:25:33.540
54.0, -6.713120420463383, -9.865856083109975, 8.665348197333515, -5.602370133623481, 0.0, 0.4640000220388174, 0.9280000440776348, 0.0, 0.0, 0.0, 0.0, 0.0, 1.6483371335409904E9, 0.0, 2022-03-26 18:25:33.540
55.0, -5.108703339472413, -3.21631396189332, 9.562924186699092, -1.5969372810795903, 0.0, 0.4640000220388174, 0.9280000440776348, 0.0, 0.0, 0.0, 0.0, 0.0, 1.6483371335562537E9, 0.0, 2022-03-26 18:25:33.556
55.0, -4.02413235232234, -9.469426687806845, 8.47835319954902, 1.8662100778892636, 0.0, 0.4640000220388174, 0.9280000440776348, 0.0, 0.0, 0.0, 0.0, 0.0, 1.6483371335562537E9, 0.0, 2022-03-26 18:25:33.556
56.0, -12.10231625661254, -14.282677930779755, 1.1182300867512822, -9.510565587319434, 0.0, 0.4640000220388174, 0.9280000440776348, 0.0, 0.0, 0.0, 0.0, 0.0, 1.6483371335570016E9, 0.0, 2022-03-26 18:25:33.557
56.0, -9.028118493035436, -13.501038840040565, -4.884309342131019, -7.9061485063284636, 0.0, 0.4640000220388174, 0.9280000440776348, 0.0, 0.0, 0.0, 0.0, 0.0, 1.6483371335570016E9, 0.0, 2022-03-26 18:25:33.557
57.0, 1.0322123877704144, -4.155028850771487, 2.135482874698937, 0.6582223922014236, 0.0, 0.4640000220388174, 0.9280000440776348, 0.0, 0.0, 0.0, 0.0, 0.0, 1.6483371335712838E9, 0.0, 2022-03-26 18:25:33.571
57.0, 0.007479799911379814, -5.729526732116938, 5.280738737434149, -3.4444478591904044, 0.0, 0.4640000220388174, 0.9280000440776348, 0.0, 0.0, 0.0, 0.0, 0.0, 1.6483371335712838E9, 0.0, 2022-03-26 18:25:33.571
58.0, -5.823024231009185, -8.373636000789702, 4.760892643593252, -3.051758363842964, 0.0, 0.4640000220388174, 0.9280000440776348, 0.0, 0.0, 0.0, 0.0, 0.0, 1.64833713357203E9, 0.0, 2022-03-26 18:25:33.572
58.0, -4.278445549309254, -14.735205825418234, -3.8371373545378447, 0.6133435927331448, 0.0, 0.4640000220388174, 0.9280000440776348, 0.0, 0.0, 0.0, 0.0, 0.0, 1.64833713357203E9, 0.0, 2022-03-26 18:25:33.572
59.0, -10.527818375267088, -10.262285478413105, -5.7370065320283175, -7.281585213728249, 0.0, 0.4640000220388174, 0.9280000440776348, 0.0, 0.0, 0.0, 0.0, 0.0, 1.64833713358567E9, 0.0, 2022-03-26 18:25:33.585
59.0, -3.8782762540504336, -10.46050017606467, -4.3644632482901216, -2.9246017653495073, 0.0, 0.4640000220388174, 0.9280000440776348, 0.0, 0.0, 0.0, 0.0, 0.0, 1.64833713358567E9, 0.0, 2022-03-26 18:25:33.585
60.0, -3.747379755601287, -10.505378975532949, 1.290265484713018, 0.362770295701921, 0.0, 0.4640000220388174, 0.9280000440776348, 0.0, 0.0, 0.0, 0.0, 0.0, 1.648337133601297E9, 0.0, 2022-03-26 18:25:33.601
60.0, -0.1047171987593174, -0.5385455936193466, 6.43262792378664, 10.819530571810901, 0.0, 0.4640000220388174, 0.9280000440776348, 0.0, 0.0, 0.0, 0.0, 0.0, 1.648337133601297E9, 0.0, 2022-03-26 18:25:33.601
61.0, -1.4623008826747537, -4.113889951258898, 13.889988435432315, -6.099776827730238, 0.0, 0.4640000220388174, 0.9280000440776348, 0.0, 0.0, 0.0, 0.0, 0.0, 1.648337133602011E9, 0.0, 2022-03-26 18:25:33.602
61.0, 1.484740282408893, -5.134882639162242, 8.568110798485577, -5.882862630300224, 0.0, 0.4640000220388174, 0.9280000440776348, 0.0, 0.0, 0.0, 0.0, 0.0, 1.648337133602011E9, 0.0, 2022-03-26 18:25:33.602
62.0, 1.1107502868399024, -5.138622539117932, 9.323570589534938, 6.283031925559044, -0.01600000075995922, 0.4640000220388174, 0.9280000440776348, 0.0, 0.0, 0.0, 0.0, 0.0, 1.6483371336156907E9, 0.0, 2022-03-26 18:25:33.615
62.0, -0.9200153890997171, 2.2364601735025644, 17.147441296838224, 14.667887626215816, -0.01600000075995922, 0.4640000220388174, 0.9280000440776348, 0.0, 0.0, 0.0, 0.0, 0.0, 1.6483371336156907E9, 0.0, 2022-03-26 18:25:33.615
63.0, -5.434074635617435, 4.480400146916509, 17.902901087887585, 5.295698337256908, -0.01600000075995922, 0.4640000220388174, 0.9280000440776348, 0.0, 0.0, 0.0, 0.0, 0.0, 1.6483371336312475E9, 0.0, 2022-03-26 18:25:33.631
63.0, -0.4637475945055485, 1.5445786816999316, 17.27833779528737, 11.851742959581316, -0.01600000075995922, 0.4640000220388174, 0.9280000440776348, 0.0, 0.0, 0.0, 0.0, 0.0, 1.6483371336312475E9, 0.0, 2022-03-26 18:25:33.631
64.0, -2.943301265127957, -1.3501038840040565, 14.660407826304436, 8.003385905176401, -0.01600000075995922, 0.4640000220388174, 0.9280000440776348, 0.0, 0.0, 0.0, 0.0, 0.0, 1.6483371336320045E9, 0.0, 2022-03-26 18:25:33.632
64.0, -7.9061485063284636, -6.04741822835058, 2.086864175274968, 2.969480564817786, -0.01600000075995922, 0.4640000220388174, 0.9280000440776348, 0.0, 0.0, 0.0, 0.0, 0.0, 1.6483371336320045E9, 0.0, 2022-03-26 18:25:33.632
65.0, -3.5192458583042026, -1.6006771810352802, 8.194120802916586, 0.8938360894098878, -0.01600000075995922, 0.4640000220388174, 0.9280000440776348, 0.0, 0.0, 0.0, 0.0, 0.0, 1.6483371336619797E9, 0.0, 2022-03-26 18:25:33.661
65.0, -3.3210311606526375, 1.6679953802376986, 9.820977283641696, 0.28423239663243294, -0.01600000075995922, 0.4640000220388174, 0.9280000440776348, 0.0, 0.0, 0.0, 0.0, 0.0, 1.6483371336619797E9, 0.0, 2022-03-26 18:25:33.661
66.0, -3.3098114607855678, -3.2761523611843586, 8.414774900302291, 3.21257406193763, -0.01600000075995922, 0.4640000220388174, 0.9280000440776348, 0.0, 0.0, 0.0, 0.0, 0.0, 1.648337133662728E9, 0.0, 2022-03-26 18:25:33.662
66.0, -2.7637860672548413, -3.1265563629567623, 7.9061485063284636, 3.455667559057474, -0.01600000075995922, 0.4640000220388174, 0.9280000440776348, 0.0, 0.0, 0.0, 0.0, 0.0, 1.648337133662728E9, 0.0, 2022-03-26 18:25:33.662
67.0, 0.29919199645519257, -1.3201846843585372, 4.83943054266274, 9.301131189800799, -0.01600000075995922, 0.4640000220388174, 0.9280000440776348, 0.0, 0.0, 0.0, 0.0, 0.0, 1.648337133663468E9, 0.0, 2022-03-26 18:25:33.663
67.0, -4.0465717520564795, 1.043432087637484, 13.003632145933807, -0.964894188567996, -0.01600000075995922, 0.4640000220388174, 0.9280000440776348, 0.0, 0.0, 0.0, 0.0, 0.0, 1.648337133663468E9, 0.0, 2022-03-26 18:25:33.663
68.0, -4.514059246517718, -4.162508650682867, 0.5086263939738274, 2.9993997644633055, -0.01600000075995922, 0.4640000220388174, 0.9280000440776348, 0.0, 0.0, 0.0, 0.0, 0.0, 1.648337133675589E9, 0.0, 2022-03-26 18:25:33.675
68.0, -2.094343975186348, -7.65557520929724, 2.7076875679194927, 5.714567132294178, -0.01600000075995922, 0.4640000220388174, 0.9280000440776348, 0.0, 0.0, 0.0, 0.0, 0.0, 1.648337133675589E9, 0.0, 2022-03-26 18:25:33.675
69.0, -0.12715659849345684, -1.5183993820101023, 14.753905325196683, 7.476060011424124, -0.01600000075995922, 0.4640000220388174, 0.9280000440776348, 0.0, 0.0, 0.0, 0.0, 0.0, 1.6483371336913035E9, 0.0, 2022-03-26 18:25:33.691
69.0, 0.8265178902074695, -0.9424547888338566, 14.970819522626698, 3.586564057506621, -0.01600000075995922, 0.4640000220388174, 0.9280000440776348, 0.0, 0.0, 0.0, 0.0, 0.0, 1.6483371336913035E9, 0.0, 2022-03-26 18:25:33.691
70.0, 0.7068410916253924, -2.501993070356548, 12.625902250409126, 5.176021538674831, -0.01600000075995922, 0.4640000220388174, 0.9280000440776348, 0.0, 0.0, 0.0, 0.0, 0.0, 1.6483371336920648E9, 0.0, 2022-03-26 18:25:33.692
70.0, -7.098330115899444, -3.5566448578611016, 4.147549050860107, 7.580777210183442, -0.01600000075995922, 0.4640000220388174, 0.9280000440776348, 0.0, 0.0, 0.0, 0.0, 0.0, 1.6483371336920648E9, 0.0, 2022-03-26 18:25:33.692
71.0, -3.025579064153135, -4.43552134744823, -2.0382454758509994, 3.8483570544049144, -0.01600000075995922, 0.4480000212788582, 0.9280000440776348, 0.0, 0.0, 0.0, 0.0, 0.0, 1.6483371337055912E9, 0.0, 2022-03-26 18:25:33.705
71.0, -7.535898410715163, -7.726633308455348, -7.296544813551009, -4.802031543105841, -0.01600000075995922, 0.4480000212788582, 0.9280000440776348, 0.0, 0.0, 0.0, 0.0, 0.0, 1.6483371337055912E9, 0.0, 2022-03-26 18:25:33.705
72.0, -6.174574826844037, -5.108703339472413, -15.494405516423285, -3.5603847578167915, 0.0, 0.4480000212788582, 0.9280000440776348, 0.0, 0.0, 0.0, 0.0, 0.0, 1.6483371337377365E9, 0.0, 2022-03-26 18:25:33.737
72.0, -10.83075027167797, -5.901562130078673, -24.447726010344923, -4.802031543105841, 0.0, 0.4480000212788582, 0.9280000440776348, 0.0, 0.0, 0.0, 0.0, 0.0, 1.6483371337377365E9, 0.0, 2022-03-26 18:25:33.737
73.0, -12.394028453156352, -4.708534044213593, -25.655713696032763, -13.052250845357776, 0.0, 0.4480000212788582, 0.9280000440776348, 0.0, 0.0, 0.0, 0.0, 0.0, 1.6483371337384396E9, 0.0, 2022-03-26 18:25:33.738
73.0, -10.381962276995182, -5.879122730344534, -19.615775267593563, -2.7862254669889808, 0.0, 0.4480000212788582, 0.9280000440776348, 0.0, 0.0, 0.0, 0.0, 0.0, 1.6483371337384396E9, 0.0, 2022-03-26 18:25:33.738
74.0, -6.264332425780594, -6.092297027818859, -15.827256612479687, -15.587903015315533, 0.0, 0.4480000212788582, 0.9280000440776348, 0.0, 0.0, 0.0, 0.0, 0.0, 1.648337133739195E9, 0.0, 2022-03-26 18:25:33.739
74.0, -8.814944195561111, -9.342270089313388, -19.70553286653012, -18.643401279114187, 0.0, 0.4480000212788582, 0.9280000440776348, 0.0, 0.0, 0.0, 0.0, 0.0, 1.648337133739195E9, 0.0, 2022-03-26 18:25:33.739
75.0, -11.320677165873349, -8.85982299502939, -25.143347402103245, -19.847649064846337, 0.0, 0.4480000212788582, 0.9280000440776348, 0.0, 0.0, 0.0, 0.0, 0.0, 1.6483371337401004E9, 0.0, 2022-03-26 18:25:33.740
75.0, -12.04995765723288, -17.955259687267244, -28.63641396071762, -14.256498631089926, 0.0, 0.4480000212788582, 0.9280000440776348, 0.0, 0.0, 0.0, 0.0, 0.0, 1.6483371337401004E9, 0.0, 2022-03-26 18:25:33.740
76.0, -6.062377828173339, -7.333943813107908, -16.773451301269233, -10.07155058067292, 0.0, 0.4480000212788582, 0.9280000440776348, 0.0, 0.0, 0.0, 0.0, 0.0, 1.6483371337506435E9, 0.0, 2022-03-26 18:25:33.750
76.0, -6.6607618210837245, -7.068410916253924, -23.27339742425829, -14.828703324310482, 0.0, 0.4480000212788582, 0.9280000440776348, 0.0, 0.0, 0.0, 0.0, 0.0, 1.6483371337506435E9, 0.0, 2022-03-26 18:25:33.750
77.0, -14.174220832064748, -17.843062688596547, -26.94971908070147, -9.25625239033252, 0.0, 0.4480000212788582, 0.9280000440776348, 0.0, 0.0, 0.0, 0.0, 0.0, 1.6483371337656786E9, 0.0, 2022-03-26 18:25:33.765
77.0, -10.168787979520857, -16.421900705434382, -23.269657524302602, -4.663655244745314, 0.0, 0.4480000212788582, 0.9280000440776348, 0.0, 0.0, 0.0, 0.0, 0.0, 1.6483371337656786E9, 0.0, 2022-03-26 18:25:33.765
78.0, -12.117275856435299, -8.665348197333515, -25.068549402989447, -7.879969206638634, 0.0, 0.4480000212788582, 0.9280000440776348, 0.0, 0.0, 0.0, 0.0, 0.0, 1.648337133781263E9, 0.0, 2022-03-26 18:25:33.781
78.0, -8.986979593522847, -13.388841841369867, -22.97794532775879, -4.517799146473408, 0.0, 0.4480000212788582, 0.9280000440776348, 0.0, 0.0, 0.0, 0.0, 0.0, 1.648337133781263E9, 0.0, 2022-03-26 18:25:33.781
79.0, -13.164447844028473, -17.25215849559754, -21.964432439766824, -15.572943415492773, 0.0, 0.4480000212788582, 0.9280000440776348, 0.0, 0.0, 0.0, 0.0, 0.0, 1.648337133782088E9, 0.0, 2022-03-26 18:25:33.782
79.0, -11.380515565164387, -14.08446323312819, -18.602262379601598, -19.993505163118243, 0.0, 0.4480000212788582, 0.9280000440776348, 0.0, 0.0, 0.0, 0.0, 0.0, 1.648337133782088E9, 0.0, 2022-03-26 18:25:33.782
80.0, -8.908441694453359, -16.4518199050799, -24.55244320910424, -8.126802603714168, 0.0, 0.4480000212788582, 0.9280000440776348, 0.0, 0.0, 0.0, 0.0, 0.0, 1.6483371337956789E9, 0.0, 2022-03-26 18:25:33.795
80.0, -14.252758731134236, -17.24841859564185, -23.76706421840936, -7.479799911379814, 0.0, 0.4480000212788582, 0.9280000440776348, 0.0, 0.0, 0.0, 0.0, 0.0, 1.6483371337956789E9, 0.0, 2022-03-26 18:25:33.795
81.0, -16.279784507118165, -16.328403206542134, -20.831242753192782, -10.49415927566588, 0.0, 0.4480000212788582, 0.9280000440776348, 0.0, 0.0, 0.0, 0.0, 0.0, 1.6483371338112645E9, 0.0, 2022-03-26 18:25:33.811
81.0, -14.207879931665957, -15.644001514650881, -18.86779527645558, -9.914474782533944, 0.0, 0.4480000212788582, 0.9280000440776348, 0.0, 0.0, 0.0, 0.0, 0.0, 1.6483371338112645E9, 0.0, 2022-03-26 18:25:33.811
82.0, -9.114136192016304, -15.759938413277268, -22.48801843356341, -6.885155818425119, 0.0, 0.4480000212788582, 0.9280000440776348, 0.0, 0.0, 0.0, 0.0, 0.0, 1.648337133812006E9, 0.0, 2022-03-26 18:25:33.812
82.0, -14.155521332286298, -20.296437059529126, -30.768156935460865, -9.933174282312393, 0.0, 0.4480000212788582, 0.9280000440776348, 0.0, 0.0, 0.0, 0.0, 0.0, 1.648337133812006E9, 0.0, 2022-03-26 18:25:33.812
83.0, -12.113535956479609, -20.042123862542212, -29.02910345606506, -16.44060020521283, 0.0, 0.4480000212788582, 0.9280000440776348, 0.0, 0.0, 0.0, 0.0, 0.0, 1.648337133825682E9, 0.0, 2022-03-26 18:25:33.825
83.0, -12.584763350896537, -18.05623698607087, -24.18219311349094, -11.017745269462466, 0.0, 0.4480000212788582, 0.9280000440776348, 0.0, 0.0, 0.0, 0.0, 0.0, 1.648337133825682E9, 0.0, 2022-03-26 18:25:33.825
84.0, -12.266871854662895, -19.122108473442495, -27.566802573390305, -12.8577760476619, 0.0, 0.4480000212788582, 0.9280000440776348, 0.0, 0.0, 0.0, 0.0, 0.0, 1.6483371338412836E9, 0.0, 2022-03-26 18:25:33.841
84.0, -6.211973826400936, -16.017991510219872, -28.782270058989525, -23.32949592359364, 0.0, 0.4480000212788582, 0.9280000440776348, 0.0, 0.0, 0.0, 0.0, 0.0, 1.6483371338412836E9, 0.0, 2022-03-26 18:25:33.841
85.0, -6.802878019399941, -17.106302397325635, -25.453759098425508, -4.532758746296167, 0.0, 0.4480000212788582, 0.9280000440776348, 0.0, 0.0, 0.0, 0.0, 0.0, 1.6483371338421075E9, 0.0, 2022-03-26 18:25:33.842
85.0, -12.158414755947888, -23.157460525631905, -32.67924581281841, -18.400307781994343, 0.0, 0.4480000212788582, 0.9280000440776348, 0.0, 0.0, 0.0, 0.0, 0.0, 1.6483371338421075E9, 0.0, 2022-03-26 18:25:33.842
86.0, -6.066117728129029, -18.10111578553915, -23.79324351809919, -10.651235073804855, 0.0, 0.4480000212788582, 0.9280000440776348, 0.0, 0.0, 0.0, 0.0, 0.0, 1.648337133855759E9, 0.0, 2022-03-26 18:25:33.855
86.0, -1.0957906870171428, -8.893482094630599, -24.799276606179774, -8.384855700656772, 0.0, 0.4480000212788582, 0.9280000440776348, 0.0, 0.0, 0.0, 0.0, 0.0, 1.648337133855759E9, 0.0, 2022-03-26 18:25:33.855
87.0, -5.445294335484505, -1.8998691774904728, -19.604555567726493, -10.557737574912608, 0.0, 0.4480000212788582, 0.9280000440776348, 0.0, 0.0, 0.0, 0.0, 0.0, 1.6483371338712497E9, 0.0, 2022-03-26 18:25:33.871
87.0, -4.873089642263949, -6.43262792378664, -19.051050374284387, -11.885402059182525, 0.0, 0.4480000212788582, 0.9280000440776348, 0.0, 0.0, 0.0, 0.0, 0.0, 1.6483371338712497E9, 0.0, 2022-03-26 18:25:33.871
88.0, -6.02871872857213, -12.771758348681033, -21.216452448628843, -19.170727172866464, 0.0, 0.4480000212788582, 0.9280000440776348, 0.0, 0.0, 0.0, 0.0, 0.0, 1.6483371338719788E9, 0.0, 2022-03-26 18:25:33.871
88.0, -6.795398219488561, -6.930034617893398, -19.7504116659984, -13.317783742211759, 0.0, 0.4480000212788582, 0.9280000440776348, 0.0, 0.0, 0.0, 0.0, 0.0, 1.6483371338719788E9, 0.0, 2022-03-26 18:25:33.871
89.0, -6.997352817095816, -6.4176683239638805, -21.235151948407292, -10.168787979520857, 0.0, 0.4480000212788582, 0.9280000440776348, 0.0, 0.0, 0.0, 0.0, 0.0, 1.6483371338858068E9, 0.0, 2022-03-26 18:25:33.885
89.0, -6.679461320862174, -7.348903412930667, -18.47136588115245, -9.327310489490628, 0.0, 0.4480000212788582, 0.9280000440776348, 0.0, 0.0, 0.0, 0.0, 0.0, 1.6483371338858068E9, 0.0, 2022-03-26 18:25:33.885
90.0, -2.449634470976889, -5.276998837478459, -15.591642915271223, -4.82073104288429, 0.0, 0.4480000212788582, 0.9280000440776348, 0.0, 0.0, 0.0, 0.0, 0.0, 1.6483371339012597E9, 0.0, 2022-03-26 18:25:33.901
90.0, -2.741346667520702, -8.45965369977057, -15.778637913055718, -3.0068795643746853, 0.0, 0.4480000212788582, 0.9280000440776348, 0.0, 0.0, 0.0, 0.0, 0.0, 1.6483371339012597E9, 0.0, 2022-03-26 18:25:33.901
91.0, -9.555444386787713, -7.24418621417135, -20.782624053768814, -9.009418993256986, 0.0, 0.4480000212788582, 0.9280000440776348, 0.0, 0.0, 0.0, 0.0, 0.0, 1.6483371339019883E9, 0.0, 2022-03-26 18:25:33.901
91.0, -8.893482094630599, -5.325617536902428, -23.516490921378136, -14.163001132197678, 0.0, 0.4480000212788582, 0.9280000440776348, 0.0, 0.0, 0.0, 0.0, 0.0, 1.6483371339019883E9, 0.0, 2022-03-26 18:25:33.901
92.0, -10.924247770570219, -2.217760673724115, -19.529757568612695, -8.650388597510755, -0.01600000075995922, 0.4480000212788582, 0.9280000440776348, 0.0, 0.0, 0.0, 0.0, 0.0, 1.6483371339156537E9, 0.0, 2022-03-26 18:25:33.915
92.0, -7.502239311113954, -2.4832935705780983, -12.012558657675982, -9.577883786521852, -0.01600000075995922, 0.4480000212788582, 0.9280000440776348, 0.0, 0.0, 0.0, 0.0, 0.0, 1.6483371339156537E9, 0.0, 2022-03-26 18:25:33.915
93.0, -10.628795674070716, -6.9823932172730565, -13.28786454256624, -12.50622545182705, -0.01600000075995922, 0.4480000212788582, 0.9280000440776348, 0.0, 0.0, 0.0, 0.0, 0.0, 1.648337133931258E9, 0.0, 2022-03-26 18:25:33.931
93.0, -10.385702176950872, -7.924848006106913, -17.139961496926844, -20.614328555762768, -0.01600000075995922, 0.4480000212788582, 0.9280000440776348, 0.0, 0.0, 0.0, 0.0, 0.0, 1.648337133931258E9, 0.0, 2022-03-26 18:25:33.931
94.0, -14.753905325196683, -14.320076930336654, -14.559430527500808, -20.14684106130153, -0.01600000075995922, 0.4480000212788582, 0.9280000440776348, 0.0, 0.0, 0.0, 0.0, 0.0, 1.6483371339320185E9, 0.0, 2022-03-26 18:25:33.932
94.0, -18.362908782437444, -14.735205825418234, -24.354228511452675, -21.141654449515045, -0.01600000075995922, 0.4480000212788582, 0.9280000440776348, 0.0, 0.0, 0.0, 0.0, 0.0, 1.6483371339320185E9, 0.0, 2022-03-26 18:25:33.932
95.0, -17.229719095863402, -17.36435549426824, -29.264717153273523, -18.785517477430403, -0.01600000075995922, 0.4480000212788582, 0.9280000440776348, 0.0, 0.0, 0.0, 0.0, 0.0, 1.6483371339456766E9, 0.0, 2022-03-26 18:25:33.945
95.0, -16.982885698787868, -11.616129262372851, -24.810496306046844, -21.100515550002456, -0.01600000075995922, 0.4480000212788582, 0.9280000440776348, 0.0, 0.0, 0.0, 0.0, 0.0, 1.6483371339456766E9, 0.0, 2022-03-26 18:25:33.945
96.0, -16.642554802820086, -13.549657539464533, -32.08086181990802, -22.858268529176712, -0.01600000075995922, 0.4480000212788582, 0.9280000440776348, 0.0, 0.0, 0.0, 0.0, 0.0, 1.6483371339613297E9, 0.0, 2022-03-26 18:25:33.961
96.0, -16.320923406630754, -15.086756421253085, -30.52880333829671, -24.084955714643, -0.01600000075995922, 0.4480000212788582, 0.9280000440776348, 0.0, 0.0, 0.0, 0.0, 0.0, 1.6483371339613297E9, 0.0, 2022-03-26 18:25:33.961
97.0, -11.791904560290277, -11.107502868399024, -29.34325505234301, -14.88106192369014, -0.01600000075995922, 0.4480000212788582, 0.9280000440776348, 0.0, 0.0, 0.0, 0.0, 0.0, 1.648337133962133E9, 0.0, 2022-03-26 18:25:33.962
97.0, -11.825563659891486, -20.012204662896693, -26.13068099040538, -16.09278950933367, -0.01600000075995922, 0.4480000212788582, 0.9280000440776348, 0.0, 0.0, 0.0, 0.0, 0.0, 1.648337133962133E9, 0.0, 2022-03-26 18:25:33.962
98.0, -10.03789148107171, -10.767171972431242, -24.376667911186814, -18.46388608124107, -0.01600000075995922, 0.4480000212788582, 0.9280000440776348, 0.0, 0.0, 0.0, 0.0, 0.0, 1.6483371339757063E9, 0.0, 2022-03-26 18:25:33.975
98.0, -10.112689480185509, -14.705286625772715, -27.865994569845498, -20.337575959041715, -0.01600000075995922, 0.4480000212788582, 0.9280000440776348, 0.0, 0.0, 0.0, 0.0, 0.0, 1.6483371339757063E9, 0.0, 2022-03-26 18:25:33.975
99.0, -9.349749889224768, -16.279784507118165, -28.097868367098272, -13.452420140616596, -0.01600000075995922, 0.4480000212788582, 0.9280000440776348, 0.0, 0.0, 0.0, 0.0, 0.0, 1.648337133991275E9, 0.0, 2022-03-26 18:25:33.991
99.0, -8.83738359529525, -9.076737192459404, -16.403201205655932, -6.088557127863169, -0.01600000075995922, 0.4480000212788582, 0.9280000440776348, 0.0, 0.0, 0.0, 0.0, 0.0, 1.648337133991275E9, 0.0, 2022-03-26 18:25:33.991
100.0, -6.04367832839489, -16.388241605833173, -13.70673333760351, -0.8377375900745392, -0.01600000075995922, 0.4480000212788582, 0.9280000440776348, 0.0, 0.0, 0.0, 0.0, 0.0, 1.6483371339920232E9, 0.0, 2022-03-26 18:25:33.992
100.0, -3.257452861405909, -13.216806443408132, -9.058037692680955, 2.094343975186348, -0.01600000075995922, 0.4480000212788582, 0.9280000440776348, 0.0, 0.0, 0.0, 0.0, 0.0, 1.6483371339920232E9, 0.0, 2022-03-26 18:25:33.992
0.0, 640.283962063957, 25.895067293196917, 813.0598602169193, 428.186755776871, -0.01600000075995922, 0.4480000212788582, 0.9280000440776348, 0.0, 0.0, 0.0, 0.0, 0.0, 1.6483371340063577E9, 0.0, 2022-03-26 18:25:34.006
1.0, 643.8667862215079, 25.547256597317755, 817.7534346613102, 423.5978985312395, -0.01600000075995922, 0.4480000212788582, 0.9280000440776348, 0.0, 0.0, 0.0, 0.0, 0.0, 1.648337134007042E9, 0.0, 2022-03-26 18:25:34.007
1.0, 641.200237553101, 20.17302036099136, 827.9035231410526, 433.0074868197553, -0.01600000075995922, 0.4480000212788582, 0.9280000440776348, 0.0, 0.0, 0.0, 0.0, 0.0, 1.648337134007042E9, 0.0, 2022-03-26 18:25:34.007
2.0, 637.9951432910748, 19.503578268922865, 828.3074323362671, 427.53975308453664, 0.0, 0.4480000212788582, 0.9280000440776348, 0.0, 0.0, 0.0, 0.0, 0.0, 1.648337134020671E9, 0.0, 2022-03-26 18:25:34.020
2.0, 631.5774749671109, 22.345902235247195, 822.989294599276, 422.38991084555164, 0.0, 0.4480000212788582, 0.9280000440776348, 0.0, 0.0, 0.0, 0.0, 0.0, 1.648337134020671E9, 0.0, 2022-03-26 18:25:34.020
3.0, 636.4617843092419, 18.91267407592386, 819.4625689410605, 429.75377385830507, 0.0, 0.4480000212788582, 0.9280000440776348, 0.0, 0.0, 0.0, 0.0, 0.0, 1.648337134036318E9, 0.0, 2022-03-26 18:25:34.036
3.0, 638.9712571795098, 20.453512857668102, 823.6437770915218, 428.4859477733262, 0.0, 0.4480000212788582, 0.9280000440776348, 0.0, 0.0, 0.0, 0.0, 0.0, 1.648337134036318E9, 0.0, 2022-03-26 18:25:34.036
4.0, 636.2785292114131, 28.864547858014703, 824.3693176829256, 417.2251090067439, 0.0, 0.4480000212788582, 0.9280000440776348, 0.0, 0.0, 0.0, 0.0, 0.0, 1.6483371340371604E9, 0.0, 2022-03-26 18:25:34.037
4.0, 635.44827142125, 25.37896109931171, 822.8957971003838, 432.9588681203313, 0.0, 0.4480000212788582, 0.9280000440776348, 0.0, 0.0, 0.0, 0.0, 0.0, 1.6483371340371604E9, 0.0, 2022-03-26 18:25:34.037
5.0, 636.9965900029056, 21.481985345482826, 814.4473631004803, 430.2923194519244, 0.0, 0.4480000212788582, 0.9280000440776348, 0.0, 0.0, 0.0, 0.0, 0.0, 1.6483371340506735E9, 0.0, 2022-03-26 18:25:34.050
5.0, 636.6188601073809, 22.08036933839321, 809.9744427534752, 421.5222540558316, 0.0, 0.4480000212788582, 0.9280000440776348, 0.0, 0.0, 0.0, 0.0, 0.0, 1.6483371340506735E9, 0.0, 2022-03-26 18:25:34.050
6.0, 641.5368285491131, 25.057329703122377, 822.7985597015359, 431.3768904390745, 0.0, 0.4480000212788582, 0.9280000440776348, 0.0, 0.0, 0.0, 0.0, 0.0, 1.6483371340663393E9, 0.0, 2022-03-26 18:25:34.066
6.0, 643.1337658301927, 28.314782564528286, 827.5893715447746, 431.5863248365931, 0.0, 0.4480000212788582, 0.9280000440776348, 0.0, 0.0, 0.0, 0.0, 0.0, 1.6483371340663393E9, 0.0, 2022-03-26 18:25:34.066
7.0, 640.8374672573991, 24.58984220866114, 815.9994215820916, 426.9974675909616, 0.0, 0.4480000212788582, 0.9280000440776348, 0.0, 0.0, 0.0, 0.0, 0.0, 1.6483371340671773E9, 0.0, 2022-03-26 18:25:34.067
7.0, 638.9301182799973, 17.095082697458565, 812.6970899212174, 422.41983004519716, 0.0, 0.4480000212788582, 0.9280000440776348, 0.0, 0.0, 0.0, 0.0, 0.0, 1.6483371340671773E9, 0.0, 2022-03-26 18:25:34.067
8.0, 636.4617843092419, 15.25879181921482, 808.119452375453, 419.8093798761256, 0.0, 0.4480000212788582, 0.9280000440776348, 0.0, 0.0, 0.0, 0.0, 0.0, 1.648337134080573E9, 0.0, 2022-03-26 18:25:34.080
8.0, 641.0132425553165, 11.574990362860262, 806.1784442984499, 422.02340064989403, 0.0, 0.4480000212788582, 0.9280000440776348, 0.0, 0.0, 0.0, 0.0, 0.0, 1.648337134080573E9, 0.0, 2022-03-26 18:25:34.080
9.0, 637.437898197677, 13.66559443809092, 799.8019148739986, 419.98515517404303, 0.0, 0.4480000212788582, 0.9280000440776348, 0.0, 0.0, 0.0, 0.0, 0.0, 1.6483371340963264E9, 0.0, 2022-03-26 18:25:34.096
9.0, 632.1197604606859, 17.36809539422393, 801.7130037513562, 423.7736738291569, 0.0, 0.4480000212788582, 0.9280000440776348, 0.0, 0.0, 0.0, 0.0, 0.0, 1.6483371340963264E9, 0.0, 2022-03-26 18:25:34.096
10.0, 636.256089811679, 11.814343960024416, 799.3419071794488, 420.1384910722263, 0.0, 0.4480000212788582, 0.9280000440776348, 0.0, 0.0, 0.0, 0.0, 0.0, 1.64833713409703E9, 0.0, 2022-03-26 18:25:34.097
10.0, 634.0532887377776, 10.277245078235865, 803.0107490359806, 418.0778061966412, 0.0, 0.4480000212788582, 0.9280000440776348, 0.0, 0.0, 0.0, 0.0, 0.0, 1.64833713409703E9, 0.0, 2022-03-26 18:25:34.097
11.0, 626.3453549291007, 4.297145049087703, 801.6980441515334, 417.79731369996443, 0.0, 0.4480000212788582, 0.9280000440776348, 0.0, 0.0, 0.0, 0.0, 0.0, 1.648337134110641E9, 0.0, 2022-03-26 18:25:34.110
11.0, 628.0993680083193, 3.4743670588359237, 797.5392754008062, 423.1790297362022, 0.0, 0.4480000212788582, 0.9280000440776348, 0.0, 0.0, 0.0, 0.0, 0.0, 1.648337134110641E9, 0.0, 2022-03-26 18:25:34.110
12.0, 632.6171671547927, 5.722046932205558, 807.4163511837833, 429.2675868640654, 0.0, 0.4480000212788582, 0.9280000440776348, 0.0, 0.0, 0.0, 0.0, 0.0, 1.64833713412631E9, 0.0, 2022-03-26 18:25:34.126
12.0, 634.7077712300234, 8.975759893655777, 810.3484327490442, 420.23198857111856, 0.0, 0.4480000212788582, 0.9280000440776348, 0.0, 0.0, 0.0, 0.0, 0.0, 1.64833713412631E9, 0.0, 2022-03-26 18:25:34.126
13.0, 640.1081867660396, 23.69600611925125, 811.5639002346434, 430.7747665462084, 0.0, 0.4480000212788582, 0.9280000440776348, 0.0, 0.0, 0.0, 0.0, 0.0, 1.6483371341270645E9, 0.0, 2022-03-26 18:25:34.127
13.0, 631.4764976683073, 14.443493628874421, 800.617213064339, 423.39220403367653, 0.0, 0.4480000212788582, 0.9280000440776348, 0.0, 0.0, 0.0, 0.0, 0.0, 1.6483371341270645E9, 0.0, 2022-03-26 18:25:34.127
14.0, 630.7733964766376, 16.88938819989562, 797.1503258054145, 420.0973521727137, 0.0, 0.4480000212788582, 0.9280000440776348, 0.0, 0.0, 0.0, 0.0, 0.0, 1.64833713415701E9, 0.0, 2022-03-26 18:25:34.157
14.0, 637.5575749962591, 16.421900705434382, 801.4960895539261, 423.5941586312838, 0.0, 0.4480000212788582, 0.9280000440776348, 0.0, 0.0, 0.0, 0.0, 0.0, 1.64833713415701E9, 0.0, 2022-03-26 18:25:34.157
15.0, 641.0095026553608, 20.58814925607294, 810.2624150500633, 426.1410305011086, 0.0, 0.4480000212788582, 0.9280000440776348, 0.0, 0.0, 0.0, 0.0, 0.0, 1.6483371341578305E9, 0.0, 2022-03-26 18:25:34.157
15.0, 635.6203068192117, 19.944886463694274, 812.7943273200653, 426.5898184957914, 0.0, 0.4480000212788582, 0.9280000440776348, 0.0, 0.0, 0.0, 0.0, 0.0, 1.6483371341578305E9, 0.0, 2022-03-26 18:25:34.157
16.0, 635.2724961233325, 18.404047681950033, 810.7373823444359, 424.6600301186554, 0.0, 0.4480000212788582, 0.9280000440776348, 0.0, 0.0, 0.0, 0.0, 0.0, 1.648337134158491E9, 0.0, 2022-03-26 18:25:34.158
16.0, 636.3421075106598, 16.773451301269233, 807.6407451811247, 410.3923117876984, 0.0, 0.4480000212788582, 0.9280000440776348, 0.0, 0.0, 0.0, 0.0, 0.0, 1.648337134158491E9, 0.0, 2022-03-26 18:25:34.158
17.0, 636.2186908121221, 23.475352021865547, 811.8930114307441, 416.0956592201255, 0.0, 0.4480000212788582, 0.9280000440776348, 0.0, 0.0, 0.0, 0.0, 0.0, 1.6483371341706593E9, 0.0, 2022-03-26 18:25:34.170
17.0, 633.301568846684, 28.400800263509154, 814.5221610995941, 423.3323656343855, 0.0, 0.4480000212788582, 0.9280000440776348, 0.0, 0.0, 0.0, 0.0, 0.0, 1.6483371341706593E9, 0.0, 2022-03-26 18:25:34.170
18.0, 635.2650163234212, 28.045509767718613, 814.1593908038922, 425.4753283089958, 0.0, 0.4480000212788582, 0.9280000440776348, 0.0, 0.0, 0.0, 0.0, 0.0, 1.6483371341863284E9, 0.0, 2022-03-26 18:25:34.186
18.0, 634.5955742313527, 24.421546710655093, 810.2923342497088, 426.19712900044397, 0.0, 0.4480000212788582, 0.9280000440776348, 0.0, 0.0, 0.0, 0.0, 0.0, 1.6483371341863284E9, 0.0, 2022-03-26 18:25:34.186
19.0, 639.801514969673, 29.74716424755752, 826.5309798573144, 428.9309958680533, 0.0, 0.4480000212788582, 0.9280000440776348, 0.0, 0.0, 0.0, 0.0, 0.0, 1.6483371341870508E9, 0.0, 2022-03-26 18:25:34.187
19.0, 634.0682483376004, 24.660900307819247, 814.5632999991067, 424.4879947206937, 0.0, 0.4480000212788582, 0.9280000440776348, 0.0, 0.0, 0.0, 0.0, 0.0, 1.6483371341870508E9, 0.0, 2022-03-26 18:25:34.187
20.0, 633.9485715390183, 20.790103853680193, 812.9140041186474, 423.16781003633514, 0.0, 0.4480000212788582, 0.9280000440776348, 0.0, 0.0, 0.0, 0.0, 0.0, 1.6483371342169948E9, 0.0, 2022-03-26 18:25:34.216
20.0, 632.1160205607302, 21.971912239678204, 816.5753661752678, 421.8102263524197, 0.0, 0.4480000212788582, 0.9280000440776348, 0.0, 0.0, 0.0, 0.0, 0.0, 1.6483371342169948E9, 0.0, 2022-03-26 18:25:34.216
21.0, 633.9410917391069, 26.373774487525225, 810.6064858459868, 421.56339295534417, 0.0, 0.4640000220388174, 0.9280000440776348, 0.0, 0.0, 0.0, 0.0, 0.0, 1.6483371342177424E9, 0.0, 2022-03-26 18:25:34.217
21.0, 633.7241775416769, 22.379561334848404, 798.4667705898173, 418.3582986933179, 0.0, 0.4640000220388174, 0.9280000440776348, 0.0, 0.0, 0.0, 0.0, 0.0, 1.6483371342177424E9, 0.0, 2022-03-26 18:25:34.217
22.0, 637.0003299028613, 28.651373560540378, 813.3104335139506, 417.26624790625647, -0.01600000075995922, 0.4640000220388174, 0.9280000440776348, 0.0, 0.0, 0.0, 0.0, 0.0, 1.6483371342184825E9, 0.0, 2022-03-26 18:25:34.218
22.0, 629.3297950937413, 23.505271221511066, 811.231049138587, 420.998668062035, -0.01600000075995922, 0.4640000220388174, 0.9280000440776348, 0.0, 0.0, 0.0, 0.0, 0.0, 1.6483371342184825E9, 0.0, 2022-03-26 18:25:34.218
23.0, 633.0996142490767, 27.271350476890802, 817.2223688676022, 433.0785449189134, -0.01600000075995922, 0.4640000220388174, 0.9280000440776348, 0.0, 0.0, 0.0, 0.0, 0.0, 1.648337134230578E9, 0.0, 2022-03-26 18:25:34.230
23.0, 635.0892410255037, 24.376667911186814, 827.4547351463698, 437.2597530693747, -0.01600000075995922, 0.4640000220388174, 0.9280000440776348, 0.0, 0.0, 0.0, 0.0, 0.0, 1.648337134230578E9, 0.0, 2022-03-26 18:25:34.230
24.0, 632.9013995514251, 18.374128482304513, 825.6857624673285, 429.2189681646414, -0.01600000075995922, 0.4640000220388174, 0.9280000440776348, 0.0, 0.0, 0.0, 0.0, 0.0, 1.6483371342460392E9, 0.0, 2022-03-26 18:25:34.246
24.0, 635.0668016257696, 23.28835702408105, 825.5137270693667, 439.95622093742713, -0.01600000075995922, 0.4640000220388174, 0.9280000440776348, 0.0, 0.0, 0.0, 0.0, 0.0, 1.6483371342460392E9, 0.0, 2022-03-26 18:25:34.246
25.0, 636.5365823083557, 22.89192762877792, 822.1291176094674, 427.2966595874168, -0.01600000075995922, 0.4640000220388174, 0.9280000440776348, 0.0, 0.0, 0.0, 0.0, 0.0, 1.6483371342612562E9, 0.0, 2022-03-26 18:25:34.261
25.0, 636.09901401354, 28.5690957615152, 821.0146274226718, 430.86452414514497, -0.01600000075995922, 0.4640000220388174, 0.9280000440776348, 0.0, 0.0, 0.0, 0.0, 0.0, 1.6483371342612562E9, 0.0, 2022-03-26 18:25:34.261
26.0, 635.567948219832, 24.256991112604737, 818.9801218467765, 427.0012074909173, -0.01600000075995922, 0.4640000220388174, 0.9280000440776348, 0.0, 0.0, 0.0, 0.0, 0.0, 1.64833713426198E9, 0.0, 2022-03-26 18:25:34.261
26.0, 640.3064014636911, 21.78491724189371, 826.4038232588209, 437.51032636640593, -0.01600000075995922, 0.4640000220388174, 0.9280000440776348, 0.0, 0.0, 0.0, 0.0, 0.0, 1.64833713426198E9, 0.0, 2022-03-26 18:25:34.261
27.0, 641.0843006544746, 25.046110003255308, 822.5966051039286, 435.5992374890484, -0.01600000075995922, 0.4640000220388174, 0.9280000440776348, 0.0, 0.0, 0.0, 0.0, 0.0, 1.6483371342763674E9, 0.0, 2022-03-26 18:25:34.276
27.0, 642.1763514415361, 21.75873794220388, 816.2948736785911, 418.93798318644986, -0.01600000075995922, 0.4640000220388174, 0.9280000440776348, 0.0, 0.0, 0.0, 0.0, 0.0, 1.6483371342763674E9, 0.0, 2022-03-26 18:25:34.276
28.0, 644.311834316235, 28.857068058103323, 816.9007374714129, 439.0399454482831, -0.01600000075995922, 0.4640000220388174, 0.9280000440776348, 0.0, 0.0, 0.0, 0.0, 0.0, 1.6483371342770584E9, 0.0, 2022-03-26 18:25:34.277
28.0, 642.430664638523, 28.699992259964347, 818.5238540521823, 442.91822170233354, -0.01600000075995922, 0.4640000220388174, 0.9280000440776348, 0.0, 0.0, 0.0, 0.0, 0.0, 1.6483371342770584E9, 0.0, 2022-03-26 18:25:34.277
29.0, 641.9856165437959, 28.62893416080624, 825.7717801663093, 435.3673636917956, -0.01600000075995922, 0.4640000220388174, 0.9280000440776348, 0.0, 0.0, 0.0, 0.0, 0.0, 1.648337134290573E9, 0.0, 2022-03-26 18:25:34.290
29.0, 640.2690024641342, 23.019084227271378, 821.0295870224945, 439.09604394761845, -0.01600000075995922, 0.4640000220388174, 0.9280000440776348, 0.0, 0.0, 0.0, 0.0, 0.0, 1.648337134290573E9, 0.0, 2022-03-26 18:25:34.290
30.0, 643.3245007279329, 22.215005736798048, 822.9743349994533, 441.0407919245772, -0.01600000075995922, 0.4640000220388174, 0.944000044837594, 0.0, 0.0, 0.0, 0.0, 0.0, 1.6483371343062973E9, 0.0, 2022-03-26 18:25:34.306
30.0, 635.8147816169076, 17.28955749515444, 820.5882788277231, 435.2252474934794, -0.01600000075995922, 0.4640000220388174, 0.944000044837594, 0.0, 0.0, 0.0, 0.0, 0.0, 1.6483371343062973E9, 0.0, 2022-03-26 18:25:34.306
31.0, 640.4447777620517, 22.719892230816185, 817.8207528605126, 435.3075252925046, -0.01600000075995922, 0.43200002051889896, 0.944000044837594, 0.0, 0.0, 0.0, 0.0, 0.0, 1.6483371343071947E9, 0.0, 2022-03-26 18:25:34.307
31.0, 635.0668016257696, 20.19171986076981, 814.9971283939667, 435.9021693854593, -0.01600000075995922, 0.43200002051889896, 0.944000044837594, 0.0, 0.0, 0.0, 0.0, 0.0, 1.6483371343071947E9, 0.0, 2022-03-26 18:25:34.307
32.0, 640.126886265818, 23.082662526518106, 824.79940617783, 430.9991605435498, -0.01600000075995922, 0.43200002051889896, 0.944000044837594, 0.0, 0.0, 0.0, 0.0, 0.0, 1.6483371343206503E9, 0.0, 2022-03-26 18:25:34.320
32.0, 642.430664638523, 26.078322391025722, 821.856104912702, 432.57739832485095, -0.01600000075995922, 0.43200002051889896, 0.944000044837594, 0.0, 0.0, 0.0, 0.0, 0.0, 1.6483371343206503E9, 0.0, 2022-03-26 18:25:34.320
33.0, 640.0820074663498, 16.788410901091993, 813.3328729136847, 430.9655014439486, -0.01600000075995922, 0.43200002051889896, 0.944000044837594, 0.0, 0.0, 0.0, 0.0, 0.0, 1.6483371343363173E9, 0.0, 2022-03-26 18:25:34.336
33.0, 636.8357743048109, 16.93800689931959, 817.4692022646777, 430.68126904731616, -0.01600000075995922, 0.43200002051889896, 0.944000044837594, 0.0, 0.0, 0.0, 0.0, 0.0, 1.6483371343363173E9, 0.0, 2022-03-26 18:25:34.336
34.0, 642.6849778355099, 25.35652169957757, 821.9009837121703, 430.5840316484682, -0.01600000075995922, 0.43200002051889896, 0.944000044837594, 0.0, 0.0, 0.0, 0.0, 0.0, 1.6483371343370907E9, 0.0, 2022-03-26 18:25:34.337
34.0, 640.5083560612984, 24.238291612826288, 824.9228228763677, 440.10207703569904, -0.01600000075995922, 0.43200002051889896, 0.944000044837594, 0.0, 0.0, 0.0, 0.0, 0.0, 1.6483371343370907E9, 0.0, 2022-03-26 18:25:34.337
35.0, 646.5632540895604, 24.60854170843959, 829.0666320272721, 450.6448550107889, -0.01600000075995922, 0.43200002051889896, 0.944000044837594, 0.0, 0.0, 0.0, 0.0, 0.0, 1.6483371343506403E9, 0.0, 2022-03-26 18:25:34.350
35.0, 639.0161359789781, 24.290650212205946, 812.846685919445, 431.889256733004, -0.01600000075995922, 0.43200002051889896, 0.944000044837594, 0.0, 0.0, 0.0, 0.0, 0.0, 1.6483371343506403E9, 0.0, 2022-03-26 18:25:34.350
36.0, 639.898752368521, 20.700346254743636, 809.0619071642868, 433.0748050189577, -0.01600000075995922, 0.43200002051889896, 0.944000044837594, 0.0, 0.0, 0.0, 0.0, 0.0, 1.6483371343663633E9, 0.0, 2022-03-26 18:25:34.366
36.0, 637.5239158966579, 25.40514039900154, 816.9605758707039, 437.9254552614875, -0.01600000075995922, 0.43200002051889896, 0.944000044837594, 0.0, 0.0, 0.0, 0.0, 0.0, 1.6483371343663633E9, 0.0, 2022-03-26 18:25:34.366
37.0, 635.822261416819, 23.434213122352958, 816.7735808729194, 431.3806303390302, -0.01600000075995922, 0.43200002051889896, 0.944000044837594, 0.0, 0.0, 0.0, 0.0, 0.0, 1.6483371343670664E9, 0.0, 2022-03-26 18:25:34.367
37.0, 640.1642852653749, 24.387887611053884, 818.1311645568348, 431.1524964417331, -0.01600000075995922, 0.43200002051889896, 0.944000044837594, 0.0, 0.0, 0.0, 0.0, 0.0, 1.6483371343670664E9, 0.0, 2022-03-26 18:25:34.367
38.0, 637.546355296392, 25.031150403432548, 821.4521957174875, 429.79491275781766, -0.01600000075995922, 0.43200002051889896, 0.944000044837594, 0.0, 0.0, 0.0, 0.0, 0.0, 1.6483371343806558E9, 0.0, 2022-03-26 18:25:34.380
38.0, 642.430664638523, 24.52252400945872, 817.9778286586516, 420.0599531731568, -0.01600000075995922, 0.43200002051889896, 0.944000044837594, 0.0, 0.0, 0.0, 0.0, 0.0, 1.6483371343806558E9, 0.0, 2022-03-26 18:25:34.380
39.0, 642.5316419373266, 22.057929938659072, 811.7321957326494, 423.3772444338538, -0.01600000075995922, 0.43200002051889896, 0.944000044837594, 0.0, 0.0, 0.0, 0.0, 0.0, 1.6483371343963163E9, 0.0, 2022-03-26 18:25:34.396
39.0, 638.2270170883276, 22.218745636753738, 808.8936116662808, 430.7149281469174, -0.01600000075995922, 0.43200002051889896, 0.944000044837594, 0.0, 0.0, 0.0, 0.0, 0.0, 1.6483371343963163E9, 0.0, 2022-03-26 18:25:34.396
40.0, 640.2690024641342, 22.450619434006512, 809.8136270553805, 425.35565151041374, -0.01600000075995922, 0.43200002051889896, 0.9280000440776348, 0.0, 0.0, 0.0, 0.0, 0.0, 1.6483371343970685E9, 0.0, 2022-03-26 18:25:34.397
40.0, 643.4292179266922, 29.096421655267477, 817.5664396635257, 428.77765996987, -0.01600000075995922, 0.43200002051889896, 0.9280000440776348, 0.0, 0.0, 0.0, 0.0, 0.0, 1.6483371343970685E9, 0.0, 2022-03-26 18:25:34.397
41.0, 638.4102721861564, 26.886140781454742, 813.0224612173624, 425.97647490305826, -0.01600000075995922, 0.4480000212788582, 0.9280000440776348, 0.0, 0.0, 0.0, 0.0, 0.0, 1.648337134426952E9, 0.0, 2022-03-26 18:25:34.426
41.0, 645.4300644029863, 29.066502455621958, 810.7747813439928, 429.17034946521744, -0.01600000075995922, 0.4480000212788582, 0.9280000440776348, 0.0, 0.0, 0.0, 0.0, 0.0, 1.648337134426952E9, 0.0, 2022-03-26 18:25:34.426
42.0, 642.9505107323639, 29.930419345386326, 818.5911722513847, 432.56991852493957, -0.04800000227987766, 0.4480000212788582, 0.9280000440776348, 0.0, 0.0, 0.0, 0.0, 0.0, 1.6483371344277227E9, 0.0, 2022-03-26 18:25:34.427
42.0, 644.9850163082592, 29.642447048798203, 823.0603526984341, 435.8984294855036, -0.04800000227987766, 0.4480000212788582, 0.9280000440776348, 0.0, 0.0, 0.0, 0.0, 0.0, 1.6483371344277227E9, 0.0, 2022-03-26 18:25:34.427
43.0, 647.905878173653, 26.96467868052423, 816.7810606728308, 432.64845642400905, -0.04800000227987766, 0.4480000212788582, 0.9280000440776348, 0.0, 0.0, 0.0, 0.0, 0.0, 1.648337134428798E9, 0.0, 2022-03-26 18:25:34.428
43.0, 638.8665399807505, 27.091835279017687, 816.0629998813383, 415.3364595291205, -0.04800000227987766, 0.4480000212788582, 0.9280000440776348, 0.0, 0.0, 0.0, 0.0, 0.0, 1.648337134428798E9, 0.0, 2022-03-26 18:25:34.428
44.0, 638.5299489847384, 26.1979991896078, 815.898444283288, 411.2524887775071, -0.04800000227987766, 0.4480000212788582, 0.9280000440776348, 0.0, 0.0, 0.0, 0.0, 0.0, 1.648337134440656E9, 0.0, 2022-03-26 18:25:34.440
44.0, 643.2310032290407, 28.10534816700965, 812.2931807260029, 427.30787928728387, -0.04800000227987766, 0.4480000212788582, 0.9280000440776348, 0.0, 0.0, 0.0, 0.0, 0.0, 1.648337134440656E9, 0.0, 2022-03-26 18:25:34.440
45.0, 639.9847700675018, 27.675259672105312, 808.1082326755859, 424.3982371217571, -0.04800000227987766, 0.4480000212788582, 0.9280000440776348, 0.0, 0.0, 0.0, 0.0, 0.0, 1.648337134456278E9, 0.0, 2022-03-26 18:25:34.456
45.0, 637.811888193246, 27.607941472902894, 808.2017301744781, 418.30594009393826, -0.04800000227987766, 0.4480000212788582, 0.9280000440776348, 0.0, 0.0, 0.0, 0.0, 0.0, 1.648337134456278E9, 0.0, 2022-03-26 18:25:34.456
46.0, 645.602099800948, 33.4234859040007, 820.951049123425, 428.4784679734148, -0.04800000227987766, 0.4480000212788582, 0.9280000440776348, 0.0, 0.0, 0.0, 0.0, 0.0, 1.6483371344570284E9, 0.0, 2022-03-26 18:25:34.457
46.0, 639.3714264747687, 24.694559407420456, 815.0831460929476, 430.3783371509053, -0.04800000227987766, 0.4480000212788582, 0.9280000440776348, 0.0, 0.0, 0.0, 0.0, 0.0, 1.6483371344570284E9, 0.0, 2022-03-26 18:25:34.457
47.0, 641.3348739515059, 28.348441664129496, 818.3779979539104, 431.5115268374793, -0.04800000227987766, 0.4480000212788582, 0.9280000440776348, 0.0, 0.0, 0.0, 0.0, 0.0, 1.6483371344706676E9, 0.0, 2022-03-26 18:25:34.470
47.0, 641.4769901498221, 30.16977294255048, 819.6196447391994, 431.032819643151, -0.04800000227987766, 0.4480000212788582, 0.9280000440776348, 0.0, 0.0, 0.0, 0.0, 0.0, 1.6483371344706676E9, 0.0, 2022-03-26 18:25:34.470
48.0, 647.7076634760015, 35.41685258038342, 824.4216762823053, 428.1194375776686, -0.04800000227987766, 0.4480000212788582, 0.9280000440776348, 0.0, 0.0, 0.0, 0.0, 0.0, 1.6483371344863813E9, 0.0, 2022-03-26 18:25:34.486
48.0, 643.0402683313005, 35.91051937453449, 819.6832230384462, 431.40680963872, -0.04800000227987766, 0.4480000212788582, 0.9280000440776348, 0.0, 0.0, 0.0, 0.0, 0.0, 1.6483371344863813E9, 0.0, 2022-03-26 18:25:34.486
49.0, 645.6581983002834, 35.01294338516891, 813.4675093120895, 430.2624002522789, -0.04800000227987766, 0.4480000212788582, 0.9280000440776348, 0.0, 0.0, 0.0, 0.0, 0.0, 1.6483371344870524E9, 0.0, 2022-03-26 18:25:34.487
49.0, 645.9424306969158, 37.72811075299978, 826.1195908621885, 423.6988758300431, -0.04800000227987766, 0.4480000212788582, 0.9280000440776348, 0.0, 0.0, 0.0, 0.0, 0.0, 1.6483371344870524E9, 0.0, 2022-03-26 18:25:34.487
50.0, 647.9283175733872, 37.44013845641166, 822.7574208020233, 434.12571690650657, -0.04800000227987766, 0.4480000212788582, 0.9600000455975533, 0.0, 0.0, 0.0, 0.0, 0.0, 1.6483371345007226E9, 0.0, 2022-03-26 18:25:34.500
50.0, 644.7980213104747, 34.807248887605965, 819.7281018379144, 429.9931274554692, -0.04800000227987766, 0.4480000212788582, 0.9600000455975533, 0.0, 0.0, 0.0, 0.0, 0.0, 1.6483371345007226E9, 0.0, 2022-03-26 18:25:34.500
51.0, 650.7482021399774, 35.52904957905412, 826.2691868604161, 435.2963055926375, -0.04800000227987766, 0.4480000212788582, 0.9600000455975533, 0.0, 0.0, 0.0, 0.0, 0.0, 1.648337134516436E9, 0.0, 2022-03-26 18:25:34.516
51.0, 647.4795295787044, 32.365094216540456, 817.6487174625508, 428.72904127044603, -0.04800000227987766, 0.4480000212788582, 0.9600000455975533, 0.0, 0.0, 0.0, 0.0, 0.0, 1.648337134516436E9, 0.0, 2022-03-26 18:25:34.516
52.0, 645.4899028022774, 28.767310459166765, 814.1706105037592, 425.9652552031912, -0.0800000037997961, 0.4480000212788582, 0.9600000455975533, 0.0, 0.0, 0.0, 0.0, 0.0, 1.6483371345170712E9, 0.0, 2022-03-26 18:25:34.517
52.0, 646.9559435849078, 26.17181988991797, 817.5776593633927, 427.34527828684077, -0.0800000037997961, 0.4480000212788582, 0.9600000455975533, 0.0, 0.0, 0.0, 0.0, 0.0, 1.6483371345170712E9, 0.0, 2022-03-26 18:25:34.517
53.0, 642.056674642954, 29.653666748665273, 817.248548167292, 425.64362380700186, -0.0800000037997961, 0.4480000212788582, 0.9600000455975533, 0.0, 0.0, 0.0, 0.0, 0.0, 1.6483371345306826E9, 0.0, 2022-03-26 18:25:34.530
53.0, 646.6904106880538, 33.80121579952538, 822.3535116068088, 430.78972614603117, -0.0800000037997961, 0.4480000212788582, 0.9600000455975533, 0.0, 0.0, 0.0, 0.0, 0.0, 1.6483371345306826E9, 0.0, 2022-03-26 18:25:34.530
54.0, 650.897798138205, 37.96746435016394, 820.685516226571, 433.071065119002, -0.0800000037997961, 0.4480000212788582, 0.9600000455975533, 0.0, 0.0, 0.0, 0.0, 0.0, 1.648337134546282E9, 0.0, 2022-03-26 18:25:34.546
54.0, 642.756035934668, 33.41600610408932, 815.4122572890483, 420.6358977663331, -0.0800000037997961, 0.4480000212788582, 0.9600000455975533, 0.0, 0.0, 0.0, 0.0, 0.0, 1.648337134546282E9, 0.0, 2022-03-26 18:25:34.546
55.0, 646.9110647854395, 37.623393554240465, 811.3918648366816, 419.1810766835697, -0.0800000037997961, 0.4480000212788582, 0.9600000455975533, 0.0, 0.0, 0.0, 0.0, 0.0, 1.6483371345469968E9, 0.0, 2022-03-26 18:25:34.546
55.0, 645.3328270041384, 35.38319348078221, 816.9605758707039, 422.93967613903806, -0.0800000037997961, 0.4480000212788582, 0.9600000455975533, 0.0, 0.0, 0.0, 0.0, 0.0, 1.6483371345469968E9, 0.0, 2022-03-26 18:25:34.546
56.0, 654.2188292988576, 45.89231235627085, 828.5355662335642, 426.45518209738657, -0.0800000037997961, 0.4480000212788582, 0.9600000455975533, 0.0, 0.0, 0.0, 0.0, 0.0, 1.6483371345769663E9, 0.0, 2022-03-26 18:25:34.576
56.0, 647.3561128801666, 39.17171213589609, 820.5209606285207, 427.7304879822768, -0.0800000037997961, 0.4480000212788582, 0.9600000455975533, 0.0, 0.0, 0.0, 0.0, 0.0, 1.6483371345769663E9, 0.0, 2022-03-26 18:25:34.576
57.0, 644.1323191183619, 38.057221949100494, 818.6435308507644, 417.35226560523733, -0.0800000037997961, 0.4480000212788582, 0.9600000455975533, 0.0, 0.0, 0.0, 0.0, 0.0, 1.6483371345777051E9, 0.0, 2022-03-26 18:25:34.577
57.0, 639.7603760701604, 36.13491337187588, 821.4185366178863, 416.0582602205686, -0.0800000037997961, 0.4480000212788582, 0.9600000455975533, 0.0, 0.0, 0.0, 0.0, 0.0, 1.6483371345777051E9, 0.0, 2022-03-26 18:25:34.577
58.0, 640.2989216637798, 29.055282755754888, 815.6590906861238, 419.3605918814428, -0.0800000037997961, 0.4480000212788582, 0.9600000455975533, 0.0, 0.0, 0.0, 0.0, 0.0, 1.6483371345784953E9, 0.0, 2022-03-26 18:25:34.578
58.0, 640.9945430555381, 37.73559055291116, 821.9608221114613, 424.02050722623244, -0.0800000037997961, 0.4480000212788582, 0.9600000455975533, 0.0, 0.0, 0.0, 0.0, 0.0, 1.6483371345784953E9, 0.0, 2022-03-26 18:25:34.578
59.0, 641.3012148519047, 35.10270098410547, 818.2284019556828, 408.6495184083469, -0.0800000037997961, 0.4480000212788582, 0.9600000455975533, 0.0, 0.0, 0.0, 0.0, 0.0, 1.6483371345905647E9, 0.0, 2022-03-26 18:25:34.590
59.0, 642.5054626376368, 34.73993068840355, 812.1323650279082, 413.2159362542443, -0.0800000037997961, 0.4480000212788582, 0.9600000455975533, 0.0, 0.0, 0.0, 0.0, 0.0, 1.6483371345905647E9, 0.0, 2022-03-26 18:25:34.590
60.0, 634.9882637267001, 29.72472484782338, 810.2324958504178, 413.8517192467116, -0.0800000037997961, 0.4480000212788582, 0.9280000440776348, 0.0, 0.0, 0.0, 0.0, 0.0, 1.6483371346065743E9, 0.0, 2022-03-26 18:25:34.606
60.0, 644.8167208102532, 34.1265870956704, 822.6489637033083, 413.6983833485283, -0.0800000037997961, 0.4480000212788582, 0.9280000440776348, 0.0, 0.0, 0.0, 0.0, 0.0, 1.6483371346065743E9, 0.0, 2022-03-26 18:25:34.606
61.0, 652.1843237229623, 39.85985372774303, 829.6612761202268, 420.76305436482653, -0.0800000037997961, 0.43200002051889896, 0.9280000440776348, 0.0, 0.0, 0.0, 0.0, 0.0, 1.6483371346071408E9, 0.0, 2022-03-26 18:25:34.607
61.0, 644.4352510147728, 37.74681025277823, 810.2474554502405, 419.19603628339246, -0.0800000037997961, 0.43200002051889896, 0.9280000440776348, 0.0, 0.0, 0.0, 0.0, 0.0, 1.6483371346071408E9, 0.0, 2022-03-26 18:25:34.607
62.0, 635.6277866191231, 38.13575984816998, 806.2756816972978, 402.15705208526924, -0.0800000037997961, 0.43200002051889896, 0.9280000440776348, 0.0, 0.0, 0.0, 0.0, 0.0, 1.648337134620694E9, 0.0, 2022-03-26 18:25:34.620
62.0, 639.0946738780476, 41.75598300527781, 804.3010145206936, 407.00396242784336, -0.0800000037997961, 0.43200002051889896, 0.9280000440776348, 0.0, 0.0, 0.0, 0.0, 0.0, 1.648337134620694E9, 0.0, 2022-03-26 18:25:34.620
63.0, 645.6955972998403, 45.58938045985997, 800.9276247606613, 410.67654418433085, -0.0800000037997961, 0.43200002051889896, 0.9280000440776348, 0.0, 0.0, 0.0, 0.0, 0.0, 1.6483371346363122E9, 0.0, 2022-03-26 18:25:34.636
63.0, 644.4389909147285, 42.70217769406736, 786.7870630281977, 399.08285432169214, -0.0800000037997961, 0.43200002051889896, 0.9280000440776348, 0.0, 0.0, 0.0, 0.0, 0.0, 1.6483371346363122E9, 0.0, 2022-03-26 18:25:34.636
64.0, 640.441037862096, 48.34568672720343, 783.926039562095, 398.9407381233759, -0.0800000037997961, 0.43200002051889896, 0.9280000440776348, 0.0, 0.0, 0.0, 0.0, 0.0, 1.648337134637048E9, 0.0, 2022-03-26 18:25:34.637
64.0, 642.3783060391434, 47.698684034869075, 775.8852546573617, 403.2491028723307, -0.0800000037997961, 0.43200002051889896, 0.9280000440776348, 0.0, 0.0, 0.0, 0.0, 0.0, 1.648337134637048E9, 0.0, 2022-03-26 18:25:34.637
65.0, 640.6504722596146, 53.675044164061546, 770.8326498172246, 407.2881948244758, -0.0800000037997961, 0.43200002051889896, 0.9280000440776348, 0.0, 0.0, 0.0, 0.0, 0.0, 1.648337134650592E9, 0.0, 2022-03-26 18:25:34.650
65.0, 635.5866477196105, 52.41469787899405, 772.0855163023807, 398.8023618250154, -0.0800000037997961, 0.43200002051889896, 0.9280000440776348, 0.0, 0.0, 0.0, 0.0, 0.0, 1.648337134650592E9, 0.0, 2022-03-26 18:25:34.650
66.0, 644.5437081134878, 54.516521654091775, 768.7906644414179, 404.7675022543408, -0.0800000037997961, 0.43200002051889896, 0.9280000440776348, 0.0, 0.0, 0.0, 0.0, 0.0, 1.648337134666302E9, 0.0, 2022-03-26 18:25:34.666
66.0, 642.4456242383458, 42.1299730008468, 766.5504643679596, 411.2861478771083, -0.0800000037997961, 0.43200002051889896, 0.9280000440776348, 0.0, 0.0, 0.0, 0.0, 0.0, 1.648337134666302E9, 0.0, 2022-03-26 18:25:34.666
67.0, 641.189017853234, 48.36812612693757, 773.3907413869165, 393.6824387856759, -0.0800000037997961, 0.43200002051889896, 0.9280000440776348, 0.0, 0.0, 0.0, 0.0, 0.0, 1.6483371346670263E9, 0.0, 2022-03-26 18:25:34.667
67.0, 645.011195607949, 48.78699492197484, 770.9747660155408, 410.2950743888505, -0.0800000037997961, 0.43200002051889896, 0.9280000440776348, 0.0, 0.0, 0.0, 0.0, 0.0, 1.6483371346670263E9, 0.0, 2022-03-26 18:25:34.667
68.0, 645.867632697802, 46.67769134696573, 772.2014532010071, 418.1713036955334, -0.0800000037997961, 0.43200002051889896, 0.9280000440776348, 0.0, 0.0, 0.0, 0.0, 0.0, 1.64833713468063E9, 0.0, 2022-03-26 18:25:34.680
68.0, 642.6662783357315, 42.28704879898578, 771.707786406856, 419.74954147683457, -0.0800000037997961, 0.43200002051889896, 0.9280000440776348, 0.0, 0.0, 0.0, 0.0, 0.0, 1.64833713468063E9, 0.0, 2022-03-26 18:25:34.680
69.0, 648.388325267937, 46.038168454542756, 770.9224074161611, 413.3954514521174, -0.0800000037997961, 0.43200002051889896, 0.9280000440776348, 0.0, 0.0, 0.0, 0.0, 0.0, 1.6483371346964917E9, 0.0, 2022-03-26 18:25:34.696
69.0, 648.7922344631515, 42.040215401910245, 769.2506721359678, 416.30883351759985, -0.0800000037997961, 0.43200002051889896, 0.9280000440776348, 0.0, 0.0, 0.0, 0.0, 0.0, 1.6483371346964917E9, 0.0, 2022-03-26 18:25:34.696
70.0, 646.8736657858826, 36.24337047059089, 768.6186290434562, 413.26455495366827, -0.0800000037997961, 0.43200002051889896, 0.9120000433176756, 0.0, 0.0, 0.0, 0.0, 0.0, 1.6483371346971796E9, 0.0, 2022-03-26 18:25:34.697
70.0, 648.2275095698424, 41.36329350993037, 760.8321573357098, 410.15669809048995, -0.0800000037997961, 0.43200002051889896, 0.9120000433176756, 0.0, 0.0, 0.0, 0.0, 0.0, 1.6483371346971796E9, 0.0, 2022-03-26 18:25:34.697
71.0, 639.1993910768069, 32.409973016008735, 759.5718110506423, 395.3242548662238, -0.0800000037997961, 0.3840000182390213, 0.9120000433176756, 0.0, 0.0, 0.0, 0.0, 0.0, 1.6483371347105803E9, 0.0, 2022-03-26 18:25:34.710
71.0, 643.1674249297939, 44.38513267412782, 770.4736194214784, 412.471696163062, -0.0800000037997961, 0.3840000182390213, 0.9120000433176756, 0.0, 0.0, 0.0, 0.0, 0.0, 1.6483371347105803E9, 0.0, 2022-03-26 18:25:34.710
72.0, 638.7169439825229, 40.31986142229289, 763.0199988097884, 407.12363922642544, -0.03200000151991844, 0.3840000182390213, 0.9120000433176756, 0.0, 0.0, 0.0, 0.0, 0.0, 1.648337134726374E9, 0.0, 2022-03-26 18:25:34.726
72.0, 643.7433695229702, 42.96397069096565, 771.7190061067231, 403.3612998710014, -0.03200000151991844, 0.3840000182390213, 0.9120000433176756, 0.0, 0.0, 0.0, 0.0, 0.0, 1.648337134726374E9, 0.0, 2022-03-26 18:25:34.726
73.0, 650.751942039933, 44.74790296982974, 776.1620072540827, 424.8881640159525, -0.03200000151991844, 0.3840000182390213, 0.9120000433176756, 0.0, 0.0, 0.0, 0.0, 0.0, 1.6483371347270725E9, 0.0, 2022-03-26 18:25:34.727
73.0, 643.8817458213307, 40.873366615734994, 784.5805220543407, 422.49088814435527, -0.03200000151991844, 0.3840000182390213, 0.9120000433176756, 0.0, 0.0, 0.0, 0.0, 0.0, 1.6483371347270725E9, 0.0, 2022-03-26 18:25:34.727
74.0, 640.0408685668372, 36.823054963722825, 775.881514757406, 411.7274560718797, -0.03200000151991844, 0.3840000182390213, 0.9120000433176756, 0.0, 0.0, 0.0, 0.0, 0.0, 1.6483371347405264E9, 0.0, 2022-03-26 18:25:34.740
74.0, 640.9047854566015, 36.9427317623049, 775.7506182589568, 419.64856417803094, -0.03200000151991844, 0.3840000182390213, 0.9120000433176756, 0.0, 0.0, 0.0, 0.0, 0.0, 1.6483371347405264E9, 0.0, 2022-03-26 18:25:34.740
75.0, 643.2160436292179, 38.66308574192226, 778.2713108290918, 414.27432794170454, -0.03200000151991844, 0.3840000182390213, 0.9120000433176756, 0.0, 0.0, 0.0, 0.0, 0.0, 1.6483371347727249E9, 0.0, 2022-03-26 18:25:34.772
75.0, 640.1680251653306, 41.13889951258898, 782.3889406803064, 420.31052647018805, -0.03200000151991844, 0.3840000182390213, 0.9120000433176756, 0.0, 0.0, 0.0, 0.0, 0.0, 1.6483371347727249E9, 0.0, 2022-03-26 18:25:34.772
76.0, 647.4645699788816, 42.2795689990744, 782.3926805802621, 416.6192452139221, -0.03200000151991844, 0.3840000182390213, 0.9120000433176756, 0.0, 0.0, 0.0, 0.0, 0.0, 1.6483371347734742E9, 0.0, 2022-03-26 18:25:34.773
76.0, 649.3644391563721, 46.79362824559212, 790.1043542888947, 428.1418769774027, -0.03200000151991844, 0.3840000182390213, 0.9120000433176756, 0.0, 0.0, 0.0, 0.0, 0.0, 1.6483371347734742E9, 0.0, 2022-03-26 18:25:34.773
77.0, 645.5609609014355, 45.14059246517718, 786.9516186262481, 423.2239085356705, -0.03200000151991844, 0.3840000182390213, 0.9120000433176756, 0.0, 0.0, 0.0, 0.0, 0.0, 1.6483371347742274E9, 0.0, 2022-03-26 18:25:34.774
77.0, 651.6046392298304, 49.748149210587144, 795.9124189200811, 419.0613998849876, -0.03200000151991844, 0.3840000182390213, 0.9120000433176756, 0.0, 0.0, 0.0, 0.0, 0.0, 1.6483371347742274E9, 0.0, 2022-03-26 18:25:34.774
78.0, 653.9158974024467, 54.77457475103438, 801.4998294538818, 434.5932044009678, -0.03200000151991844, 0.3840000182390213, 0.9120000433176756, 0.0, 0.0, 0.0, 0.0, 0.0, 1.6483371347749424E9, 0.0, 2022-03-26 18:25:34.774
78.0, 650.4377904436551, 53.04300107154995, 801.4437309545465, 420.9126503630541, -0.03200000151991844, 0.3840000182390213, 0.9120000433176756, 0.0, 0.0, 0.0, 0.0, 0.0, 1.6483371347749424E9, 0.0, 2022-03-26 18:25:34.774
79.0, 644.9438774087466, 53.06544047128409, 793.0962742534466, 422.4123502452858, -0.03200000151991844, 0.3840000182390213, 0.9120000433176756, 0.0, 0.0, 0.0, 0.0, 0.0, 1.6483371347857716E9, 0.0, 2022-03-26 18:25:34.785
79.0, 651.0511340363882, 51.659238087944686, 801.4362511546351, 433.228140917141, -0.03200000151991844, 0.3840000182390213, 0.9120000433176756, 0.0, 0.0, 0.0, 0.0, 0.0, 1.6483371347857716E9, 0.0, 2022-03-26 18:25:34.785
80.0, 648.0405145720579, 51.20297029335052, 810.423230748158, 433.58343141293153, -0.03200000151991844, 0.3840000182390213, 0.944000044837594, 0.0, 0.0, 0.0, 0.0, 0.0, 1.64833713480068E9, 0.0, 2022-03-26 18:25:34.800
80.0, 646.9484637849964, 54.07147355936468, 806.1522649987601, 424.8208458167501, -0.03200000151991844, 0.3840000182390213, 0.944000044837594, 0.0, 0.0, 0.0, 0.0, 0.0, 1.64833713480068E9, 0.0, 2022-03-26 18:25:34.800
81.0, 643.9715034202673, 48.79447472188622, 804.1401988225989, 415.0597069323994, -0.03200000151991844, 0.4480000212788582, 0.944000044837594, 0.0, 0.0, 0.0, 0.0, 0.0, 1.648337134816304E9, 0.0, 2022-03-26 18:25:34.816
81.0, 645.8638927978463, 43.74186988174915, 808.0184750766493, 422.1842163479887, -0.03200000151991844, 0.4480000212788582, 0.944000044837594, 0.0, 0.0, 0.0, 0.0, 0.0, 1.648337134816304E9, 0.0, 2022-03-26 18:25:34.816
82.0, 647.3000143808313, 41.75224310532212, 804.85077981418, 417.4308035043068, -0.04800000227987766, 0.4480000212788582, 0.944000044837594, 0.0, 0.0, 0.0, 0.0, 0.0, 1.648337134817135E9, 0.0, 2022-03-26 18:25:34.817
82.0, 637.1835850006901, 35.177498983219266, 789.6256470945664, 405.45190394623205, -0.04800000227987766, 0.4480000212788582, 0.944000044837594, 0.0, 0.0, 0.0, 0.0, 0.0, 1.648337134817135E9, 0.0, 2022-03-26 18:25:34.817
83.0, 639.8837927686982, 35.252296982333064, 788.3690407094546, 413.78814094746485, -0.04800000227987766, 0.4480000212788582, 0.944000044837594, 0.0, 0.0, 0.0, 0.0, 0.0, 1.6483371348470073E9, 0.0, 2022-03-26 18:25:34.847
83.0, 646.6455318885855, 50.5784070007503, 808.6841772687621, 421.61201165476814, -0.04800000227987766, 0.4480000212788582, 0.944000044837594, 0.0, 0.0, 0.0, 0.0, 0.0, 1.6483371348470073E9, 0.0, 2022-03-26 18:25:34.847
84.0, 651.2605684339069, 47.55282793659717, 806.6646312926896, 412.845686158631, -0.04800000227987766, 0.4480000212788582, 0.944000044837594, 0.0, 0.0, 0.0, 0.0, 0.0, 1.6483371348477418E9, 0.0, 2022-03-26 18:25:34.847
84.0, 650.415351043921, 43.49503648467362, 799.6336193759926, 407.04136142740026, -0.04800000227987766, 0.4480000212788582, 0.944000044837594, 0.0, 0.0, 0.0, 0.0, 0.0, 1.6483371348477418E9, 0.0, 2022-03-26 18:25:34.847
85.0, 645.7778750988655, 45.58564055990428, 800.9837232599966, 412.19120366638526, -0.04800000227987766, 0.4480000212788582, 0.944000044837594, 0.0, 0.0, 0.0, 0.0, 0.0, 1.6483371348484888E9, 0.0, 2022-03-26 18:25:34.848
85.0, 642.4755434379913, 42.15241240058094, 802.7938348385505, 408.5822002091445, -0.04800000227987766, 0.4480000212788582, 0.944000044837594, 0.0, 0.0, 0.0, 0.0, 0.0, 1.6483371348484888E9, 0.0, 2022-03-26 18:25:34.848
86.0, 648.0068554724567, 51.6180991884321, 808.34758627275, 414.86897203465924, -0.04800000227987766, 0.4480000212788582, 0.944000044837594, 0.0, 0.0, 0.0, 0.0, 0.0, 1.6483371348606057E9, 0.0, 2022-03-26 18:25:34.860
86.0, 653.164177511353, 58.37983830831945, 819.6196447391994, 420.94630946265534, -0.04800000227987766, 0.4480000212788582, 0.944000044837594, 0.0, 0.0, 0.0, 0.0, 0.0, 1.6483371348606057E9, 0.0, 2022-03-26 18:25:34.860
87.0, 652.9061244144104, 77.9993534758687, 838.438821316231, 425.7446011058055, -0.04800000227987766, 0.4480000212788582, 0.944000044837594, 0.0, 0.0, 0.0, 0.0, 0.0, 1.6483371348763793E9, 0.0, 2022-03-26 18:25:34.876
87.0, 653.5456473068334, 93.4152210932225, 845.6643080306239, 420.4713421682827, -0.04800000227987766, 0.4480000212788582, 0.944000044837594, 0.0, 0.0, 0.0, 0.0, 0.0, 1.6483371348763793E9, 0.0, 2022-03-26 18:25:34.876
88.0, 655.7521882806905, 105.98502484429628, 858.9035538737662, 423.1491105365567, -0.04800000227987766, 0.4480000212788582, 0.944000044837594, 0.0, 0.0, 0.0, 0.0, 0.0, 1.6483371348771164E9, 0.0, 2022-03-26 18:25:34.877
88.0, 660.0717727295123, 122.75099634565413, 873.7023379984312, 429.5480793607421, -0.04800000227987766, 0.4480000212788582, 0.944000044837594, 0.0, 0.0, 0.0, 0.0, 0.0, 1.6483371348771164E9, 0.0, 2022-03-26 18:25:34.877
89.0, 656.7619612687267, 131.67813753988594, 885.5017223586328, 427.6930889827199, -0.04800000227987766, 0.4480000212788582, 0.944000044837594, 0.0, 0.0, 0.0, 0.0, 0.0, 1.6483371348905845E9, 0.0, 2022-03-26 18:25:34.890
89.0, 656.6086253705435, 149.43518252950162, 909.1416299785487, 438.68465495249256, -0.04800000227987766, 0.4480000212788582, 0.944000044837594, 0.0, 0.0, 0.0, 0.0, 0.0, 1.6483371348905845E9, 0.0, 2022-03-26 18:25:34.890
90.0, 661.0478866179474, 159.36087701190263, 919.6021301546134, 431.5190066373907, -0.04800000227987766, 0.4480000212788582, 0.9920000471174717, 0.0, 0.0, 0.0, 0.0, 0.0, 1.6483371349063923E9, 0.0, 2022-03-26 18:25:34.906
90.0, 663.3703644904308, 167.8242706116289, 919.957420650404, 432.4128427268006, -0.04800000227987766, 0.4480000212788582, 0.9920000471174717, 0.0, 0.0, 0.0, 0.0, 0.0, 1.6483371349063923E9, 0.0, 2022-03-26 18:25:34.906
91.0, 665.5918650641106, 169.11079619638622, 919.8938423511572, 436.0854244832881, -0.04800000227987766, 0.4480000212788582, 0.9920000471174717, 0.0, 0.0, 0.0, 0.0, 0.0, 1.6483371349071083E9, 0.0, 2022-03-26 18:25:34.907
91.0, 671.1493563982658, 180.73440525867045, 925.5149119845591, 437.2709727692418, -0.04800000227987766, 0.4480000212788582, 0.9920000471174717, 0.0, 0.0, 0.0, 0.0, 0.0, 1.6483371349071083E9, 0.0, 2022-03-26 18:25:34.907
92.0, 668.3593910313211, 180.13602126576006, 924.9913259907626, 425.04897971404716, 0.01600000075995922, 0.4480000212788582, 0.9920000471174717, 0.0, 0.0, 0.0, 0.0, 0.0, 1.6483371349206722E9, 0.0, 2022-03-26 18:25:34.920
92.0, 660.4682021248154, 169.8999150870368, 916.6139500900172, 431.47038793796673, 0.01600000075995922, 0.4480000212788582, 0.9920000471174717, 0.0, 0.0, 0.0, 0.0, 0.0, 1.6483371349206722E9, 0.0, 2022-03-26 18:25:34.920
93.0, 655.8643852793612, 153.8482644772157, 912.189648442436, 441.09689042391255, 0.01600000075995922, 0.4480000212788582, 0.9920000471174717, 0.0, 0.0, 0.0, 0.0, 0.0, 1.6483371349360487E9, 0.0, 2022-03-26 18:25:34.936
93.0, 660.4158435254358, 141.7347285207361, 907.1033845026977, 430.8233852456324, 0.01600000075995922, 0.4480000212788582, 0.9920000471174717, 0.0, 0.0, 0.0, 0.0, 0.0, 1.6483371349360487E9, 0.0, 2022-03-26 18:25:34.936
94.0, 658.9834618424065, 133.8771987138316, 894.9786288463511, 428.4410689738579, 0.01600000075995922, 0.4480000212788582, 0.9920000471174717, 0.0, 0.0, 0.0, 0.0, 0.0, 1.6483371349513342E9, 0.0, 2022-03-26 18:25:34.951
94.0, 658.2766207507811, 126.26650230400264, 879.9816300240345, 436.39957607956603, 0.01600000075995922, 0.4480000212788582, 0.9920000471174717, 0.0, 0.0, 0.0, 0.0, 0.0, 1.6483371349513342E9, 0.0, 2022-03-26 18:25:34.951
95.0, 651.5448008305393, 111.32186208106577, 869.8876400436275, 437.3420308683999, 0.01600000075995922, 0.4480000212788582, 0.9920000471174717, 0.0, 0.0, 0.0, 0.0, 0.0, 1.6483371349520645E9, 0.0, 2022-03-26 18:25:34.952
95.0, 647.5057088783942, 99.34670242294669, 868.8180286563002, 421.41753685707226, 0.01600000075995922, 0.4480000212788582, 0.9920000471174717, 0.0, 0.0, 0.0, 0.0, 0.0, 1.6483371349520645E9, 0.0, 2022-03-26 18:25:34.952
96.0, 647.797421074938, 82.82382441870868, 857.3589751920663, 420.5947588668205, 0.01600000075995922, 0.4480000212788582, 0.9920000471174717, 0.0, 0.0, 0.0, 0.0, 0.0, 1.6483371349663866E9, 0.0, 2022-03-26 18:25:34.966
96.0, 647.2214764817618, 74.74564051441848, 842.9304411630146, 434.57450490118936, 0.01600000075995922, 0.4480000212788582, 0.9920000471174717, 0.0, 0.0, 0.0, 0.0, 0.0, 1.6483371349663866E9, 0.0, 2022-03-26 18:25:34.966
97.0, 647.9694564728998, 67.83056549634784, 832.7092945841141, 435.4421616909094, 0.01600000075995922, 0.4480000212788582, 0.9920000471174717, 0.0, 0.0, 0.0, 0.0, 0.0, 1.6483371349671187E9, 0.0, 2022-03-26 18:25:34.967
97.0, 645.7329962993972, 60.960369277745485, 828.5056470339186, 429.53311976091936, 0.01600000075995922, 0.4480000212788582, 0.9920000471174717, 0.0, 0.0, 0.0, 0.0, 0.0, 1.6483371349671187E9, 0.0, 2022-03-26 18:25:34.967
98.0, 640.5868939603679, 54.01911495998502, 827.9409221406095, 437.6711420645006, 0.01600000075995922, 0.4480000212788582, 0.9920000471174717, 0.0, 0.0, 0.0, 0.0, 0.0, 1.6483371349805667E9, 0.0, 2022-03-26 18:25:34.980
98.0, 643.9453241205774, 47.672504735179245, 814.6867166976444, 433.75920671084896, 0.01600000075995922, 0.4480000212788582, 0.9920000471174717, 0.0, 0.0, 0.0, 0.0, 0.0, 1.6483371349805667E9, 0.0, 2022-03-26 18:25:34.980
99.0, 640.7215303587727, 46.70761054661125, 821.0557663221844, 428.60936447186396, 0.01600000075995922, 0.4480000212788582, 0.9920000471174717, 0.0, 0.0, 0.0, 0.0, 0.0, 1.6483371349963381E9, 0.0, 2022-03-26 18:25:34.996
99.0, 641.031942055095, 38.26291644666344, 810.3633923488669, 422.56568614346907, 0.01600000075995922, 0.4480000212788582, 0.9920000471174717, 0.0, 0.0, 0.0, 0.0, 0.0, 1.6483371349963381E9, 0.0, 2022-03-26 18:25:34.996
100.0, 644.9102183091454, 36.437845268286765, 812.2744812262245, 430.658829647582, 0.01600000075995922, 0.4480000212788582, 1.008000047877431, 0.0, 0.0, 0.0, 0.0, 0.0, 1.6483371349971771E9, 0.0, 2022-03-26 18:25:34.997
100.0, 651.0810532360338, 40.413358921185136, 810.8944581425749, 425.68102280655876, 0.01600000075995922, 0.4480000212788582, 1.008000047877431, 0.0, 0.0, 0.0, 0.0, 0.0, 1.6483371349971771E9, 0.0, 2022-03-26 18:25:34.997
0.0, 644.7980213104747, 37.778599402401596, 810.8177901934832, 425.58565535768867, 0.01600000075995922, 0.4480000212788582, 1.008000047877431, 0.0, 0.0, 0.0, 0.0, 0.0, 1.6483371350113685E9, 0.0, 2022-03-26 18:25:35.011
1.0, 645.3889255034737, 33.16356285708025, 811.3226766875014, 430.5784217985347, 0.01600000075995922, 0.4640000220388174, 1.008000047877431, 0.0, 0.0, 0.0, 0.0, 0.0, 1.6483371350120769E9, 0.0, 2022-03-26 18:25:35.012
1.0, 641.7911417461, 27.063786029350013, 806.7824381412938, 432.26885657850653, 0.01600000075995922, 0.4640000220388174, 1.008000047877431, 0.0, 0.0, 0.0, 0.0, 0.0, 1.6483371350120769E9, 0.0, 2022-03-26 18:25:35.012
2.0, 643.8256473219953, 31.686302374582738, 808.3494562227279, 432.19031867943704, 0.04800000227987766, 0.4640000220388174, 1.008000047877431, 0.0, 0.0, 0.0, 0.0, 0.0, 1.6483371350257134E9, 0.0, 2022-03-26 18:25:35.025
2.0, 642.1165130422451, 31.005640582647175, 804.8825689638034, 434.011649957858, 0.04800000227987766, 0.4640000220388174, 1.008000047877431, 0.0, 0.0, 0.0, 0.0, 0.0, 1.6483371350257134E9, 0.0, 2022-03-26 18:25:35.025
3.0, 645.759175599087, 26.81321273231879, 792.9036694057286, 425.99330445285887, 0.04800000227987766, 0.4640000220388174, 1.008000047877431, 0.0, 0.0, 0.0, 0.0, 0.0, 1.6483371350413287E9, 0.0, 2022-03-26 18:25:35.041
3.0, 643.6162129244767, 23.338845673482865, 793.5992907974869, 422.9004071895033, 0.04800000227987766, 0.4640000220388174, 1.008000047877431, 0.0, 0.0, 0.0, 0.0, 0.0, 1.6483371350413287E9, 0.0, 2022-03-26 18:25:35.041
4.0, 641.465770449955, 24.438376260455698, 797.9188752463087, 424.0148973762989, 0.04800000227987766, 0.4640000220388174, 1.008000047877431, 0.0, 0.0, 0.0, 0.0, 0.0, 1.6483371350420442E9, 0.0, 2022-03-26 18:25:35.042
4.0, 642.9505107323639, 22.138337787706405, 793.2103412020952, 425.21914516203105, 0.04800000227987766, 0.4640000220388174, 1.008000047877431, 0.0, 0.0, 0.0, 0.0, 0.0, 1.6483371350420442E9, 0.0, 2022-03-26 18:25:35.042
5.0, 634.5581752317958, 16.66312425257638, 788.5878248568624, 416.680953563191, 0.04800000227987766, 0.4640000220388174, 1.008000047877431, 0.0, 0.0, 0.0, 0.0, 0.0, 1.6483371350556943E9, 0.0, 2022-03-26 18:25:35.055
5.0, 632.7742429529317, 9.632112335879356, 783.3482250189409, 415.35702897887677, 0.04800000227987766, 0.4640000220388174, 1.008000047877431, 0.0, 0.0, 0.0, 0.0, 0.0, 1.6483371350556943E9, 0.0, 2022-03-26 18:25:35.055
6.0, 639.3415072751231, 12.994282396044582, 793.3038387009874, 427.81463573127985, 0.04800000227987766, 0.4640000220388174, 1.008000047877431, 0.0, 0.0, 0.0, 0.0, 0.0, 1.648337135071312E9, 0.0, 2022-03-26 18:25:35.071
6.0, 638.6084868838079, 14.815613674465567, 789.8818302415311, 412.2042933162302, 0.04800000227987766, 0.4640000220388174, 1.008000047877431, 0.0, 0.0, 0.0, 0.0, 0.0, 1.648337135071312E9, 0.0, 2022-03-26 18:25:35.071
7.0, 636.4580444092862, 9.781708334106952, 785.8763973889872, 414.14904129318893, 0.04800000227987766, 0.4640000220388174, 1.008000047877431, 0.0, 0.0, 0.0, 0.0, 0.0, 1.6483371350720274E9, 0.0, 2022-03-26 18:25:35.072
7.0, 640.7140505588613, 9.306741039734334, 788.3297717599198, 427.837075131014, 0.04800000227987766, 0.4640000220388174, 1.008000047877431, 0.0, 0.0, 0.0, 0.0, 0.0, 1.6483371350720274E9, 0.0, 2022-03-26 18:25:35.072
8.0, 641.2413764526136, 8.513882249128073, 789.5265397457406, 422.264624197036, 0.04800000227987766, 0.4640000220388174, 1.008000047877431, 0.0, 0.0, 0.0, 0.0, 0.0, 1.6483371350856783E9, 0.0, 2022-03-26 18:25:35.085
8.0, 645.8526730979793, 17.833712938707322, 789.642476644367, 416.62111516389996, 0.04800000227987766, 0.4640000220388174, 1.008000047877431, 0.0, 0.0, 0.0, 0.0, 0.0, 1.6483371350856783E9, 0.0, 2022-03-26 18:25:35.085
9.0, 637.7670093937777, 15.989942260552198, 782.1963358325884, 421.22493200935423, 0.04800000227987766, 0.4640000220388174, 1.008000047877431, 0.0, 0.0, 0.0, 0.0, 0.0, 1.648337135101303E9, 0.0, 2022-03-26 18:25:35.101
9.0, 643.227263329085, 16.865078850183636, 782.562846028246, 429.875320606865, 0.04800000227987766, 0.4640000220388174, 1.008000047877431, 0.0, 0.0, 0.0, 0.0, 0.0, 1.648337135101303E9, 0.0, 2022-03-26 18:25:35.101
10.0, 642.3932656389661, 16.797760650981218, 782.1103181336075, 423.84660187829286, 0.04800000227987766, 0.4640000220388174, 1.008000047877431, 0.0, 0.0, 0.0, 0.0, 0.0, 1.648337135102033E9, 0.0, 2022-03-26 18:25:35.102
10.0, 641.4433310502209, 13.90681798523292, 787.8061857661232, 427.73609783221036, 0.04800000227987766, 0.4640000220388174, 1.008000047877431, 0.0, 0.0, 0.0, 0.0, 0.0, 1.648337135102033E9, 0.0, 2022-03-26 18:25:35.102
11.0, 643.4329578266479, 16.73792225169018, 785.4425689941272, 431.4236391885206, 0.04800000227987766, 0.3840000182390213, 1.008000047877431, 0.0, 0.0, 0.0, 0.0, 0.0, 1.6483371351157522E9, 0.0, 2022-03-26 18:25:35.115
11.0, 636.9330117036588, 10.503509025555104, 784.6197910038754, 408.9356207549572, 0.04800000227987766, 0.3840000182390213, 1.008000047877431, 0.0, 0.0, 0.0, 0.0, 0.0, 1.6483371351157522E9, 0.0, 2022-03-26 18:25:35.115
12.0, 641.6602452476509, 7.967856855597347, 779.5335270641372, 420.99679811205715, 0.03200000151991844, 0.3840000182390213, 1.008000047877431, 0.0, 0.0, 0.0, 0.0, 0.0, 1.6483371351313024E9, 0.0, 2022-03-26 18:25:35.131
12.0, 644.8653395096771, 17.13435164699331, 784.818005701527, 425.15930676274, 0.03200000151991844, 0.3840000182390213, 1.008000047877431, 0.0, 0.0, 0.0, 0.0, 0.0, 1.6483371351313024E9, 0.0, 2022-03-26 18:25:35.131
13.0, 639.9211917682551, 14.209749881643802, 790.1810222379863, 429.9538585059345, 0.03200000151991844, 0.3840000182390213, 1.008000047877431, 0.0, 0.0, 0.0, 0.0, 0.0, 1.648337135132036E9, 0.0, 2022-03-26 18:25:35.132
13.0, 644.8503799098544, 11.947110408451408, 792.0023535164073, 422.03649029973894, 0.03200000151991844, 0.3840000182390213, 1.008000047877431, 0.0, 0.0, 0.0, 0.0, 0.0, 1.648337135132036E9, 0.0, 2022-03-26 18:25:35.132
14.0, 645.7741351989098, 15.054967271629721, 796.6211299616843, 431.6816922854632, 0.03200000151991844, 0.3840000182390213, 1.008000047877431, 0.0, 0.0, 0.0, 0.0, 0.0, 1.6483371351456425E9, 0.0, 2022-03-26 18:25:35.145
14.0, 643.0514880311675, 11.711496711242944, 791.1197371268645, 427.91935293003917, 0.03200000151991844, 0.3840000182390213, 1.008000047877431, 0.0, 0.0, 0.0, 0.0, 0.0, 1.6483371351456425E9, 0.0, 2022-03-26 18:25:35.145
15.0, 636.2747893114574, 7.84444015705958, 783.6735963150859, 416.9390066601336, 0.03200000151991844, 0.3840000182390213, 1.008000047877431, 0.0, 0.0, 0.0, 0.0, 0.0, 1.6483371351613863E9, 0.0, 2022-03-26 18:25:35.161
15.0, 645.7255164994858, 12.089226606767625, 790.3530576359481, 422.4553590947762, 0.03200000151991844, 0.3840000182390213, 1.008000047877431, 0.0, 0.0, 0.0, 0.0, 0.0, 1.6483371351613863E9, 0.0, 2022-03-26 18:25:35.161
16.0, 640.007209467236, 8.053874554578215, 780.4423227533698, 424.6432005688548, 0.03200000151991844, 0.3840000182390213, 1.008000047877431, 0.0, 0.0, 0.0, 0.0, 0.0, 1.6483371351620345E9, 0.0, 2022-03-26 18:25:35.162
16.0, 631.6934118657373, 12.033128107432276, 782.3197525311261, 418.3751282431185, 0.03200000151991844, 0.3840000182390213, 1.008000047877431, 0.0, 0.0, 0.0, 0.0, 0.0, 1.6483371351620345E9, 0.0, 2022-03-26 18:25:35.162
17.0, 632.6919651539065, 14.774474774952978, 778.5611530756578, 406.94599397853017, 0.03200000151991844, 0.3840000182390213, 1.008000047877431, 0.0, 0.0, 0.0, 0.0, 0.0, 1.64833713517564E9, 0.0, 2022-03-26 18:25:35.175
17.0, 638.0475018904544, 10.26415542839095, 787.7201680671424, 416.59493586421013, 0.03200000151991844, 0.3840000182390213, 1.008000047877431, 0.0, 0.0, 0.0, 0.0, 0.0, 1.64833713517564E9, 0.0, 2022-03-26 18:25:35.175
18.0, 633.9149124394171, 2.7207772177644074, 780.7676940495148, 419.29140373226255, 0.03200000151991844, 0.3840000182390213, 1.008000047877431, 0.0, 0.0, 0.0, 0.0, 0.0, 1.6483371351913743E9, 0.0, 2022-03-26 18:25:35.191
18.0, 636.9030925040133, 13.312173892278224, 783.8269322132692, 419.3549820315093, 0.03200000151991844, 0.3840000182390213, 1.008000047877431, 0.0, 0.0, 0.0, 0.0, 0.0, 1.6483371351913743E9, 0.0, 2022-03-26 18:25:35.191
19.0, 641.6976442472078, 14.980169272515923, 798.0759510444477, 430.33532830141485, 0.03200000151991844, 0.3840000182390213, 1.008000047877431, 0.0, 0.0, 0.0, 0.0, 0.0, 1.6483371351920943E9, 0.0, 2022-03-26 18:25:35.192
19.0, 638.0961205898784, 15.698230064008385, 798.2180672427639, 433.21879116725177, 0.03200000151991844, 0.3840000182390213, 1.008000047877431, 0.0, 0.0, 0.0, 0.0, 0.0, 1.6483371351920943E9, 0.0, 2022-03-26 18:25:35.192
20.0, 641.189017853234, 16.135798358824104, 809.5686636082828, 428.3045626254752, 0.03200000151991844, 0.3840000182390213, 0.9760000463575125, 0.0, 0.0, 0.0, 0.0, 0.0, 1.6483371352057161E9, 0.0, 2022-03-26 18:25:35.205
20.0, 636.2486100117676, 13.334613292012364, 816.6707336241379, 429.6808458091691, 0.03200000151991844, 0.3840000182390213, 0.9760000463575125, 0.0, 0.0, 0.0, 0.0, 0.0, 1.6483371352057161E9, 0.0, 2022-03-26 18:25:35.205
21.0, 638.7244237824343, 8.136152353603393, 822.7779902517796, 438.08814090956, 0.03200000151991844, 0.4000000189989805, 0.9760000463575125, 0.0, 0.0, 0.0, 0.0, 0.0, 1.648337135221394E9, 0.0, 2022-03-26 18:25:35.221
21.0, 632.4825307563879, 13.315913792233914, 828.754350380972, 432.3548742774874, 0.03200000151991844, 0.4000000189989805, 0.9760000463575125, 0.0, 0.0, 0.0, 0.0, 0.0, 1.648337135221394E9, 0.0, 2022-03-26 18:25:35.221
22.0, 629.5654087909497, 4.661785294767469, 828.0026304898784, 426.8048627432436, -0.01600000075995922, 0.4000000189989805, 0.9760000463575125, 0.0, 0.0, 0.0, 0.0, 0.0, 1.6483371352220533E9, 0.0, 2022-03-26 18:25:35.222
22.0, 640.4298181622289, 9.88268563291058, 837.015789383091, 447.11251950263977, -0.01600000075995922, 0.4000000189989805, 0.9760000463575125, 0.0, 0.0, 0.0, 0.0, 0.0, 1.6483371352220533E9, 0.0, 2022-03-26 18:25:35.222
23.0, 639.5210224729963, 9.763008834328502, 843.5381749058142, 452.75602853577584, -0.01600000075995922, 0.4000000189989805, 0.9760000463575125, 0.0, 0.0, 0.0, 0.0, 0.0, 1.6483371352356863E9, 0.0, 2022-03-26 18:25:35.235
23.0, 641.7724422463216, 10.159438229631633, 848.7852545436472, 437.53089581616223, -0.01600000075995922, 0.4000000189989805, 0.9760000463575125, 0.0, 0.0, 0.0, 0.0, 0.0, 1.6483371352356863E9, 0.0, 2022-03-26 18:25:35.235
24.0, 643.0664476309903, 12.044347807299346, 842.4087251191959, 433.9480716586113, -0.01600000075995922, 0.4000000189989805, 0.9760000463575125, 0.0, 0.0, 0.0, 0.0, 0.0, 1.6483371352512653E9, 0.0, 2022-03-26 18:25:35.251
24.0, 641.8472402454354, 20.085132712032646, 845.0902333874255, 456.8437391873449, -0.01600000075995922, 0.4000000189989805, 0.9760000463575125, 0.0, 0.0, 0.0, 0.0, 0.0, 1.6483371352512653E9, 0.0, 2022-03-26 18:25:35.251
25.0, 642.4344045384787, 19.019261224661022, 847.0836000638083, 454.816713411361, -0.01600000075995922, 0.4000000189989805, 0.9760000463575125, 0.0, 0.0, 0.0, 0.0, 0.0, 1.6483371352519817E9, 0.0, 2022-03-26 18:25:35.251
25.0, 638.402792386245, 18.791127327363938, 848.5047620469704, 448.8478330820799, -0.01600000075995922, 0.4000000189989805, 0.9760000463575125, 0.0, 0.0, 0.0, 0.0, 0.0, 1.6483371352519817E9, 0.0, 2022-03-26 18:25:35.251
26.0, 642.4979828377254, 15.806687162723392, 846.4253776716068, 456.11819859594107, -0.01600000075995922, 0.4000000189989805, 0.9760000463575125, 0.0, 0.0, 0.0, 0.0, 0.0, 1.648337135265652E9, 0.0, 2022-03-26 18:25:35.265
26.0, 639.4312648740597, 21.203362798783928, 840.6846312396228, 456.9895952856168, -0.01600000075995922, 0.4000000189989805, 0.9760000463575125, 0.0, 0.0, 0.0, 0.0, 0.0, 1.648337135265652E9, 0.0, 2022-03-26 18:25:35.265
27.0, 641.9743968439288, 20.39554440835491, 842.696697415784, 452.83082653488964, -0.01600000075995922, 0.4000000189989805, 0.9760000463575125, 0.0, 0.0, 0.0, 0.0, 0.0, 1.6483371352813454E9, 0.0, 2022-03-26 18:25:35.281
27.0, 638.1634387890808, 20.982708701398224, 835.8265011971816, 454.38288501650095, -0.01600000075995922, 0.4000000189989805, 0.9760000463575125, 0.0, 0.0, 0.0, 0.0, 0.0, 1.6483371352813454E9, 0.0, 2022-03-26 18:25:35.281
28.0, 639.8576134690084, 20.29830700950697, 840.1460856460035, 453.7321424242109, -0.01600000075995922, 0.4000000189989805, 0.9760000463575125, 0.0, 0.0, 0.0, 0.0, 0.0, 1.6483371352820811E9, 0.0, 2022-03-26 18:25:35.282
28.0, 632.6807454540394, 15.963762960862368, 835.2617763038725, 448.72067648358643, -0.01600000075995922, 0.4000000189989805, 0.9760000463575125, 0.0, 0.0, 0.0, 0.0, 0.0, 1.6483371352820811E9, 0.0, 2022-03-26 18:25:35.282
29.0, 634.3038620348088, 20.35814540879801, 831.9332653433084, 451.7387757478282, -0.01600000075995922, 0.4000000189989805, 0.9760000463575125, 0.0, 0.0, 0.0, 0.0, 0.0, 1.6483371352956145E9, 0.0, 2022-03-26 18:25:35.295
29.0, 630.683638877701, 15.623432064894587, 833.2945889271796, 442.0636545624584, -0.01600000075995922, 0.4000000189989805, 0.9760000463575125, 0.0, 0.0, 0.0, 0.0, 0.0, 1.6483371352956145E9, 0.0, 2022-03-26 18:25:35.295
30.0, 630.1039543845691, 14.976429372560233, 830.527062959969, 437.9572444111109, -0.01600000075995922, 0.4000000189989805, 0.9600000455975533, 0.0, 0.0, 0.0, 0.0, 0.0, 1.648337135310986E9, 0.0, 2022-03-26 18:25:35.310
30.0, 638.6047469838522, 23.15933047560975, 835.0448621064425, 448.72067648358643, -0.01600000075995922, 0.4000000189989805, 0.9600000455975533, 0.0, 0.0, 0.0, 0.0, 0.0, 1.648337135310986E9, 0.0, 2022-03-26 18:25:35.310
31.0, 630.5564822792076, 16.218076157849282, 831.7537501454353, 446.19250411354005, -0.01600000075995922, 0.43200002051889896, 0.9600000455975533, 0.0, 0.0, 0.0, 0.0, 0.0, 1.648337135326396E9, 0.0, 2022-03-26 18:25:35.326
31.0, 638.1335195894353, 16.446210055146366, 831.5443157479167, 440.9042855761945, -0.01600000075995922, 0.43200002051889896, 0.9600000455975533, 0.0, 0.0, 0.0, 0.0, 0.0, 1.648337135326396E9, 0.0, 2022-03-26 18:25:35.326
32.0, 629.4232925926335, 9.149665241595358, 824.0906951362267, 432.8822001712397, -0.04800000227987766, 0.43200002051889896, 0.9600000455975533, 0.0, 0.0, 0.0, 0.0, 0.0, 1.648337135327025E9, 0.0, 2022-03-26 18:25:35.327
32.0, 623.3197758649476, 12.594113100785762, 829.6070475708693, 446.4991759099066, -0.04800000227987766, 0.43200002051889896, 0.9600000455975533, 0.0, 0.0, 0.0, 0.0, 0.0, 1.648337135327025E9, 0.0, 2022-03-26 18:25:35.327
33.0, 622.6578135727905, 11.726456311065704, 828.1185673885047, 437.7926888130605, -0.04800000227987766, 0.43200002051889896, 0.9600000455975533, 0.0, 0.0, 0.0, 0.0, 0.0, 1.6483371353413188E9, 0.0, 2022-03-26 18:25:35.341
33.0, 629.6364668901078, 7.560207760427147, 821.3830075683072, 431.2516037905589, -0.04800000227987766, 0.43200002051889896, 0.9600000455975533, 0.0, 0.0, 0.0, 0.0, 0.0, 1.6483371353413188E9, 0.0, 2022-03-26 18:25:35.341
34.0, 634.3225615345873, 15.47757596662268, 827.2247312990949, 444.37865263503045, -0.04800000227987766, 0.43200002051889896, 0.9600000455975533, 0.0, 0.0, 0.0, 0.0, 0.0, 1.6483371353420289E9, 0.0, 2022-03-26 18:25:35.342
34.0, 633.6680790423416, 18.839746026787907, 830.1119340648875, 445.96437021624297, -0.04800000227987766, 0.43200002051889896, 0.9600000455975533, 0.0, 0.0, 0.0, 0.0, 0.0, 1.6483371353420289E9, 0.0, 2022-03-26 18:25:35.342
35.0, 628.8922267989255, 16.135798358824104, 823.5409298427403, 435.7955822367221, -0.04800000227987766, 0.43200002051889896, 0.9600000455975533, 0.0, 0.0, 0.0, 0.0, 0.0, 1.648337135355668E9, 0.0, 2022-03-26 18:25:35.355
35.0, 627.3775673168711, 16.67060405248776, 825.2014454230666, 435.2046780437231, -0.04800000227987766, 0.43200002051889896, 0.9600000455975533, 0.0, 0.0, 0.0, 0.0, 0.0, 1.648337135355668E9, 0.0, 2022-03-26 18:25:35.355
36.0, 630.3320882818662, 19.89065791433677, 827.1461934000254, 429.04132291674614, -0.04800000227987766, 0.43200002051889896, 0.9600000455975533, 0.0, 0.0, 0.0, 0.0, 0.0, 1.6483371353713648E9, 0.0, 2022-03-26 18:25:35.371
36.0, 635.9868170148693, 28.241854515392333, 839.3457470554858, 441.3231543712318, -0.04800000227987766, 0.43200002051889896, 0.9600000455975533, 0.0, 0.0, 0.0, 0.0, 0.0, 1.6483371353713648E9, 0.0, 2022-03-26 18:25:35.371
37.0, 637.5874941959046, 23.10697187623009, 828.0998678887263, 438.4696107050404, -0.04800000227987766, 0.43200002051889896, 0.9600000455975533, 0.0, 0.0, 0.0, 0.0, 0.0, 1.6483371353720713E9, 0.0, 2022-03-26 18:25:35.372
37.0, 642.3857858390547, 30.609211187344044, 827.2845696983859, 458.3957976689562, -0.04800000227987766, 0.43200002051889896, 0.9600000455975533, 0.0, 0.0, 0.0, 0.0, 0.0, 1.6483371353720713E9, 0.0, 2022-03-26 18:25:35.372
38.0, 640.1381059656851, 34.640823339577764, 836.7801756858826, 449.2068634778261, -0.04800000227987766, 0.43200002051889896, 0.9600000455975533, 0.0, 0.0, 0.0, 0.0, 0.0, 1.6483371353856554E9, 0.0, 2022-03-26 18:25:35.385
38.0, 635.5455088200979, 26.226048439275473, 835.0523419063538, 437.3476407183334, -0.04800000227987766, 0.43200002051889896, 0.9600000455975533, 0.0, 0.0, 0.0, 0.0, 0.0, 1.6483371353856554E9, 0.0, 2022-03-26 18:25:35.385
39.0, 637.3593602986075, 33.30567905539647, 832.1464396407828, 451.27502815332264, -0.04800000227987766, 0.43200002051889896, 0.9600000455975533, 0.0, 0.0, 0.0, 0.0, 0.0, 1.648337135401326E9, 0.0, 2022-03-26 18:25:35.401
39.0, 641.3722729510628, 31.506787176709622, 834.4876170130447, 453.9266172219068, -0.04800000227987766, 0.43200002051889896, 0.9600000455975533, 0.0, 0.0, 0.0, 0.0, 0.0, 1.648337135401326E9, 0.0, 2022-03-26 18:25:35.401
40.0, 639.5920805721544, 28.83649860834703, 826.9853777019307, 438.89969919994473, -0.04800000227987766, 0.43200002051889896, 0.9600000455975533, 0.0, 0.0, 0.0, 0.0, 0.0, 1.6483371354019969E9, 0.0, 2022-03-26 18:25:35.401
40.0, 641.2451163525693, 28.630804110784084, 823.5558894425631, 445.67265801969916, -0.04800000227987766, 0.43200002051889896, 0.9600000455975533, 0.0, 0.0, 0.0, 0.0, 0.0, 1.6483371354019969E9, 0.0, 2022-03-26 18:25:35.401
41.0, 641.6976442472078, 27.90526351938024, 823.436212643981, 455.3365595052019, -0.04800000227987766, 0.3840000182390213, 0.9600000455975533, 0.0, 0.0, 0.0, 0.0, 0.0, 1.6483371354156759E9, 0.0, 2022-03-26 18:25:35.415
41.0, 641.7500028465874, 22.261754486244172, 818.3798679038882, 444.04580153897405, -0.04800000227987766, 0.3840000182390213, 0.9600000455975533, 0.0, 0.0, 0.0, 0.0, 0.0, 1.6483371354156759E9, 0.0, 2022-03-26 18:25:35.415
42.0, 646.3874787916429, 29.296506302896887, 825.5492561189458, 441.6260862676427, -0.03200000151991844, 0.3840000182390213, 0.9600000455975533, 0.0, 0.0, 0.0, 0.0, 0.0, 1.6483371354312875E9, 0.0, 2022-03-26 18:25:35.431
42.0, 646.4772363905795, 32.35574446665123, 831.7126112459227, 457.16163068357855, -0.03200000151991844, 0.3840000182390213, 0.9600000455975533, 0.0, 0.0, 0.0, 0.0, 0.0, 1.6483371354312875E9, 0.0, 2022-03-26 18:25:35.431
43.0, 639.7341967704706, 20.863031902816147, 817.9049006095156, 448.2943278886378, -0.03200000151991844, 0.3840000182390213, 0.9600000455975533, 0.0, 0.0, 0.0, 0.0, 0.0, 1.6483371354319656E9, 0.0, 2022-03-26 18:25:35.431
43.0, 639.0385753787123, 17.51956134242937, 820.2610375816002, 439.71499739028513, -0.03200000151991844, 0.3840000182390213, 0.9600000455975533, 0.0, 0.0, 0.0, 0.0, 0.0, 1.6483371354319656E9, 0.0, 2022-03-26 18:25:35.431
44.0, 642.9093718328513, 18.899584426078945, 822.8116493513808, 441.0277022747323, -0.03200000151991844, 0.3840000182390213, 0.9600000455975533, 0.0, 0.0, 0.0, 0.0, 0.0, 1.648337135445736E9, 0.0, 2022-03-26 18:25:35.445
44.0, 642.8383137336932, 18.061846836004406, 821.1735731707886, 440.0328888865188, -0.03200000151991844, 0.3840000182390213, 0.9600000455975533, 0.0, 0.0, 0.0, 0.0, 0.0, 1.648337135445736E9, 0.0, 2022-03-26 18:25:35.445
45.0, 642.5503414371051, 22.044840288814157, 818.4920649025589, 430.20069190301, -0.03200000151991844, 0.3840000182390213, 0.9600000455975533, 0.0, 0.0, 0.0, 0.0, 0.0, 1.6483371354613097E9, 0.0, 2022-03-26 18:25:35.461
45.0, 648.2611686694436, 26.73093493329361, 822.1197678595781, 441.6148665677756, -0.03200000151991844, 0.3840000182390213, 0.9600000455975533, 0.0, 0.0, 0.0, 0.0, 0.0, 1.6483371354613097E9, 0.0, 2022-03-26 18:25:35.461
46.0, 643.6760513237678, 21.416537096258253, 824.1019148360938, 441.091280573979, -0.03200000151991844, 0.3840000182390213, 0.9600000455975533, 0.0, 0.0, 0.0, 0.0, 0.0, 1.648337135462058E9, 0.0, 2022-03-26 18:25:35.462
46.0, 637.1985446005128, 18.170303934719414, 820.2909567812458, 424.32904897257686, -0.03200000151991844, 0.3840000182390213, 0.9600000455975533, 0.0, 0.0, 0.0, 0.0, 0.0, 1.648337135462058E9, 0.0, 2022-03-26 18:25:35.462
47.0, 642.9654703321867, 16.577106553595513, 824.6105412300676, 424.99475116468966, -0.03200000151991844, 0.3840000182390213, 0.9600000455975533, 0.0, 0.0, 0.0, 0.0, 0.0, 1.6483371354756088E9, 0.0, 2022-03-26 18:25:35.475
47.0, 649.0951663595624, 26.151250440161675, 823.6269475417212, 435.89281963557005, -0.03200000151991844, 0.3840000182390213, 0.9600000455975533, 0.0, 0.0, 0.0, 0.0, 0.0, 1.6483371354756088E9, 0.0, 2022-03-26 18:25:35.475
48.0, 641.5517881489359, 16.898737949784845, 811.1057624900714, 429.81922210752964, -0.03200000151991844, 0.3840000182390213, 0.9600000455975533, 0.0, 0.0, 0.0, 0.0, 0.0, 1.6483371354912462E9, 0.0, 2022-03-26 18:25:35.491
48.0, 633.7765361410566, 10.469849925953895, 805.2228998597711, 412.95601320732385, -0.03200000151991844, 0.3840000182390213, 0.9600000455975533, 0.0, 0.0, 0.0, 0.0, 0.0, 1.6483371354912462E9, 0.0, 2022-03-26 18:25:35.491
49.0, 642.9280713326298, 17.751435139682144, 809.4265474099666, 418.8987142369151, -0.03200000151991844, 0.3840000182390213, 0.9600000455975533, 0.0, 0.0, 0.0, 0.0, 0.0, 1.6483371354919753E9, 0.0, 2022-03-26 18:25:35.491
49.0, 640.5943737602793, 15.948803361039609, 809.5013454090804, 411.4076946256682, -0.03200000151991844, 0.3840000182390213, 0.9600000455975533, 0.0, 0.0, 0.0, 0.0, 0.0, 1.6483371354919753E9, 0.0, 2022-03-26 18:25:35.491
50.0, 641.1665784534998, 17.04459404805675, 806.9507336392999, 419.18294663354754, -0.03200000151991844, 0.3840000182390213, 0.9120000433176756, 0.0, 0.0, 0.0, 0.0, 0.0, 1.6483371355055733E9, 0.0, 2022-03-26 18:25:35.505
50.0, 643.8368670218624, 21.10612539993599, 813.0692099668086, 423.5324502820149, -0.03200000151991844, 0.3840000182390213, 0.9120000433176756, 0.0, 0.0, 0.0, 0.0, 0.0, 1.6483371355055733E9, 0.0, 2022-03-26 18:25:35.505
51.0, 643.8368670218624, 20.174890310969204, 809.4976055091247, 430.7205379968509, -0.03200000151991844, 0.4000000189989805, 0.9120000433176756, 0.0, 0.0, 0.0, 0.0, 0.0, 1.6483371355212736E9, 0.0, 2022-03-26 18:25:35.521
51.0, 645.8190139983781, 23.94844936626032, 813.4282403625548, 425.8324887547642, -0.03200000151991844, 0.4000000189989805, 0.9120000433176756, 0.0, 0.0, 0.0, 0.0, 0.0, 1.6483371355212736E9, 0.0, 2022-03-26 18:25:35.521
52.0, 634.012149838265, 17.583139641676098, 813.5254777614027, 427.21625173836946, -0.06400000303983688, 0.4000000189989805, 0.9120000433176756, 0.0, 0.0, 0.0, 0.0, 0.0, 1.6483371355220263E9, 0.0, 2022-03-26 18:25:35.522
52.0, 634.5806146315299, 16.539707554038614, 812.3922880748287, 421.722338703461, -0.06400000303983688, 0.4000000189989805, 0.9120000433176756, 0.0, 0.0, 0.0, 0.0, 0.0, 1.6483371355220263E9, 0.0, 2022-03-26 18:25:35.522
53.0, 636.5702414079569, 23.787633668165654, 815.3281095400453, 429.44523211196065, -0.06400000303983688, 0.4000000189989805, 0.9120000433176756, 0.0, 0.0, 0.0, 0.0, 0.0, 1.6483371355355785E9, 0.0, 2022-03-26 18:25:35.535
53.0, 631.4278789688833, 19.88317811442539, 814.8456624457613, 420.07678272295743, -0.06400000303983688, 0.4000000189989805, 0.9120000433176756, 0.0, 0.0, 0.0, 0.0, 0.0, 1.6483371355355785E9, 0.0, 2022-03-26 18:25:35.535
54.0, 638.2344968882389, 19.277314321603626, 817.7141657117754, 421.51664420589805, -0.06400000303983688, 0.4000000189989805, 0.9120000433176756, 0.0, 0.0, 0.0, 0.0, 0.0, 1.6483371355513399E9, 0.0, 2022-03-26 18:25:35.551
54.0, 636.9741506031714, 28.249334315303713, 826.607647806406, 427.33592853695154, -0.06400000303983688, 0.4000000189989805, 0.9120000433176756, 0.0, 0.0, 0.0, 0.0, 0.0, 1.6483371355513399E9, 0.0, 2022-03-26 18:25:35.551
55.0, 638.3130347873084, 31.776059973519295, 824.4833846315742, 423.495051282458, -0.06400000303983688, 0.4000000189989805, 0.9120000433176756, 0.0, 0.0, 0.0, 0.0, 0.0, 1.6483371355520577E9, 0.0, 2022-03-26 18:25:35.552
55.0, 640.8711263570003, 30.280099991243333, 828.2906027864665, 417.9300801483914, -0.06400000303983688, 0.4000000189989805, 0.9120000433176756, 0.0, 0.0, 0.0, 0.0, 0.0, 1.6483371355520577E9, 0.0, 2022-03-26 18:25:35.552
56.0, 640.7215303587727, 33.3318583550863, 821.4765050671995, 416.6098954640329, -0.06400000303983688, 0.4000000189989805, 0.9120000433176756, 0.0, 0.0, 0.0, 0.0, 0.0, 1.6483371355656135E9, 0.0, 2022-03-26 18:25:35.565
56.0, 639.6519189714454, 30.070665593724698, 817.7253854116425, 425.74273115582764, -0.06400000303983688, 0.4000000189989805, 0.9120000433176756, 0.0, 0.0, 0.0, 0.0, 0.0, 1.6483371355656135E9, 0.0, 2022-03-26 18:25:35.565
57.0, 633.8214149405248, 24.139184264000505, 813.4469398623332, 416.6846934631467, -0.06400000303983688, 0.4000000189989805, 0.9120000433176756, 0.0, 0.0, 0.0, 0.0, 0.0, 1.6483371355815E9, 0.0, 2022-03-26 18:25:35.581
57.0, 639.0348354787566, 24.165363563690335, 817.3850545156747, 424.48238487076014, -0.06400000303983688, 0.4000000189989805, 0.9120000433176756, 0.0, 0.0, 0.0, 0.0, 0.0, 1.6483371355815E9, 0.0, 2022-03-26 18:25:35.581
58.0, 641.9781367438845, 34.06487874640152, 827.572541994974, 427.6837392328307, -0.06400000303983688, 0.4000000189989805, 0.9120000433176756, 0.0, 0.0, 0.0, 0.0, 0.0, 1.6483371355820992E9, 0.0, 2022-03-26 18:25:35.582
58.0, 647.3710724799894, 37.793559002224356, 833.3880864260718, 425.70159225631505, -0.06400000303983688, 0.4000000189989805, 0.9120000433176756, 0.0, 0.0, 0.0, 0.0, 0.0, 1.6483371355820992E9, 0.0, 2022-03-26 18:25:35.582
59.0, 633.8962129396386, 32.71103496244177, 825.8147890157998, 424.0597761757672, -0.06400000303983688, 0.4000000189989805, 0.9120000433176756, 0.0, 0.0, 0.0, 0.0, 0.0, 1.6483371355955732E9, 0.0, 2022-03-26 18:25:35.595
59.0, 648.2088100700639, 51.78826463641599, 841.5784673290327, 441.11371997371316, -0.06400000303983688, 0.4000000189989805, 0.9120000433176756, 0.0, 0.0, 0.0, 0.0, 0.0, 1.6483371355955732E9, 0.0, 2022-03-26 18:25:35.595
60.0, 642.864493033383, 48.3737359768711, 829.0759817771614, 429.66962610930204, -0.06400000303983688, 0.4000000189989805, 0.9120000433176756, 0.0, 0.0, 0.0, 0.0, 0.0, 1.6483371356113477E9, 0.0, 2022-03-26 18:25:35.611
60.0, 639.5883406721987, 40.617183468770236, 825.9793446138501, 413.4646396012977, -0.06400000303983688, 0.4000000189989805, 0.9120000433176756, 0.0, 0.0, 0.0, 0.0, 0.0, 1.6483371356113477E9, 0.0, 2022-03-26 18:25:35.611
61.0, 641.454550750088, 37.49810690572485, 832.1426997408271, 416.40794086642563, -0.06400000303983688, 0.43200002051889896, 0.9120000433176756, 0.0, 0.0, 0.0, 0.0, 0.0, 1.6483371356120749E9, 0.0, 2022-03-26 18:25:35.612
61.0, 636.1663322127424, 37.61404380435124, 830.2877093628049, 399.80278506316245, -0.06400000303983688, 0.43200002051889896, 0.9120000433176756, 0.0, 0.0, 0.0, 0.0, 0.0, 1.6483371356120749E9, 0.0, 2022-03-26 18:25:35.612
62.0, 629.453211792279, 30.84482488455251, 818.2826305050403, 393.512273337692, -0.09600000455975533, 0.43200002051889896, 0.9120000433176756, 0.0, 0.0, 0.0, 0.0, 0.0, 1.6483371356256154E9, 0.0, 2022-03-26 18:25:35.625
62.0, 631.106247572694, 28.3652712139301, 819.9132268857211, 407.02079197764397, -0.09600000455975533, 0.43200002051889896, 0.9120000433176756, 0.0, 0.0, 0.0, 0.0, 0.0, 1.6483371356256154E9, 0.0, 2022-03-26 18:25:35.625
63.0, 634.7077712300234, 40.8901961655356, 828.8366281799972, 421.29973000846803, -0.09600000455975533, 0.43200002051889896, 0.9120000433176756, 0.0, 0.0, 0.0, 0.0, 0.0, 1.6483371356413383E9, 0.0, 2022-03-26 18:25:35.641
63.0, 637.8754664924927, 37.2587533085607, 827.2172514991835, 417.47007245384157, -0.09600000455975533, 0.43200002051889896, 0.9120000433176756, 0.0, 0.0, 0.0, 0.0, 0.0, 1.6483371356413383E9, 0.0, 2022-03-26 18:25:35.641
64.0, 634.2739428351633, 37.75616000266746, 830.6542195584625, 416.14614786952734, -0.09600000455975533, 0.43200002051889896, 0.9120000433176756, 0.0, 0.0, 0.0, 0.0, 0.0, 1.6483371356420858E9, 0.0, 2022-03-26 18:25:35.642
64.0, 636.5253626084886, 41.496059958357364, 842.6779979160056, 430.8028157958761, -0.09600000455975533, 0.43200002051889896, 0.9120000433176756, 0.0, 0.0, 0.0, 0.0, 0.0, 1.6483371356420858E9, 0.0, 2022-03-26 18:25:35.642
65.0, 628.0470094089396, 38.208687897305936, 818.454665903002, 403.8269174154848, -0.09600000455975533, 0.43200002051889896, 0.9120000433176756, 0.0, 0.0, 0.0, 0.0, 0.0, 1.6483371356555874E9, 0.0, 2022-03-26 18:25:35.655
65.0, 630.8631540755741, 44.97042701719329, 817.5645697135478, 394.151796230115, -0.09600000455975533, 0.43200002051889896, 0.9120000433176756, 0.0, 0.0, 0.0, 0.0, 0.0, 1.6483371356555874E9, 0.0, 2022-03-26 18:25:35.655
66.0, 639.644439171534, 49.043178068939596, 822.7705104518682, 411.32915672659874, -0.09600000455975533, 0.43200002051889896, 0.9120000433176756, 0.0, 0.0, 0.0, 0.0, 0.0, 1.6483371356713479E9, 0.0, 2022-03-26 18:25:35.671
66.0, 636.8694334044121, 52.274451630655676, 820.1264011831954, 410.40166153758764, -0.09600000455975533, 0.43200002051889896, 0.9120000433176756, 0.0, 0.0, 0.0, 0.0, 0.0, 1.6483371356713479E9, 0.0, 2022-03-26 18:25:35.671
67.0, 635.7624230175279, 51.22353974310681, 804.4113415693864, 389.31984548736364, -0.09600000455975533, 0.43200002051889896, 0.9120000433176756, 0.0, 0.0, 0.0, 0.0, 0.0, 1.6483371356721137E9, 0.0, 2022-03-26 18:25:35.672
67.0, 634.6180136310868, 50.64385524997488, 804.2168667716905, 402.73112672846764, -0.09600000455975533, 0.43200002051889896, 0.9120000433176756, 0.0, 0.0, 0.0, 0.0, 0.0, 1.6483371356721137E9, 0.0, 2022-03-26 18:25:35.672
68.0, 625.5076173390262, 41.97102725272998, 792.2641465133056, 387.0310267144814, -0.09600000455975533, 0.43200002051889896, 0.9120000433176756, 0.0, 0.0, 0.0, 0.0, 0.0, 1.6483371356856153E9, 0.0, 2022-03-26 18:25:35.685
68.0, 642.3558666394092, 58.55748355621472, 801.1987675074488, 397.7383602876216, -0.09600000455975533, 0.43200002051889896, 0.9120000433176756, 0.0, 0.0, 0.0, 0.0, 0.0, 1.6483371356856153E9, 0.0, 2022-03-26 18:25:35.685
69.0, 641.1964976531453, 54.2678183070384, 791.7816994190216, 391.8442779574543, -0.09600000455975533, 0.43200002051889896, 0.9120000433176756, 0.0, 0.0, 0.0, 0.0, 0.0, 1.64833713570137E9, 0.0, 2022-03-26 18:25:35.701
69.0, 636.3234080108814, 52.700800225604326, 801.9093484990299, 399.7878254633397, -0.09600000455975533, 0.43200002051889896, 0.9120000433176756, 0.0, 0.0, 0.0, 0.0, 0.0, 1.64833713570137E9, 0.0, 2022-03-26 18:25:35.701
70.0, 638.2419766881503, 63.546510097105056, 803.2444927832112, 392.4090028507635, -0.09600000455975533, 0.43200002051889896, 0.9280000440776348, 0.0, 0.0, 0.0, 0.0, 0.0, 1.6483371357021835E9, 0.0, 2022-03-26 18:25:35.702
70.0, 640.452257561963, 62.1590072135441, 805.2042003599927, 383.6576369544491, -0.09600000455975533, 0.43200002051889896, 0.9280000440776348, 0.0, 0.0, 0.0, 0.0, 0.0, 1.6483371357021835E9, 0.0, 2022-03-26 18:25:35.702
71.0, 646.3687792918645, 64.52262398554012, 806.5468244440854, 396.4106958033517, -0.09600000455975533, 0.4000000189989805, 0.9280000440776348, 0.0, 0.0, 0.0, 0.0, 0.0, 1.648337135715618E9, 0.0, 2022-03-26 18:25:35.715
71.0, 647.2177365818061, 62.61527500813827, 804.4412607690319, 396.8108650986105, -0.09600000455975533, 0.4000000189989805, 0.9280000440776348, 0.0, 0.0, 0.0, 0.0, 0.0, 1.648337135715618E9, 0.0, 2022-03-26 18:25:35.715
72.0, 642.3296873397194, 57.40559436986223, 800.7798987124115, 395.65897591225803, -0.06400000303983688, 0.4000000189989805, 0.9280000440776348, 0.0, 0.0, 0.0, 0.0, 0.0, 1.6483371357313344E9, 0.0, 2022-03-26 18:25:35.731
72.0, 648.5080020665191, 53.71805301355198, 803.6484019784257, 413.9096876960248, -0.06400000303983688, 0.4000000189989805, 0.9280000440776348, 0.0, 0.0, 0.0, 0.0, 0.0, 1.6483371357313344E9, 0.0, 2022-03-26 18:25:35.731
73.0, 652.8762052147649, 66.76656395895407, 816.0237309318036, 410.7606919333339, -0.06400000303983688, 0.4000000189989805, 0.9280000440776348, 0.0, 0.0, 0.0, 0.0, 0.0, 1.6483371357320588E9, 0.0, 2022-03-26 18:25:35.732
73.0, 671.9048161893152, 80.60793369496241, 834.3006220152602, 427.5378831345588, -0.06400000303983688, 0.4000000189989805, 0.9280000440776348, 0.0, 0.0, 0.0, 0.0, 0.0, 1.6483371357320588E9, 0.0, 2022-03-26 18:25:35.732
74.0, 650.8940582382493, 61.02581752697006, 812.7176593709737, 415.0428773825988, -0.06400000303983688, 0.4000000189989805, 0.9280000440776348, 0.0, 0.0, 0.0, 0.0, 0.0, 1.6483371357457097E9, 0.0, 2022-03-26 18:25:35.745
74.0, 647.640345276799, 68.00821074424312, 807.0517109381035, 421.8569751018658, -0.06400000303983688, 0.4000000189989805, 0.9280000440776348, 0.0, 0.0, 0.0, 0.0, 0.0, 1.6483371357457097E9, 0.0, 2022-03-26 18:25:35.745
75.0, 644.0986600187607, 63.44179289834574, 803.0724573852494, 409.975312942639, -0.06400000303983688, 0.4000000189989805, 0.9280000440776348, 0.0, 0.0, 0.0, 0.0, 0.0, 1.6483371357613697E9, 0.0, 2022-03-26 18:25:35.761
75.0, 655.1164052882232, 65.84280866989866, 819.7486712876707, 425.750210955739, -0.06400000303983688, 0.4000000189989805, 0.9280000440776348, 0.0, 0.0, 0.0, 0.0, 0.0, 1.6483371357613697E9, 0.0, 2022-03-26 18:25:35.761
76.0, 645.276728504803, 53.81903031235561, 809.011418514885, 422.7882101908326, -0.06400000303983688, 0.4000000189989805, 0.9280000440776348, 0.0, 0.0, 0.0, 0.0, 0.0, 1.6483371357620635E9, 0.0, 2022-03-26 18:25:35.762
76.0, 658.1980828517117, 68.4233396393247, 819.4569590911269, 420.18523982167244, -0.06400000303983688, 0.4000000189989805, 0.9280000440776348, 0.0, 0.0, 0.0, 0.0, 0.0, 1.6483371357620635E9, 0.0, 2022-03-26 18:25:35.762
77.0, 651.391464932356, 62.24876481248066, 811.5695100845769, 402.83958382718265, -0.06400000303983688, 0.4000000189989805, 0.9280000440776348, 0.0, 0.0, 0.0, 0.0, 0.0, 1.6483371357757895E9, 0.0, 2022-03-26 18:25:35.775
77.0, 660.5729193235748, 65.03873017942533, 818.1853931061924, 409.8331967443228, -0.06400000303983688, 0.4000000189989805, 0.9280000440776348, 0.0, 0.0, 0.0, 0.0, 0.0, 1.6483371357757895E9, 0.0, 2022-03-26 18:25:35.775
78.0, 663.9163898839615, 65.67451317189261, 826.2149583110586, 404.0737508125603, -0.06400000303983688, 0.4000000189989805, 0.9280000440776348, 0.0, 0.0, 0.0, 0.0, 0.0, 1.648337135791298E9, 0.0, 2022-03-26 18:25:35.791
