%OpenBCI Raw EEG Data
%Number of channels = 4
%Sample Rate = 200 Hz
%Board = OpenBCI_GUI$BoardGanglionBLE
Sample Index, EXG Channel 0, EXG Channel 1, EXG Channel 2, EXG Channel 3, Accel Channel 0, Accel Channel 1, Accel Channel 2, Other, Other, Other, Other, Other, Timestamp, Other, Timestamp (Formatted)
2.0, -1.0172527879476547, 4.181208150461316, -2.569311269558966, 15.101716021075845, 0.03200000151991844, 0.0, 0.0, 0.0, 0.0, 0.0, 0.0, 0.0, 1.648337433182646E9, 0.0, 2022-03-26 18:30:33.182
2.0, -0.4375682948157191, 9.858376283198595, 0.5684647932648659, 15.737499013543129, 0.03200000151991844, 0.0, 0.0, 0.0, 0.0, 0.0, 0.0, 0.0, 1.648337433182646E9, 0.0, 2022-03-26 18:30:33.182
3.0, -2.3075182726606727, 13.620715638622642, -1.3164447844028473, 29.111381255090237, 0.03200000151991844, 0.0, 0.0, 0.0, 0.0, 0.0, 0.0, 0.0, 1.648337433196996E9, 0.0, 2022-03-26 18:30:33.196
3.0, -0.3665101956576109, 3.9717737529426813, -1.447341282851994, 22.58151593245566, 0.03200000151991844, 0.0, 0.0, 0.0, 0.0, 0.0, 0.0, 0.0, 1.648337433196996E9, 0.0, 2022-03-26 18:30:33.196
4.0, -3.092897263355553, 9.151535191573203, -0.08975759893655777, 21.2688110480085, 0.03200000151991844, 0.0, 0.0, 0.0, 0.0, 0.0, 0.0, 0.0, 1.648337433197735E9, 0.0, 2022-03-26 18:30:33.197
4.0, -0.3104116963222623, 13.538437839597464, -2.374836471863091, 17.33817619457841, 0.03200000151991844, 0.0, 0.0, 0.0, 0.0, 0.0, 0.0, 0.0, 1.648337433197735E9, 0.0, 2022-03-26 18:30:33.197
5.0, 2.775005767121911, 11.63856866210699, 1.525879181921482, 14.323816830292344, 0.03200000151991844, 0.0, 0.0, 0.0, 0.0, 0.0, 0.0, 0.0, 1.648337433211318E9, 0.0, 2022-03-26 18:30:33.211
5.0, -5.662208532914519, 8.096883404068649, -3.0031396644189954, 16.691173502244055, 0.03200000151991844, 0.0, 0.0, 0.0, 0.0, 0.0, 0.0, 0.0, 1.648337433211318E9, 0.0, 2022-03-26 18:30:33.211
6.0, 0.9835936883464456, 4.884309342131019, -7.438661011867225, 7.390042312443256, 0.03200000151991844, 0.0, 0.0, 0.0, 0.0, 0.0, 0.0, 0.0, 1.6483374332269745E9, 0.0, 2022-03-26 18:30:33.226
6.0, -1.5931973811239004, 6.4214082239195704, -3.0367987640202045, 20.838722553104162, 0.03200000151991844, 0.0, 0.0, 0.0, 0.0, 0.0, 0.0, 0.0, 1.6483374332269745E9, 0.0, 2022-03-26 18:30:33.226
7.0, -3.7585994554683566, 12.824116948060691, -4.596337045542896, 19.641954567283392, 0.03200000151991844, 0.0, 0.0, 0.0, 0.0, 0.0, 0.0, 0.0, 1.6483374332278924E9, 0.0, 2022-03-26 18:30:33.227
7.0, -0.3739899955689907, 11.462793364189565, -3.8371373545378447, 17.30077719502151, 0.03200000151991844, 0.0, 0.0, 0.0, 0.0, 0.0, 0.0, 0.0, 1.6483374332278924E9, 0.0, 2022-03-26 18:30:33.227
8.0, 1.084570987150073, 3.055498263798654, -5.849203530699015, 21.078076150268316, 0.03200000151991844, 0.0, 0.0, 0.0, 0.0, 0.0, 0.0, 0.0, 1.6483374332413735E9, 0.0, 2022-03-26 18:30:33.241
8.0, -5.568711034022272, 12.547364351339638, -6.099776827730238, 4.749672943726182, 0.03200000151991844, 0.0, 0.0, 0.0, 0.0, 0.0, 0.0, 0.0, 1.6483374332413735E9, 0.0, 2022-03-26 18:30:33.241
9.0, 1.3164447844028473, 3.9268949534744024, -6.189534426666796, 14.828703324310482, 0.03200000151991844, 0.0, 0.0, 0.0, 0.0, 0.0, 0.0, 0.0, 1.648337433256984E9, 0.0, 2022-03-26 18:30:33.256
9.0, -0.33285109605640173, 1.3875028835609555, -14.017145033925772, 17.401754493825138, 0.03200000151991844, 0.0, 0.0, 0.0, 0.0, 0.0, 0.0, 0.0, 1.648337433256984E9, 0.0, 2022-03-26 18:30:33.256
10.0, -10.314644077792764, 3.9156752536073327, -12.618422450497746, 6.84027701895684, 0.03200000151991844, 0.0, 0.944000044837594, 0.0, 0.0, 0.0, 0.0, 0.0, 1.6483374332577448E9, 0.0, 2022-03-26 18:30:33.257
10.0, 2.0307656759396195, -4.644955744966865, -13.366402441635728, 12.337929953821003, 0.03200000151991844, 0.0, 0.944000044837594, 0.0, 0.0, 0.0, 0.0, 0.0, 1.6483374332577448E9, 0.0, 2022-03-26 18:30:33.257
11.0, -21.3810080466792, -3.8333974545821548, -16.53409770410508, -3.545425157994032, 0.03200000151991844, 0.43200002051889896, 0.944000044837594, 0.0, 0.0, 0.0, 0.0, 0.0, 1.6483374332713091E9, 0.0, 2022-03-26 18:30:33.271
11.0, 1.8998691774904728, 2.733866867609322, -14.125602132640779, 4.132589451037347, 0.03200000151991844, 0.43200002051889896, 0.944000044837594, 0.0, 0.0, 0.0, 0.0, 0.0, 1.6483374332713091E9, 0.0, 2022-03-26 18:30:33.271
12.0, -1.365063483826816, -2.8049249667674303, -11.825563659891486, 11.68718736153096, 0.03200000151991844, 0.43200002051889896, 0.944000044837594, 0.0, 0.0, 0.0, 0.0, 0.0, 1.6483374332869875E9, 0.0, 2022-03-26 18:30:33.286
12.0, 0.5684647932648659, 3.388349359855056, -10.168787979520857, 25.539776797406375, 0.03200000151991844, 0.43200002051889896, 0.944000044837594, 0.0, 0.0, 0.0, 0.0, 0.0, 1.6483374332869875E9, 0.0, 2022-03-26 18:30:33.286
13.0, -0.17203539796173573, 4.267225849442184, -8.88226239476353, 11.877922259271145, 0.03200000151991844, 0.43200002051889896, 0.944000044837594, 0.0, 0.0, 0.0, 0.0, 0.0, 1.6483374332877824E9, 0.0, 2022-03-26 18:30:33.287
13.0, -0.8601769898086786, 6.6196229215711355, -8.010865705087781, 8.0407849047333, 0.03200000151991844, 0.43200002051889896, 0.944000044837594, 0.0, 0.0, 0.0, 0.0, 0.0, 1.6483374332877824E9, 0.0, 2022-03-26 18:30:33.287
14.0, -2.4346748711541295, 1.7203539796173573, -14.05080413352698, 14.675367426127195, 0.03200000151991844, 0.43200002051889896, 0.944000044837594, 0.0, 0.0, 0.0, 0.0, 0.0, 1.6483374333176613E9, 0.0, 2022-03-26 18:30:33.317
14.0, -12.4875259520486, 10.307164277881384, -10.363262777216733, 16.403201205655932, 0.03200000151991844, 0.43200002051889896, 0.944000044837594, 0.0, 0.0, 0.0, 0.0, 0.0, 1.6483374333176613E9, 0.0, 2022-03-26 18:30:33.317
15.0, -4.760892643593252, 1.694174679927528, -7.23296651430428, 21.36978834681213, 0.03200000151991844, 0.43200002051889896, 0.944000044837594, 0.0, 0.0, 0.0, 0.0, 0.0, 1.6483374333183959E9, 0.0, 2022-03-26 18:30:33.318
15.0, -2.894682565703988, 4.345763748511672, -6.088557127863169, 3.5566448578611016, 0.03200000151991844, 0.43200002051889896, 0.944000044837594, 0.0, 0.0, 0.0, 0.0, 0.0, 1.6483374333183959E9, 0.0, 2022-03-26 18:30:33.318
16.0, -1.7240938795730472, 6.967433617450297, -6.533605222590268, 25.214405501261353, 0.03200000151991844, 0.43200002051889896, 0.944000044837594, 0.0, 0.0, 0.0, 0.0, 0.0, 1.64833743331913E9, 0.0, 2022-03-26 18:30:33.319
16.0, 1.0583916874602437, 6.705640620552003, -6.185794526711106, 27.29752977658063, 0.03200000151991844, 0.43200002051889896, 0.944000044837594, 0.0, 0.0, 0.0, 0.0, 0.0, 1.64833743331913E9, 0.0, 2022-03-26 18:30:33.319
17.0, 2.531912270002067, 4.278445549309254, -3.4519276591017842, 25.206925701349974, 0.03200000151991844, 0.43200002051889896, 0.944000044837594, 0.0, 0.0, 0.0, 0.0, 0.0, 1.6483374333312435E9, 0.0, 2022-03-26 18:30:33.331
17.0, -5.5350519344210625, -1.5782377813011408, -6.85149671882391, 6.04367832839489, 0.03200000151991844, 0.43200002051889896, 0.944000044837594, 0.0, 0.0, 0.0, 0.0, 0.0, 1.6483374333312435E9, 0.0, 2022-03-26 18:30:33.331
18.0, 0.8190380902960896, 14.86610232386738, 1.9671873766928911, 15.520584816113114, 0.03200000151991844, 0.43200002051889896, 0.944000044837594, 0.0, 0.0, 0.0, 0.0, 0.0, 1.6483374333633676E9, 0.0, 2022-03-26 18:30:33.363
18.0, -0.3777298955246806, 6.5822239220142365, -7.6667949091643095, 16.264824907295406, 0.03200000151991844, 0.43200002051889896, 0.944000044837594, 0.0, 0.0, 0.0, 0.0, 0.0, 1.6483374333633676E9, 0.0, 2022-03-26 18:30:33.363
19.0, 0.8339976901188493, 2.7862254669889808, -3.1265563629567623, 5.834243930876255, 0.03200000151991844, 0.43200002051889896, 0.944000044837594, 0.0, 0.0, 0.0, 0.0, 0.0, 1.6483374333641376E9, 0.0, 2022-03-26 18:30:33.364
19.0, 0.8302577901631594, 1.9260484771803021, -11.619869162328541, 21.459545945748687, 0.03200000151991844, 0.43200002051889896, 0.944000044837594, 0.0, 0.0, 0.0, 0.0, 0.0, 1.6483374333641376E9, 0.0, 2022-03-26 18:30:33.364
20.0, -2.651589068584144, 3.941854553297162, -8.84112349525094, 20.270257759839296, 0.03200000151991844, 0.43200002051889896, 0.944000044837594, 0.0, 0.0, 0.0, 0.0, 0.0, 1.6483374333648248E9, 0.0, 2022-03-26 18:30:33.364
20.0, -2.045725275762379, -1.7577529791742563, -2.371096571907401, 17.592489391565323, 0.03200000151991844, 0.43200002051889896, 0.944000044837594, 0.0, 0.0, 0.0, 0.0, 0.0, 1.6483374333648248E9, 0.0, 2022-03-26 18:30:33.364
21.0, -1.731573679484427, -3.261192761361599, 3.182654862292111, 20.748964954167604, 0.03200000151991844, 0.43200002051889896, 0.944000044837594, 0.0, 0.0, 0.0, 0.0, 0.0, 1.64833743336557E9, 0.0, 2022-03-26 18:30:33.365
21.0, -1.1219699867069721, 0.018699499778449535, 2.0008464762941003, 33.93585219793022, 0.03200000151991844, 0.43200002051889896, 0.944000044837594, 0.0, 0.0, 0.0, 0.0, 0.0, 1.64833743336557E9, 0.0, 2022-03-26 18:30:33.365
22.0, -2.9919199645519257, -5.8155444310978055, 7.446140811778605, 32.380053816363215, 0.01600000075995922, 0.43200002051889896, 0.944000044837594, 0.0, 0.0, 0.0, 0.0, 0.0, 1.6483374333762383E9, 0.0, 2022-03-26 18:30:33.376
22.0, -13.411281241104007, -10.740992672741413, 5.972620229236782, 15.150334720499814, 0.01600000075995922, 0.43200002051889896, 0.944000044837594, 0.0, 0.0, 0.0, 0.0, 0.0, 1.6483374333762383E9, 0.0, 2022-03-26 18:30:33.376
23.0, 4.798291643150151, -7.214267014525831, 11.769465160556138, 19.600815667770803, 0.01600000075995922, 0.43200002051889896, 0.944000044837594, 0.0, 0.0, 0.0, 0.0, 0.0, 1.648337433391338E9, 0.0, 2022-03-26 18:30:33.391
23.0, 1.4735205825418234, -8.197860702872276, 4.00917275249958, 5.587410533800721, 0.01600000075995922, 0.43200002051889896, 0.944000044837594, 0.0, 0.0, 0.0, 0.0, 0.0, 1.648337433391338E9, 0.0, 2022-03-26 18:30:33.391
24.0, 1.7016544798389077, -14.06576373334974, 7.075890716165304, 29.02536355610937, 0.01600000075995922, 0.43200002051889896, 0.944000044837594, 0.0, 0.0, 0.0, 0.0, 0.0, 1.6483374334233797E9, 0.0, 2022-03-26 18:30:33.423
24.0, -5.363016536459327, -5.24333973787725, 13.572096939198673, 25.33782219979912, 0.01600000075995922, 0.43200002051889896, 0.944000044837594, 0.0, 0.0, 0.0, 0.0, 0.0, 1.6483374334233797E9, 0.0, 2022-03-26 18:30:33.423
25.0, -13.27664484269917, -9.813497483730316, 18.807956877164543, 22.244924936443567, 0.01600000075995922, 0.43200002051889896, 0.944000044837594, 0.0, 0.0, 0.0, 0.0, 0.0, 1.6483374334242113E9, 0.0, 2022-03-26 18:30:33.424
25.0, -11.017745269462466, -21.597922244109213, 6.7392997201532125, 32.406233116053045, 0.01600000075995922, 0.43200002051889896, 0.944000044837594, 0.0, 0.0, 0.0, 0.0, 0.0, 1.6483374334242113E9, 0.0, 2022-03-26 18:30:33.424
26.0, -6.327910725027323, -13.27290494274348, 11.6722277617082, 30.54376293811947, 0.01600000075995922, 0.43200002051889896, 0.944000044837594, 0.0, 0.0, 0.0, 0.0, 0.0, 1.648337433424929E9, 0.0, 2022-03-26 18:30:33.424
26.0, -6.720600220374763, -8.549411298707128, 16.03669100999832, 20.696606354787946, 0.01600000075995922, 0.43200002051889896, 0.944000044837594, 0.0, 0.0, 0.0, 0.0, 0.0, 1.648337433424929E9, 0.0, 2022-03-26 18:30:33.424
27.0, -8.010865705087781, -10.258545578457415, 15.169034220278263, 30.813035734929144, 0.01600000075995922, 0.43200002051889896, 0.944000044837594, 0.0, 0.0, 0.0, 0.0, 0.0, 1.648337433425609E9, 0.0, 2022-03-26 18:30:33.425
27.0, -3.3659099601209164, -11.586210062727332, 16.795890701003373, 27.76875717099756, 0.01600000075995922, 0.43200002051889896, 0.944000044837594, 0.0, 0.0, 0.0, 0.0, 0.0, 1.648337433425609E9, 0.0, 2022-03-26 18:30:33.425
28.0, -11.085063468664885, -8.713966896757483, 14.45471332874149, 22.009311239235103, 0.01600000075995922, 0.43200002051889896, 0.944000044837594, 0.0, 0.0, 0.0, 0.0, 0.0, 1.6483374334363177E9, 0.0, 2022-03-26 18:30:33.436
28.0, -4.188687950372696, -10.535298175178468, 7.348903412930667, 19.129588273353875, 0.01600000075995922, 0.43200002051889896, 0.944000044837594, 0.0, 0.0, 0.0, 0.0, 0.0, 1.6483374334363177E9, 0.0, 2022-03-26 18:30:33.436
29.0, -5.075044239871204, -21.2688110480085, 5.987579829059541, 7.139469015412033, 0.01600000075995922, 0.43200002051889896, 0.944000044837594, 0.0, 0.0, 0.0, 0.0, 0.0, 1.648337433451272E9, 0.0, 2022-03-26 18:30:33.451
29.0, -11.414174664765596, -8.598029998131096, 6.7804386196658015, 22.731111930683255, 0.01600000075995922, 0.43200002051889896, 0.944000044837594, 0.0, 0.0, 0.0, 0.0, 0.0, 1.648337433451272E9, 0.0, 2022-03-26 18:30:33.451
30.0, -2.1167833749204874, 1.5520584816113114, 11.754505560733378, 20.53579065669328, 0.01600000075995922, 0.43200002051889896, 0.944000044837594, 0.0, 0.0, 0.0, 0.0, 0.0, 1.6483374334669464E9, 0.0, 2022-03-26 18:30:33.466
30.0, 6.915075018070638, -2.688988068141043, 10.153828379698098, 33.87975369859487, 0.01600000075995922, 0.43200002051889896, 0.944000044837594, 0.0, 0.0, 0.0, 0.0, 0.0, 1.6483374334669464E9, 0.0, 2022-03-26 18:30:33.466
31.0, -1.8175913784652948, -11.197260467335582, -2.3075182726606727, 29.72472484782338, 0.01600000075995922, 0.43200002051889896, 0.944000044837594, 0.0, 0.0, 0.0, 0.0, 0.0, 1.6483374334676957E9, 0.0, 2022-03-26 18:30:33.467
31.0, -9.989272781647742, -21.081816050224006, 6.634582521393895, 30.18847244232893, 0.01600000075995922, 0.43200002051889896, 0.944000044837594, 0.0, 0.0, 0.0, 0.0, 0.0, 1.6483374334676957E9, 0.0, 2022-03-26 18:30:33.467
32.0, -7.887449006550014, -13.755352037027478, 12.401508253067732, 25.117168102413416, 0.01600000075995922, 0.43200002051889896, 0.944000044837594, 0.0, 0.0, 0.0, 0.0, 0.0, 1.6483374334813447E9, 0.0, 2022-03-26 18:30:33.481
32.0, -12.573543651029468, -11.866702559404075, 1.0509118875488639, 25.031150403432548, 0.01600000075995922, 0.43200002051889896, 0.944000044837594, 0.0, 0.0, 0.0, 0.0, 0.0, 1.6483374334813447E9, 0.0, 2022-03-26 18:30:33.481
33.0, -5.6135898334905505, -14.709026525728405, -1.694174679927528, 32.66428621299565, 0.01600000075995922, 0.43200002051889896, 0.944000044837594, 0.0, 0.0, 0.0, 0.0, 0.0, 1.6483374334969654E9, 0.0, 2022-03-26 18:30:33.496
33.0, -0.2617929968982935, -10.381962276995182, 9.862116183154285, 25.517337397672236, 0.01600000075995922, 0.43200002051889896, 0.944000044837594, 0.0, 0.0, 0.0, 0.0, 0.0, 1.6483374334969654E9, 0.0, 2022-03-26 18:30:33.496
34.0, -4.117629851214588, -5.778145431540906, 9.753659084439278, 24.92269330471754, 0.01600000075995922, 0.43200002051889896, 0.944000044837594, 0.0, 0.0, 0.0, 0.0, 0.0, 1.6483374334977288E9, 0.0, 2022-03-26 18:30:33.497
34.0, -8.04826470464468, -11.29823776613921, 8.276398601941764, 25.528557097539306, 0.01600000075995922, 0.43200002051889896, 0.944000044837594, 0.0, 0.0, 0.0, 0.0, 0.0, 1.6483374334977288E9, 0.0, 2022-03-26 18:30:33.497
35.0, -18.822916476987302, -11.709626761265099, 3.5192458583042026, 9.757398984394968, 0.01600000075995922, 0.43200002051889896, 0.944000044837594, 0.0, 0.0, 0.0, 0.0, 0.0, 1.6483374335112834E9, 0.0, 2022-03-26 18:30:33.511
35.0, -0.3665101956576109, -14.06576373334974, -3.8072181548923254, 20.449772957712412, 0.01600000075995922, 0.43200002051889896, 0.944000044837594, 0.0, 0.0, 0.0, 0.0, 0.0, 1.6483374335112834E9, 0.0, 2022-03-26 18:30:33.511
36.0, -7.393782212398946, -13.26168524287641, -1.686694880016148, 30.338068440556526, 0.01600000075995922, 0.43200002051889896, 0.944000044837594, 0.0, 0.0, 0.0, 0.0, 0.0, 1.6483374335433187E9, 0.0, 2022-03-26 18:30:33.543
36.0, -5.965140429325402, -22.772250830195844, -3.066717963665724, 27.652820272371173, 0.01600000075995922, 0.43200002051889896, 0.944000044837594, 0.0, 0.0, 0.0, 0.0, 0.0, 1.6483374335433187E9, 0.0, 2022-03-26 18:30:33.543
37.0, -0.022439399734139442, -14.813743724487722, 1.9223085772246122, 28.20632546581328, 0.01600000075995922, 0.43200002051889896, 0.944000044837594, 0.0, 0.0, 0.0, 0.0, 0.0, 1.6483374335440536E9, 0.0, 2022-03-26 18:30:33.544
37.0, 6.757999219931662, -4.091450551524758, -1.249126585200429, 20.412373958155513, 0.01600000075995922, 0.43200002051889896, 0.944000044837594, 0.0, 0.0, 0.0, 0.0, 0.0, 1.6483374335440536E9, 0.0, 2022-03-26 18:30:33.544
38.0, -7.169388215057552, -3.904455553740263, 6.574744122102857, 32.70542511250824, 0.01600000075995922, 0.43200002051889896, 0.944000044837594, 0.0, 0.0, 0.0, 0.0, 0.0, 1.6483374335448053E9, 0.0, 2022-03-26 18:30:33.544
38.0, -9.375929188914597, -5.086263939738274, 7.558337810449302, 28.52421696204692, 0.01600000075995922, 0.43200002051889896, 0.944000044837594, 0.0, 0.0, 0.0, 0.0, 0.0, 1.6483374335448053E9, 0.0, 2022-03-26 18:30:33.544
39.0, 2.4384147711098194, -3.5117660583928227, -0.7928587906062603, 24.61228160839528, 0.01600000075995922, 0.43200002051889896, 0.944000044837594, 0.0, 0.0, 0.0, 0.0, 0.0, 1.6483374335455444E9, 0.0, 2022-03-26 18:30:33.545
39.0, 0.2617929968982935, -0.05983839929103851, 5.8978222301229835, 22.798430129885674, 0.01600000075995922, 0.43200002051889896, 0.944000044837594, 0.0, 0.0, 0.0, 0.0, 0.0, 1.6483374335455444E9, 0.0, 2022-03-26 18:30:33.545
40.0, -7.199307414703071, -3.549165057949722, 5.033905340358615, 8.317537501454353, 0.01600000075995922, 0.43200002051889896, 0.944000044837594, 0.0, 0.0, 0.0, 0.0, 0.0, 1.6483374335563295E9, 0.0, 2022-03-26 18:30:33.556
40.0, -18.729418978095055, -3.2350134616717696, 4.300884949043393, -1.970927276648581, 0.01600000075995922, 0.43200002051889896, 0.944000044837594, 0.0, 0.0, 0.0, 0.0, 0.0, 1.6483374335563295E9, 0.0, 2022-03-26 18:30:33.556
41.0, -12.203293555416167, -2.688988068141043, 10.591396674513817, 18.89023467618972, 0.01600000075995922, 0.43200002051889896, 0.944000044837594, 0.0, 0.0, 0.0, 0.0, 0.0, 1.6483374335712633E9, 0.0, 2022-03-26 18:30:33.571
41.0, -4.158768750727177, -7.692974208854139, 4.798291643150151, 28.894467057660222, 0.01600000075995922, 0.43200002051889896, 0.944000044837594, 0.0, 0.0, 0.0, 0.0, 0.0, 1.6483374335712633E9, 0.0, 2022-03-26 18:30:33.571
42.0, -11.788164660334587, -7.876229306682944, 1.1032704869285226, 23.00038472749293, 0.01600000075995922, 0.43200002051889896, 0.944000044837594, 0.0, 0.0, 0.0, 0.0, 0.0, 1.6483374335869536E9, 0.0, 2022-03-26 18:30:33.586
42.0, -7.165648315101862, 3.2050942620262504, 5.942701029591262, 35.585148078389466, 0.01600000075995922, 0.43200002051889896, 0.944000044837594, 0.0, 0.0, 0.0, 0.0, 0.0, 1.6483374335869536E9, 0.0, 2022-03-26 18:30:33.586
43.0, -11.563770662993193, -6.84775681886822, 4.4056021478027105, 23.037783727049828, 0.01600000075995922, 0.43200002051889896, 0.944000044837594, 0.0, 0.0, 0.0, 0.0, 0.0, 1.6483374335877445E9, 0.0, 2022-03-26 18:30:33.587
43.0, -9.757398984394968, -0.29545209649950266, 6.649542121216655, 17.34565599448979, 0.01600000075995922, 0.43200002051889896, 0.944000044837594, 0.0, 0.0, 0.0, 0.0, 0.0, 1.6483374335877445E9, 0.0, 2022-03-26 18:30:33.587
44.0, -20.202939560636878, -8.171681403182447, -3.7585994554683566, 15.131635220721364, 0.01600000075995922, 0.43200002051889896, 0.944000044837594, 0.0, 0.0, 0.0, 0.0, 0.0, 1.6483374336012387E9, 0.0, 2022-03-26 18:30:33.601
44.0, -13.145748344250023, -14.039584433659911, -1.3575836839154363, 19.432520169764757, 0.01600000075995922, 0.43200002051889896, 0.944000044837594, 0.0, 0.0, 0.0, 0.0, 0.0, 1.6483374336012387E9, 0.0, 2022-03-26 18:30:33.601
45.0, -9.144055391661823, -1.5557983815670013, 9.69008078519255, 16.88564829993993, 0.01600000075995922, 0.43200002051889896, 0.944000044837594, 0.0, 0.0, 0.0, 0.0, 0.0, 1.6483374336169355E9, 0.0, 2022-03-26 18:30:33.616
45.0, -22.652574031613767, -1.1144901867955923, 5.24333973787725, 11.68344746157527, 0.01600000075995922, 0.43200002051889896, 0.944000044837594, 0.0, 0.0, 0.0, 0.0, 0.0, 1.6483374336169355E9, 0.0, 2022-03-26 18:30:33.616
46.0, -9.013158893212676, -8.111843003891408, 4.241046549752355, 11.788164660334587, 0.01600000075995922, 0.43200002051889896, 0.944000044837594, 0.0, 0.0, 0.0, 0.0, 0.0, 1.6483374336177156E9, 0.0, 2022-03-26 18:30:33.617
46.0, -21.481985345482826, -1.6754751801490784, 1.7016544798389077, 15.150334720499814, 0.01600000075995922, 0.43200002051889896, 0.944000044837594, 0.0, 0.0, 0.0, 0.0, 0.0, 1.6483374336177156E9, 0.0, 2022-03-26 18:30:33.617
47.0, -14.686587125994265, 3.788518655113876, -0.3590303957462311, 22.57029623258859, 0.01600000075995922, 0.43200002051889896, 0.944000044837594, 0.0, 0.0, 0.0, 0.0, 0.0, 1.6483374336313496E9, 0.0, 2022-03-26 18:30:33.631
47.0, -11.889141959138215, 1.7053943797945976, 1.9933666763827205, 32.97095800936222, 0.01600000075995922, 0.43200002051889896, 0.944000044837594, 0.0, 0.0, 0.0, 0.0, 0.0, 1.6483374336313496E9, 0.0, 2022-03-26 18:30:33.631
48.0, -13.69551363773644, -8.089403604157269, -13.186887243762612, 19.496098469011486, 0.01600000075995922, 0.43200002051889896, 0.944000044837594, 0.0, 0.0, 0.0, 0.0, 0.0, 1.6483374336469755E9, 0.0, 2022-03-26 18:30:33.646
48.0, -12.835336647927761, -13.68429393786937, -8.358676400966942, 9.63772218581289, 0.01600000075995922, 0.43200002051889896, 0.944000044837594, 0.0, 0.0, 0.0, 0.0, 0.0, 1.6483374336469755E9, 0.0, 2022-03-26 18:30:33.646
49.0, -16.12270870897919, -15.109195820987225, -0.45626779459416866, 24.286910312250257, 0.01600000075995922, 0.43200002051889896, 0.944000044837594, 0.0, 0.0, 0.0, 0.0, 0.0, 1.6483374336477451E9, 0.0, 2022-03-26 18:30:33.647
49.0, -18.688280078582466, -11.354336265474558, -0.23935359716415405, 23.998938015662134, 0.01600000075995922, 0.43200002051889896, 0.944000044837594, 0.0, 0.0, 0.0, 0.0, 0.0, 1.6483374336477451E9, 0.0, 2022-03-26 18:30:33.647
50.0, -18.14599458500743, -15.632781814783812, 13.860069235786796, 18.366648682393134, 0.01600000075995922, 0.43200002051889896, 0.944000044837594, 0.0, 0.0, 0.0, 0.0, 0.0, 1.6483374336613083E9, 0.0, 2022-03-26 18:30:33.661
50.0, -17.057683697901666, -19.398861070163548, 13.471119640395045, 12.390288553200662, 0.01600000075995922, 0.43200002051889896, 0.944000044837594, 0.0, 0.0, 0.0, 0.0, 0.0, 1.6483374336613083E9, 0.0, 2022-03-26 18:30:33.661
51.0, -13.557137339375913, -14.578130027279258, 31.482477826997638, 20.704086154699326, 0.01600000075995922, 0.43200002051889896, 0.944000044837594, 0.0, 0.0, 0.0, 0.0, 0.0, 1.6483374336769695E9, 0.0, 2022-03-26 18:30:33.676
51.0, -19.29788377135992, -9.910734882578254, 45.57442086003721, 50.466210002079606, 0.01600000075995922, 0.43200002051889896, 0.944000044837594, 0.0, 0.0, 0.0, 0.0, 0.0, 1.6483374336769695E9, 0.0, 2022-03-26 18:30:33.676
52.0, -9.873335883021355, -20.51709115691483, 47.1713581411168, 36.67719886545092, 0.01600000075995922, 0.43200002051889896, 0.944000044837594, 0.0, 0.0, 0.0, 0.0, 0.0, 1.6483374336777344E9, 0.0, 2022-03-26 18:30:33.677
52.0, -12.999892245978117, -24.443986110389233, 53.690003763884306, 20.015944562852383, 0.01600000075995922, 0.43200002051889896, 0.944000044837594, 0.0, 0.0, 0.0, 0.0, 0.0, 1.6483374336777344E9, 0.0, 2022-03-26 18:30:33.677
53.0, -10.344563277438283, -11.560030763037503, 50.911258096806705, 50.918737896718085, 0.01600000075995922, 0.43200002051889896, 0.944000044837594, 0.0, 0.0, 0.0, 0.0, 0.0, 1.6483374336913104E9, 0.0, 2022-03-26 18:30:33.691
53.0, -10.617575974203646, -16.47799920476973, 43.16218538861722, 43.678291582502425, 0.01600000075995922, 0.43200002051889896, 0.944000044837594, 0.0, 0.0, 0.0, 0.0, 0.0, 1.6483374336913104E9, 0.0, 2022-03-26 18:30:33.691
54.0, -3.537945358082652, -22.749811430461705, 38.10210074856877, 42.833074192516506, 0.01600000075995922, 0.43200002051889896, 0.944000044837594, 0.0, 0.0, 0.0, 0.0, 0.0, 1.6483374337069073E9, 0.0, 2022-03-26 18:30:33.706
54.0, -11.571250462904572, -24.709519007243216, 42.54510189592838, 43.315521286800504, 0.01600000075995922, 0.43200002051889896, 0.944000044837594, 0.0, 0.0, 0.0, 0.0, 0.0, 1.6483374337069073E9, 0.0, 2022-03-26 18:30:33.706
55.0, -19.200646372511983, -21.28377064783126, 43.304301586933434, 36.378006868995726, 0.01600000075995922, 0.43200002051889896, 0.944000044837594, 0.0, 0.0, 0.0, 0.0, 0.0, 1.6483374337076557E9, 0.0, 2022-03-26 18:30:33.707
55.0, -10.06407078076154, -17.831842988729477, 41.93923810310662, 41.31093491055071, 0.01600000075995922, 0.43200002051889896, 0.944000044837594, 0.0, 0.0, 0.0, 0.0, 0.0, 1.6483374337076557E9, 0.0, 2022-03-26 18:30:33.707
56.0, -7.001092717051506, -11.732066160999238, 48.442924126051366, 41.92053860332817, 0.01600000075995922, 0.43200002051889896, 0.944000044837594, 0.0, 0.0, 0.0, 0.0, 0.0, 1.648337433721299E9, 0.0, 2022-03-26 18:30:33.721
56.0, -5.531312034465373, -8.908441694453359, 45.78385525755584, 31.504917226731777, 0.01600000075995922, 0.43200002051889896, 0.944000044837594, 0.0, 0.0, 0.0, 0.0, 0.0, 1.648337433721299E9, 0.0, 2022-03-26 18:30:33.721
57.0, -15.008218522183597, -13.093389744870365, 40.52181601990014, 30.405386639758945, 0.01600000075995922, 0.43200002051889896, 0.944000044837594, 0.0, 0.0, 0.0, 0.0, 0.0, 1.6483374337369652E9, 0.0, 2022-03-26 18:30:33.736
57.0, 2.1953212739899755, -19.439999969676137, 41.76346280518919, 45.49214306101203, 0.01600000075995922, 0.43200002051889896, 0.944000044837594, 0.0, 0.0, 0.0, 0.0, 0.0, 1.6483374337369652E9, 0.0, 2022-03-26 18:30:33.736
58.0, -2.5880107693374157, -15.333589818328619, 40.52929581981152, 28.393320463597775, 0.01600000075995922, 0.43200002051889896, 0.944000044837594, 0.0, 0.0, 0.0, 0.0, 0.0, 1.6483374337377532E9, 0.0, 2022-03-26 18:30:33.737
58.0, -5.662208532914519, -10.602616374380887, 37.07736816070974, 31.504917226731777, 0.01600000075995922, 0.43200002051889896, 0.944000044837594, 0.0, 0.0, 0.0, 0.0, 0.0, 1.6483374337377532E9, 0.0, 2022-03-26 18:30:33.737
59.0, -3.657622156664729, -15.535544415935874, 35.3121353816241, 38.26665634661913, 0.01600000075995922, 0.43200002051889896, 0.944000044837594, 0.0, 0.0, 0.0, 0.0, 0.0, 1.6483374337512631E9, 0.0, 2022-03-26 18:30:33.751
59.0, -17.37183529417962, -25.00497110374272, 32.67550591286272, 25.78287029452622, 0.01600000075995922, 0.43200002051889896, 0.944000044837594, 0.0, 0.0, 0.0, 0.0, 0.0, 1.6483374337512631E9, 0.0, 2022-03-26 18:30:33.751
60.0, -0.29171219654381275, -10.598876474425197, 31.00377063266933, 23.232258524745703, 0.01600000075995922, 0.43200002051889896, 0.944000044837594, 0.0, 0.0, 0.0, 0.0, 0.0, 1.6483374337669878E9, 0.0, 2022-03-26 18:30:33.766
60.0, -11.623609062284231, -8.06322430446744, 30.63352053705603, 31.05612923204899, 0.01600000075995922, 0.43200002051889896, 0.944000044837594, 0.0, 0.0, 0.0, 0.0, 0.0, 1.6483374337669878E9, 0.0, 2022-03-26 18:30:33.766
61.0, -6.559784522280097, -15.075536721386015, 21.870934940874577, 33.34494800493121, 0.01600000075995922, 0.43200002051889896, 0.944000044837594, 0.0, 0.0, 0.0, 0.0, 0.0, 1.648337433767745E9, 0.0, 2022-03-26 18:30:33.767
61.0, -12.109796056523919, -15.943193511106074, 28.423239663243294, 33.11681410763413, 0.01600000075995922, 0.43200002051889896, 0.944000044837594, 0.0, 0.0, 0.0, 0.0, 0.0, 1.648337433767745E9, 0.0, 2022-03-26 18:30:33.767
62.0, -11.014005369506776, -18.647141179069877, 23.72218541894108, 34.48187759146094, 0.01600000075995922, 0.43200002051889896, 0.944000044837594, 0.0, 0.0, 0.0, 0.0, 0.0, 1.6483374337813063E9, 0.0, 2022-03-26 18:30:33.781
62.0, -5.101223539561033, -23.81568291783333, 19.825209665112197, 28.19510576594621, 0.01600000075995922, 0.43200002051889896, 0.944000044837594, 0.0, 0.0, 0.0, 0.0, 0.0, 1.6483374337813063E9, 0.0, 2022-03-26 18:30:33.781
63.0, -2.01206617616117, -21.74003844242543, 23.475352021865547, 46.31492105126381, 0.01600000075995922, 0.43200002051889896, 0.944000044837594, 0.0, 0.0, 0.0, 0.0, 0.0, 1.6483374337969573E9, 0.0, 2022-03-26 18:30:33.796
63.0, -12.547364351339638, -27.39102727547288, 19.30910347122699, 27.33492877613753, 0.01600000075995922, 0.43200002051889896, 0.944000044837594, 0.0, 0.0, 0.0, 0.0, 0.0, 1.6483374337969573E9, 0.0, 2022-03-26 18:30:33.796
64.0, -11.032704869285226, -29.204878753982484, 20.374974958598614, 36.011496673338115, 0.01600000075995922, 0.43200002051889896, 0.944000044837594, 0.0, 0.0, 0.0, 0.0, 0.0, 1.6483374337977111E9, 0.0, 2022-03-26 18:30:33.797
64.0, 0.35529049579054117, -20.86864175274968, 26.56450938526541, 36.93151206243783, 0.01600000075995922, 0.43200002051889896, 0.944000044837594, 0.0, 0.0, 0.0, 0.0, 0.0, 1.6483374337977111E9, 0.0, 2022-03-26 18:30:33.797
65.0, -3.2387533616274595, -18.374128482304513, 16.276044607162476, 24.694559407420456, 0.01600000075995922, 0.43200002051889896, 0.944000044837594, 0.0, 0.0, 0.0, 0.0, 0.0, 1.6483374338112688E9, 0.0, 2022-03-26 18:30:33.811
65.0, -4.757152743637562, -21.26507114805281, 17.37183529417962, 23.886741016991436, 0.01600000075995922, 0.43200002051889896, 0.944000044837594, 0.0, 0.0, 0.0, 0.0, 0.0, 1.6483374338112688E9, 0.0, 2022-03-26 18:30:33.811
66.0, -3.5678645577281713, -20.356275458820164, 17.73834548983723, 26.343855287879705, 0.01600000075995922, 0.43200002051889896, 0.944000044837594, 0.0, 0.0, 0.0, 0.0, 0.0, 1.6483374338269455E9, 0.0, 2022-03-26 18:30:33.826
66.0, 0.09723739884793758, -18.273151183500886, 20.700346254743636, 33.176652506925166, 0.01600000075995922, 0.43200002051889896, 0.944000044837594, 0.0, 0.0, 0.0, 0.0, 0.0, 1.6483374338269455E9, 0.0, 2022-03-26 18:30:33.826
67.0, -10.47919967584312, -21.059376650489867, 18.0824162857607, 27.72761827148497, 0.01600000075995922, 0.43200002051889896, 0.944000044837594, 0.0, 0.0, 0.0, 0.0, 0.0, 1.6483374338277607E9, 0.0, 2022-03-26 18:30:33.827
67.0, -3.825917654670775, -3.066717963665724, 26.822562482208014, 30.330588640645146, 0.01600000075995922, 0.43200002051889896, 0.944000044837594, 0.0, 0.0, 0.0, 0.0, 0.0, 1.6483374338277607E9, 0.0, 2022-03-26 18:30:33.827
68.0, 3.0891573633998632, -5.336837236769497, 28.853328158147633, 40.62653321865946, 0.01600000075995922, 0.43200002051889896, 0.944000044837594, 0.0, 0.0, 0.0, 0.0, 0.0, 1.648337433841266E9, 0.0, 2022-03-26 18:30:33.841
68.0, -5.475213535130024, 0.7704193908721209, 27.514443974010646, 36.071335072629154, 0.01600000075995922, 0.43200002051889896, 0.944000044837594, 0.0, 0.0, 0.0, 0.0, 0.0, 1.648337433841266E9, 0.0, 2022-03-26 18:30:33.841
69.0, -1.5445786816999316, 4.7683724435046315, 33.662839501164854, 40.039368925616145, 0.01600000075995922, 0.43200002051889896, 0.944000044837594, 0.0, 0.0, 0.0, 0.0, 0.0, 1.6483374338569665E9, 0.0, 2022-03-26 18:30:33.856
69.0, -1.1331896865740418, -3.6314428569748998, 28.729911459609866, 36.99509036168456, 0.01600000075995922, 0.43200002051889896, 0.944000044837594, 0.0, 0.0, 0.0, 0.0, 0.0, 1.6483374338569665E9, 0.0, 2022-03-26 18:30:33.856
70.0, -4.84691034257412, 0.2617929968982935, 22.357121935114264, 35.03164288494736, 0.01600000075995922, 0.43200002051889896, 0.944000044837594, 0.0, 0.0, 0.0, 0.0, 0.0, 1.6483374338577762E9, 0.0, 2022-03-26 18:30:33.857
70.0, -4.7683724435046315, -1.7203539796173573, 23.187379725277424, 32.65306651312858, 0.01600000075995922, 0.43200002051889896, 0.944000044837594, 0.0, 0.0, 0.0, 0.0, 0.0, 1.6483374338577762E9, 0.0, 2022-03-26 18:30:33.857
71.0, 8.751365896314383, 1.8587302779778838, 31.497437426820397, 30.480184638872743, 0.01600000075995922, 0.43200002051889896, 0.944000044837594, 0.0, 0.0, 0.0, 0.0, 0.0, 1.6483374338713746E9, 0.0, 2022-03-26 18:30:33.871
71.0, -4.454220847226679, -6.387749124318361, 26.762724082916975, 20.636767955496907, 0.01600000075995922, 0.43200002051889896, 0.944000044837594, 0.0, 0.0, 0.0, 0.0, 0.0, 1.6483374338713746E9, 0.0, 2022-03-26 18:30:33.871
72.0, -3.62022315710783, 1.6567756803706288, 26.882400881499052, 39.194151535630226, 0.01600000075995922, 0.43200002051889896, 0.944000044837594, 0.0, 0.0, 0.0, 0.0, 0.0, 1.6483374338869355E9, 0.0, 2022-03-26 18:30:33.886
72.0, -9.140315491706133, -7.846310107037425, 15.150334720499814, 26.99459788016975, 0.01600000075995922, 0.43200002051889896, 0.944000044837594, 0.0, 0.0, 0.0, 0.0, 0.0, 1.6483374338869355E9, 0.0, 2022-03-26 18:30:33.886
73.0, -10.142608679831028, -7.965986905619502, 18.299330483190715, 30.035136544145644, 0.01600000075995922, 0.43200002051889896, 0.944000044837594, 0.0, 0.0, 0.0, 0.0, 0.0, 1.6483374338876956E9, 0.0, 2022-03-26 18:30:33.887
73.0, -5.306918037123978, -9.25999229028821, 19.7504116659984, 15.546764115802944, 0.01600000075995922, 0.43200002051889896, 0.944000044837594, 0.0, 0.0, 0.0, 0.0, 0.0, 1.6483374338876956E9, 0.0, 2022-03-26 18:30:33.887
74.0, -6.686941120773554, -8.930881094187498, 15.513105016201735, 19.578376268036664, 0.01600000075995922, 0.43200002051889896, 0.944000044837594, 0.0, 0.0, 0.0, 0.0, 0.0, 1.6483374339012902E9, 0.0, 2022-03-26 18:30:33.901
74.0, -15.883355111815035, -8.182901103049517, 16.997845298610628, 26.56450938526541, 0.01600000075995922, 0.43200002051889896, 0.944000044837594, 0.0, 0.0, 0.0, 0.0, 0.0, 1.6483374339012902E9, 0.0, 2022-03-26 18:30:33.901
75.0, -1.0284724878147244, -11.601169662550092, 17.469072693027556, 23.194859525188804, 0.01600000075995922, 0.43200002051889896, 0.944000044837594, 0.0, 0.0, 0.0, 0.0, 0.0, 1.64833743391699E9, 0.0, 2022-03-26 18:30:33.916
75.0, -4.151288950815797, -17.136221596971154, 10.550257775001228, 26.837522082030773, 0.01600000075995922, 0.43200002051889896, 0.944000044837594, 0.0, 0.0, 0.0, 0.0, 0.0, 1.64833743391699E9, 0.0, 2022-03-26 18:30:33.916
76.0, -8.373636000789702, -5.348056936636567, 3.0405386639758945, 18.759338177740574, 0.01600000075995922, 0.43200002051889896, 0.944000044837594, 0.0, 0.0, 0.0, 0.0, 0.0, 1.6483374339177852E9, 0.0, 2022-03-26 18:30:33.917
76.0, -10.699853773228824, -3.6464024567976594, 3.418268559500575, 24.642200808040798, 0.01600000075995922, 0.43200002051889896, 0.944000044837594, 0.0, 0.0, 0.0, 0.0, 0.0, 1.6483374339177852E9, 0.0, 2022-03-26 18:30:33.917
77.0, -20.999538251198828, -9.779838384129107, 11.148641767911613, 21.070596350356936, 0.01600000075995922, 0.43200002051889896, 0.944000044837594, 0.0, 0.0, 0.0, 0.0, 0.0, 1.64833743393131E9, 0.0, 2022-03-26 18:30:33.931
77.0, -3.8072181548923254, -15.479445916600525, 13.721692937426269, -1.7091342797502875, 0.01600000075995922, 0.43200002051889896, 0.944000044837594, 0.0, 0.0, 0.0, 0.0, 0.0, 1.64833743393131E9, 0.0, 2022-03-26 18:30:33.931
78.0, -4.375682948157191, -8.560630998574197, 14.331296630203724, 27.443385874852538, 0.01600000075995922, 0.43200002051889896, 0.944000044837594, 0.0, 0.0, 0.0, 0.0, 0.0, 1.6483374339469557E9, 0.0, 2022-03-26 18:30:33.946
78.0, -13.616975738666952, -12.633382050320506, 4.136329350993037, 24.18593301344663, 0.01600000075995922, 0.43200002051889896, 0.944000044837594, 0.0, 0.0, 0.0, 0.0, 0.0, 1.6483374339469557E9, 0.0, 2022-03-26 18:30:33.946
79.0, -6.320430925115943, -8.515752199105918, 3.702500956133008, 6.193274326622486, 0.01600000075995922, 0.43200002051889896, 0.944000044837594, 0.0, 0.0, 0.0, 0.0, 0.0, 1.648337433947785E9, 0.0, 2022-03-26 18:30:33.947
79.0, -10.138868779875338, -10.307164277881384, 5.463993835262954, 23.976498615927994, 0.01600000075995922, 0.43200002051889896, 0.944000044837594, 0.0, 0.0, 0.0, 0.0, 0.0, 1.648337433947785E9, 0.0, 2022-03-26 18:30:33.947
80.0, -8.119322803802788, -8.526971898972988, 15.621562114916742, 27.204032277688384, 0.01600000075995922, 0.43200002051889896, 0.944000044837594, 0.0, 0.0, 0.0, 0.0, 0.0, 1.6483374339776545E9, 0.0, 2022-03-26 18:30:33.977
80.0, 0.6170834926888347, 5.0114659406244755, 21.77743744198233, 40.9444247148931, 0.01600000075995922, 0.43200002051889896, 0.944000044837594, 0.0, 0.0, 0.0, 0.0, 0.0, 1.6483374339776545E9, 0.0, 2022-03-26 18:30:33.977
81.0, -2.247679873369634, -6.0548980282619596, 6.544824922457337, 21.126694849692285, 0.01600000075995922, 0.43200002051889896, 0.944000044837594, 0.0, 0.0, 0.0, 0.0, 0.0, 1.6483374339783509E9, 0.0, 2022-03-26 18:30:33.978
81.0, -16.421900705434382, -12.625902250409126, -2.3075182726606727, 16.02921121008694, 0.01600000075995922, 0.43200002051889896, 0.944000044837594, 0.0, 0.0, 0.0, 0.0, 0.0, 1.6483374339783509E9, 0.0, 2022-03-26 18:30:33.978
82.0, -4.82073104288429, -3.010619464330375, 10.258545578457415, 23.946579416282475, 0.01600000075995922, 0.43200002051889896, 0.944000044837594, 0.0, 0.0, 0.0, 0.0, 0.0, 1.6483374339791253E9, 0.0, 2022-03-26 18:30:33.979
82.0, -0.20195459760725498, -0.7816390907391906, 10.527818375267088, 30.053836043924093, 0.01600000075995922, 0.43200002051889896, 0.944000044837594, 0.0, 0.0, 0.0, 0.0, 0.0, 1.6483374339791253E9, 0.0, 2022-03-26 18:30:33.979
83.0, -3.949334353208542, -13.441200440749526, 9.559184286743402, 29.526510150171816, 0.01600000075995922, 0.43200002051889896, 0.944000044837594, 0.0, 0.0, 0.0, 0.0, 0.0, 1.6483374339912486E9, 0.0, 2022-03-26 18:30:33.991
83.0, -8.149242003448308, -7.591996910050511, 8.699007296934724, 16.227425907738507, 0.01600000075995922, 0.43200002051889896, 0.944000044837594, 0.0, 0.0, 0.0, 0.0, 0.0, 1.6483374339912486E9, 0.0, 2022-03-26 18:30:33.991
84.0, -5.22090033814311, 2.01206617616117, 12.723139649257064, 15.565463615581393, 0.01600000075995922, 0.43200002051889896, 0.944000044837594, 0.0, 0.0, 0.0, 0.0, 0.0, 1.6483374340069466E9, 0.0, 2022-03-26 18:30:34.006
84.0, -12.319230454042554, 1.4436013828963041, 11.967679858207703, 34.90822618640959, 0.01600000075995922, 0.43200002051889896, 0.944000044837594, 0.0, 0.0, 0.0, 0.0, 0.0, 1.6483374340069466E9, 0.0, 2022-03-26 18:30:34.006
85.0, -10.84944977145642, -15.868395511992276, 7.9061485063284636, 16.05539050977677, 0.01600000075995922, 0.43200002051889896, 0.944000044837594, 0.0, 0.0, 0.0, 0.0, 0.0, 1.6483374340077512E9, 0.0, 2022-03-26 18:30:34.007
85.0, -5.6958676325157285, -5.9763601291924715, 8.089403604157269, 8.093143504112959, 0.01600000075995922, 0.43200002051889896, 0.944000044837594, 0.0, 0.0, 0.0, 0.0, 0.0, 1.6483374340077512E9, 0.0, 2022-03-26 18:30:34.007
86.0, 3.2499730614945292, 5.407895335927606, 7.25540591403842, 20.453512857668102, 0.01600000075995922, 0.43200002051889896, 0.944000044837594, 0.0, 0.0, 0.0, 0.0, 0.0, 1.6483374340212977E9, 0.0, 2022-03-26 18:30:34.021
86.0, -4.977806841023266, 2.8872027657926083, 1.492220082320273, 30.386687139980495, 0.01600000075995922, 0.43200002051889896, 0.944000044837594, 0.0, 0.0, 0.0, 0.0, 0.0, 1.6483374340212977E9, 0.0, 2022-03-26 18:30:34.021
87.0, -5.045125040225685, 2.0681646754965186, -0.49740669410675764, 21.975652139633894, 0.01600000075995922, 0.43200002051889896, 0.944000044837594, 0.0, 0.0, 0.0, 0.0, 0.0, 1.6483374340370317E9, 0.0, 2022-03-26 18:30:34.037
87.0, -6.746779520064592, -3.855836854316294, 9.409588288515806, 19.29788377135992, 0.01600000075995922, 0.43200002051889896, 0.944000044837594, 0.0, 0.0, 0.0, 0.0, 0.0, 1.6483374340370317E9, 0.0, 2022-03-26 18:30:34.037
88.0, -5.205940738320351, -7.001092717051506, 14.383655229583383, 24.08121581468731, 0.01600000075995922, 0.43200002051889896, 0.944000044837594, 0.0, 0.0, 0.0, 0.0, 0.0, 1.6483374340378008E9, 0.0, 2022-03-26 18:30:34.037
88.0, -8.46339359972626, 4.342023848555982, 27.095575178973377, 30.480184638872743, 0.01600000075995922, 0.43200002051889896, 0.944000044837594, 0.0, 0.0, 0.0, 0.0, 0.0, 1.6483374340378008E9, 0.0, 2022-03-26 18:30:34.037
89.0, -8.803724495694041, -3.425748359411955, 31.661993024870753, 37.39899955689907, 0.01600000075995922, 0.43200002051889896, 0.944000044837594, 0.0, 0.0, 0.0, 0.0, 0.0, 1.648337434051269E9, 0.0, 2022-03-26 18:30:34.051
89.0, -3.8333974545821548, -5.748226231895387, 35.02790298499167, 27.79867637064308, 0.01600000075995922, 0.43200002051889896, 0.944000044837594, 0.0, 0.0, 0.0, 0.0, 0.0, 1.648337434051269E9, 0.0, 2022-03-26 18:30:34.051
90.0, -5.692127732560039, -7.2666256139054894, 20.85742205288261, 25.01619080360979, 0.01600000075995922, 0.43200002051889896, 0.944000044837594, 0.0, 0.0, 0.0, 0.0, 0.0, 1.648337434067094E9, 0.0, 2022-03-26 18:30:34.067
90.0, -8.616729497909546, -6.82905731908977, 15.019438222050667, 22.768510930240154, 0.01600000075995922, 0.43200002051889896, 0.944000044837594, 0.0, 0.0, 0.0, 0.0, 0.0, 1.648337434067094E9, 0.0, 2022-03-26 18:30:34.067
91.0, -12.345409753732383, -4.562677945941687, 13.594536338932812, 40.877106515690684, 0.01600000075995922, 0.43200002051889896, 0.944000044837594, 0.0, 0.0, 0.0, 0.0, 0.0, 1.6483374340678897E9, 0.0, 2022-03-26 18:30:34.067
91.0, -2.00458637624979, -9.428287788294256, 9.66764138545841, 26.721585183404386, 0.01600000075995922, 0.43200002051889896, 0.944000044837594, 0.0, 0.0, 0.0, 0.0, 0.0, 1.6483374340678897E9, 0.0, 2022-03-26 18:30:34.067
92.0, 3.7585994554683566, -15.580423215404153, 10.696113873273134, 5.104963439516723, 0.01600000075995922, 0.43200002051889896, 0.944000044837594, 0.0, 0.0, 0.0, 0.0, 0.0, 1.6483374340812895E9, 0.0, 2022-03-26 18:30:34.081
92.0, 0.12715659849345684, -7.62939590960741, 13.882508635520935, 29.73968444764614, 0.01600000075995922, 0.43200002051889896, 0.944000044837594, 0.0, 0.0, 0.0, 0.0, 0.0, 1.6483374340812895E9, 0.0, 2022-03-26 18:30:34.081
93.0, 1.1107502868399024, -10.86814927123487, 9.020638693124056, 35.35327428113669, 0.01600000075995922, 0.43200002051889896, 0.944000044837594, 0.0, 0.0, 0.0, 0.0, 0.0, 1.648337434097016E9, 0.0, 2022-03-26 18:30:34.097
93.0, -1.892389377579093, -12.794197748415172, 9.125355891883373, 18.321769882924855, 0.01600000075995922, 0.43200002051889896, 0.944000044837594, 0.0, 0.0, 0.0, 0.0, 0.0, 1.648337434097016E9, 0.0, 2022-03-26 18:30:34.097
94.0, -10.426841076463461, -7.173128115013242, 9.432027688249946, 15.827256612479687, 0.01600000075995922, 0.43200002051889896, 0.944000044837594, 0.0, 0.0, 0.0, 0.0, 0.0, 1.6483374340977707E9, 0.0, 2022-03-26 18:30:34.097
94.0, -6.810357819311321, -4.592597145587206, 10.06781068071723, 19.492358569055796, 0.01600000075995922, 0.43200002051889896, 0.944000044837594, 0.0, 0.0, 0.0, 0.0, 0.0, 1.6483374340977707E9, 0.0, 2022-03-26 18:30:34.097
95.0, -9.390888788737357, -5.23585993796587, 13.811450536362827, 2.733866867609322, 0.01600000075995922, 0.43200002051889896, 0.944000044837594, 0.0, 0.0, 0.0, 0.0, 0.0, 1.6483374341112995E9, 0.0, 2022-03-26 18:30:34.111
95.0, 1.6418160805478692, -2.341177372261882, 6.238153126090765, 25.666933395899832, 0.01600000075995922, 0.43200002051889896, 0.944000044837594, 0.0, 0.0, 0.0, 0.0, 0.0, 1.6483374341112995E9, 0.0, 2022-03-26 18:30:34.111
96.0, -2.3037783727049828, -0.7853789906948805, 4.674874944612384, 25.73425159510225, 0.01600000075995922, 0.43200002051889896, 0.944000044837594, 0.0, 0.0, 0.0, 0.0, 0.0, 1.6483374341270216E9, 0.0, 2022-03-26 18:30:34.127
96.0, -12.730619449168444, -11.230919566936791, 5.63976913318038, 26.811342782340944, 0.01600000075995922, 0.43200002051889896, 0.944000044837594, 0.0, 0.0, 0.0, 0.0, 0.0, 1.6483374341270216E9, 0.0, 2022-03-26 18:30:34.127
97.0, -2.0270257759839296, -8.957060393877327, 7.65557520929724, 12.91387454699725, 0.01600000075995922, 0.43200002051889896, 0.944000044837594, 0.0, 0.0, 0.0, 0.0, 0.0, 1.6483374341278164E9, 0.0, 2022-03-26 18:30:34.127
97.0, 7.9061485063284636, -4.536498646251857, 0.056098499335348606, 27.03199687972665, 0.01600000075995922, 0.43200002051889896, 0.944000044837594, 0.0, 0.0, 0.0, 0.0, 0.0, 1.6483374341278164E9, 0.0, 2022-03-26 18:30:34.127
98.0, -3.5566448578611016, -8.814944195561111, 4.81325124297291, 15.251312019303441, 0.01600000075995922, 0.43200002051889896, 0.944000044837594, 0.0, 0.0, 0.0, 0.0, 0.0, 1.648337434141418E9, 0.0, 2022-03-26 18:30:34.141
98.0, -5.318137736991048, -10.015452081337571, 4.925448241643608, 8.06696420442313, 0.01600000075995922, 0.43200002051889896, 0.944000044837594, 0.0, 0.0, 0.0, 0.0, 0.0, 1.648337434141418E9, 0.0, 2022-03-26 18:30:34.141
99.0, -0.34407079592347145, -10.097729880362749, 1.8961292775347829, 23.572589420713484, 0.01600000075995922, 0.43200002051889896, 0.944000044837594, 0.0, 0.0, 0.0, 0.0, 0.0, 1.6483374341569695E9, 0.0, 2022-03-26 18:30:34.156
99.0, -4.072751051746309, -9.312350889667869, 1.3089649844914675, 26.815082682296634, 0.01600000075995922, 0.43200002051889896, 0.944000044837594, 0.0, 0.0, 0.0, 0.0, 0.0, 1.6483374341569695E9, 0.0, 2022-03-26 18:30:34.156
100.0, -11.728326261043549, -12.173374355770648, 0.45252789463847876, 3.661362056620419, 0.01600000075995922, 0.43200002051889896, 0.944000044837594, 0.0, 0.0, 0.0, 0.0, 0.0, 1.6483374341578758E9, 0.0, 2022-03-26 18:30:34.157
100.0, -6.518645622767508, -4.641215845011175, 1.3538437839597464, 11.24213926680386, 0.01600000075995922, 0.43200002051889896, 0.944000044837594, 0.0, 0.0, 0.0, 0.0, 0.0, 1.6483374341578758E9, 0.0, 2022-03-26 18:30:34.157
0.0, 512.237267381046, 33.45340510364622, 816.2630845289677, 390.582061722409, 0.01600000075995922, 0.43200002051889896, 0.944000044837594, 0.0, 0.0, 0.0, 0.0, 0.0, 1.6483374341721096E9, 0.0, 2022-03-26 18:30:34.172
1.0, 504.42087647365406, 30.813035734929144, 805.7614454533905, 384.0559362997301, 0.01600000075995922, 0.43200002051889896, 0.944000044837594, 0.0, 0.0, 0.0, 0.0, 0.0, 1.648337434172897E9, 0.0, 2022-03-26 18:30:34.172
1.0, 504.4844547729008, 21.601662144064903, 805.731526253745, 375.30083050346, 0.01600000075995922, 0.43200002051889896, 0.944000044837594, 0.0, 0.0, 0.0, 0.0, 0.0, 1.648337434172897E9, 0.0, 2022-03-26 18:30:34.172
2.0, 492.12782531930134, 30.18847244232893, 804.1084096729755, 379.22398555697873, 0.03200000151991844, 0.43200002051889896, 0.944000044837594, 0.0, 0.0, 0.0, 0.0, 0.0, 1.6483374342026248E9, 0.0, 2022-03-26 18:30:34.202
2.0, 506.2683870517649, 31.00003073271364, 805.7539656534791, 369.0103187779896, 0.03200000151991844, 0.43200002051889896, 0.944000044837594, 0.0, 0.0, 0.0, 0.0, 0.0, 1.6483374342026248E9, 0.0, 2022-03-26 18:30:34.202
3.0, 511.7099414872937, 39.80001532845199, 804.934927563183, 367.4545203964226, 0.03200000151991844, 0.43200002051889896, 0.944000044837594, 0.0, 0.0, 0.0, 0.0, 0.0, 1.6483374342033958E9, 0.0, 2022-03-26 18:30:34.203
3.0, 510.150403205771, 35.06156208459288, 803.5923034790903, 371.6095492471941, 0.03200000151991844, 0.43200002051889896, 0.944000044837594, 0.0, 0.0, 0.0, 0.0, 0.0, 1.6483374342033958E9, 0.0, 2022-03-26 18:30:34.203
4.0, 514.3540507559665, 29.519030350260437, 808.7870245175436, 374.3434161148034, 0.03200000151991844, 0.43200002051889896, 0.944000044837594, 0.0, 0.0, 0.0, 0.0, 0.0, 1.6483374342041547E9, 0.0, 2022-03-26 18:30:34.204
4.0, 503.7327348818071, 28.026810267940164, 800.8995755109936, 380.36839494341984, 0.03200000151991844, 0.43200002051889896, 0.944000044837594, 0.0, 0.0, 0.0, 0.0, 0.0, 1.6483374342041547E9, 0.0, 2022-03-26 18:30:34.204
5.0, 502.2479945993982, 33.255190405994654, 811.0122649911791, 378.5657631647773, 0.03200000151991844, 0.43200002051889896, 0.944000044837594, 0.0, 0.0, 0.0, 0.0, 0.0, 1.6483374342164009E9, 0.0, 2022-03-26 18:30:34.216
5.0, 517.2038545222022, 48.25218922831118, 813.5778363607824, 397.0932275452651, 0.03200000151991844, 0.43200002051889896, 0.944000044837594, 0.0, 0.0, 0.0, 0.0, 0.0, 1.6483374342164009E9, 0.0, 2022-03-26 18:30:34.216
6.0, 509.5968980123289, 43.49877638462931, 815.6834000358358, 399.01179622253403, 0.03200000151991844, 0.43200002051889896, 0.944000044837594, 0.0, 0.0, 0.0, 0.0, 0.0, 1.6483374342319665E9, 0.0, 2022-03-26 18:30:34.231
6.0, 505.23991456395015, 40.78734891675413, 818.2340118056163, 388.8018693435006, 0.03200000151991844, 0.43200002051889896, 0.944000044837594, 0.0, 0.0, 0.0, 0.0, 0.0, 1.6483374342319665E9, 0.0, 2022-03-26 18:30:34.231
7.0, 510.79740589810535, 43.98870327882469, 819.6439540889114, 389.1608997392468, 0.03200000151991844, 0.43200002051889896, 0.944000044837594, 0.0, 0.0, 0.0, 0.0, 0.0, 1.648337434232675E9, 0.0, 2022-03-26 18:30:34.232
7.0, 503.1493104887195, 39.687818329781294, 815.8554354337975, 396.8089951486327, 0.03200000151991844, 0.43200002051889896, 0.944000044837594, 0.0, 0.0, 0.0, 0.0, 0.0, 1.648337434232675E9, 0.0, 2022-03-26 18:30:34.232
8.0, 512.3232850800268, 39.02211613766849, 812.9981518676504, 377.76542457425967, 0.03200000151991844, 0.43200002051889896, 0.944000044837594, 0.0, 0.0, 0.0, 0.0, 0.0, 1.6483374342627976E9, 0.0, 2022-03-26 18:30:34.262
8.0, 512.7832927745767, 41.7597229052335, 812.5119648734108, 383.5286104059778, 0.03200000151991844, 0.43200002051889896, 0.944000044837594, 0.0, 0.0, 0.0, 0.0, 0.0, 1.6483374342627976E9, 0.0, 2022-03-26 18:30:34.262
9.0, 515.7527733393945, 41.18377831205726, 812.4035077746958, 398.8659401242621, 0.03200000151991844, 0.43200002051889896, 0.944000044837594, 0.0, 0.0, 0.0, 0.0, 0.0, 1.648337434263415E9, 0.0, 2022-03-26 18:30:34.263
9.0, 518.1537891109474, 46.29248165152967, 808.1512415250763, 396.5771213513799, 0.03200000151991844, 0.43200002051889896, 0.944000044837594, 0.0, 0.0, 0.0, 0.0, 0.0, 1.648337434263415E9, 0.0, 2022-03-26 18:30:34.263
10.0, 505.1912958645262, 40.73499031737447, 808.7084866184741, 366.4522272082977, 0.03200000151991844, 0.43200002051889896, 0.944000044837594, 0.0, 0.0, 0.0, 0.0, 0.0, 1.6483374342642455E9, 0.0, 2022-03-26 18:30:34.264
10.0, 513.527532865759, 44.25423617567867, 816.8465089220554, 397.6841317382641, 0.03200000151991844, 0.43200002051889896, 0.944000044837594, 0.0, 0.0, 0.0, 0.0, 0.0, 1.6483374342642455E9, 0.0, 2022-03-26 18:30:34.264
11.0, 511.97921428410336, 50.70930349919945, 819.045570096001, 402.56096128048375, 0.03200000151991844, 0.43200002051889896, 0.944000044837594, 0.0, 0.0, 0.0, 0.0, 0.0, 1.6483374342763047E9, 0.0, 2022-03-26 18:30:34.276
11.0, 506.7844932456501, 42.862993392162025, 812.4446466742083, 387.96787165338174, 0.03200000151991844, 0.43200002051889896, 0.944000044837594, 0.0, 0.0, 0.0, 0.0, 0.0, 1.6483374342763047E9, 0.0, 2022-03-26 18:30:34.276
12.0, 509.3051858157851, 44.523508972488344, 813.1739271655679, 391.064508816693, 0.03200000151991844, 0.43200002051889896, 0.944000044837594, 0.0, 0.0, 0.0, 0.0, 0.0, 1.6483374343083756E9, 0.0, 2022-03-26 18:30:34.308
12.0, 512.2148279813118, 49.11610611807555, 818.5145043022931, 391.81996860774234, 0.03200000151991844, 0.43200002051889896, 0.944000044837594, 0.0, 0.0, 0.0, 0.0, 0.0, 1.6483374343083756E9, 0.0, 2022-03-26 18:30:34.308
13.0, 504.46201537316665, 49.299361215904355, 820.5228305784985, 386.44947227137163, 0.03200000151991844, 0.43200002051889896, 0.944000044837594, 0.0, 0.0, 0.0, 0.0, 0.0, 1.64833743430917E9, 0.0, 2022-03-26 18:30:34.309
13.0, 516.1641623345204, 66.44306261278689, 843.4297178070992, 391.2028851150535, 0.03200000151991844, 0.43200002051889896, 0.944000044837594, 0.0, 0.0, 0.0, 0.0, 0.0, 1.64833743430917E9, 0.0, 2022-03-26 18:30:34.309
14.0, 514.7467402513139, 68.08113879337907, 846.6348120691255, 396.77533604903147, 0.03200000151991844, 0.43200002051889896, 0.944000044837594, 0.0, 0.0, 0.0, 0.0, 0.0, 1.6483374343098338E9, 0.0, 2022-03-26 18:30:34.309
14.0, 521.729133468587, 87.86146965902299, 861.1344041973352, 402.2056707846932, 0.03200000151991844, 0.43200002051889896, 0.944000044837594, 0.0, 0.0, 0.0, 0.0, 0.0, 1.6483374343098338E9, 0.0, 2022-03-26 18:30:34.309
15.0, 516.7924655270763, 111.65471317712218, 885.5858701076359, 397.287702342961, 0.03200000151991844, 0.43200002051889896, 0.944000044837594, 0.0, 0.0, 0.0, 0.0, 0.0, 1.6483374343106792E9, 0.0, 2022-03-26 18:30:34.310
15.0, 530.9517267593183, 123.33442073874176, 903.2194983987138, 420.516220967751, 0.03200000151991844, 0.43200002051889896, 0.944000044837594, 0.0, 0.0, 0.0, 0.0, 0.0, 1.6483374343106792E9, 0.0, 2022-03-26 18:30:34.310
16.0, 528.1243623928167, 136.3642321843654, 920.7858084905893, 416.6267250138335, 0.03200000151991844, 0.43200002051889896, 0.944000044837594, 0.0, 0.0, 0.0, 0.0, 0.0, 1.6483374343213E9, 0.0, 2022-03-26 18:30:34.321
16.0, 533.8763285246678, 151.34627140685916, 939.5414067683741, 420.841592263896, 0.03200000151991844, 0.43200002051889896, 0.944000044837594, 0.0, 0.0, 0.0, 0.0, 0.0, 1.6483374343213E9, 0.0, 2022-03-26 18:30:34.321
17.0, 534.3288564193062, 166.45920712780207, 960.2118338234723, 435.4496414908208, 0.03200000151991844, 0.43200002051889896, 0.944000044837594, 0.0, 0.0, 0.0, 0.0, 0.0, 1.648337434336342E9, 0.0, 2022-03-26 18:30:34.336
17.0, 536.5241776932962, 169.59324329067022, 965.002645666711, 415.9984218212776, 0.03200000151991844, 0.43200002051889896, 0.944000044837594, 0.0, 0.0, 0.0, 0.0, 0.0, 1.648337434336342E9, 0.0, 2022-03-26 18:30:34.336
18.0, 533.5472173285671, 168.486232903786, 969.5241847131401, 447.88480884348974, 0.03200000151991844, 0.43200002051889896, 0.944000044837594, 0.0, 0.0, 0.0, 0.0, 0.0, 1.648337434352002E9, 0.0, 2022-03-26 18:30:34.352
18.0, 529.1378752808087, 161.32058458868414, 966.1171358535066, 432.1099108303897, 0.03200000151991844, 0.43200002051889896, 0.944000044837594, 0.0, 0.0, 0.0, 0.0, 0.0, 1.648337434352002E9, 0.0, 2022-03-26 18:30:34.352
19.0, 546.1544200791977, 164.9258481459692, 979.9211065899581, 454.8298030612059, 0.03200000151991844, 0.43200002051889896, 0.944000044837594, 0.0, 0.0, 0.0, 0.0, 0.0, 1.6483374343527308E9, 0.0, 2022-03-26 18:30:34.352
19.0, 532.9039545361884, 158.80737181846052, 956.4831535676494, 441.5344587187283, 0.03200000151991844, 0.43200002051889896, 0.944000044837594, 0.0, 0.0, 0.0, 0.0, 0.0, 1.6483374343527308E9, 0.0, 2022-03-26 18:30:34.352
20.0, 541.374827935826, 159.1888416139409, 945.1624764017761, 433.84148450987414, 0.03200000151991844, 0.43200002051889896, 0.944000044837594, 0.0, 0.0, 0.0, 0.0, 0.0, 1.648337434366387E9, 0.0, 2022-03-26 18:30:34.366
20.0, 530.1177290691994, 149.37534413021058, 932.7123494492844, 418.1002455963753, 0.03200000151991844, 0.43200002051889896, 0.944000044837594, 0.0, 0.0, 0.0, 0.0, 0.0, 1.648337434366387E9, 0.0, 2022-03-26 18:30:34.366
21.0, 540.5520499455743, 145.9944745702669, 930.9059777706861, 432.54373922524974, 0.03200000151991844, 0.43200002051889896, 0.944000044837594, 0.0, 0.0, 0.0, 0.0, 0.0, 1.6483374343819313E9, 0.0, 2022-03-26 18:30:34.381
21.0, 531.1050626575015, 130.52998825348914, 910.0373360179365, 416.04330062074587, 0.03200000151991844, 0.43200002051889896, 0.944000044837594, 0.0, 0.0, 0.0, 0.0, 0.0, 1.6483374343819313E9, 0.0, 2022-03-26 18:30:34.381
22.0, 525.7981446203776, 117.95270470250398, 905.8561278674752, 415.6132121258415, 0.01600000075995922, 0.43200002051889896, 0.944000044837594, 0.0, 0.0, 0.0, 0.0, 0.0, 1.6483374343827329E9, 0.0, 2022-03-26 18:30:34.382
22.0, 521.3588833729737, 109.8296419987455, 895.7060393877327, 426.3691643984057, 0.01600000075995922, 0.43200002051889896, 0.944000044837594, 0.0, 0.0, 0.0, 0.0, 0.0, 1.6483374343827329E9, 0.0, 2022-03-26 18:30:34.382
23.0, 523.2250934508629, 93.04123109765351, 880.0470782732591, 393.2523502907716, 0.01600000075995922, 0.43200002051889896, 0.944000044837594, 0.0, 0.0, 0.0, 0.0, 0.0, 1.6483374343963344E9, 0.0, 2022-03-26 18:30:34.396
23.0, 522.4845932596363, 87.58845696225762, 864.6873091552407, 410.5082486863248, 0.01600000075995922, 0.43200002051889896, 0.944000044837594, 0.0, 0.0, 0.0, 0.0, 0.0, 1.6483374343963344E9, 0.0, 2022-03-26 18:30:34.396
24.0, 518.7521731038578, 74.74564051441848, 859.2831537192687, 406.40931833488867, 0.01600000075995922, 0.43200002051889896, 0.944000044837594, 0.0, 0.0, 0.0, 0.0, 0.0, 1.6483374344119515E9, 0.0, 2022-03-26 18:30:34.411
24.0, 510.3336583035998, 74.79051931388676, 850.849679319188, 395.3616538657807, 0.01600000075995922, 0.43200002051889896, 0.944000044837594, 0.0, 0.0, 0.0, 0.0, 0.0, 1.6483374344119515E9, 0.0, 2022-03-26 18:30:34.411
25.0, 499.30843323422596, 56.26305493339896, 830.6280402587727, 389.6957054329105, 0.01600000075995922, 0.43200002051889896, 0.944000044837594, 0.0, 0.0, 0.0, 0.0, 0.0, 1.6483374344127123E9, 0.0, 2022-03-26 18:30:34.412
25.0, 501.35415850998834, 60.45174288377166, 829.6855854699388, 378.9060940607451, 0.01600000075995922, 0.43200002051889896, 0.944000044837594, 0.0, 0.0, 0.0, 0.0, 0.0, 1.6483374344127123E9, 0.0, 2022-03-26 18:30:34.412
26.0, 520.9287948780693, 65.10791832860559, 833.6162203233689, 405.6912575433962, 0.01600000075995922, 0.43200002051889896, 0.944000044837594, 0.0, 0.0, 0.0, 0.0, 0.0, 1.6483374344264328E9, 0.0, 2022-03-26 18:30:34.426
26.0, 507.147263541352, 56.143378134816885, 814.318336552009, 382.7095723156817, 0.01600000075995922, 0.43200002051889896, 0.944000044837594, 0.0, 0.0, 0.0, 0.0, 0.0, 1.6483374344264328E9, 0.0, 2022-03-26 18:30:34.426
27.0, 504.6602300708182, 52.137945282272995, 818.1592138065025, 392.96063809422776, 0.01600000075995922, 0.43200002051889896, 0.944000044837594, 0.0, 0.0, 0.0, 0.0, 0.0, 1.6483374344419484E9, 0.0, 2022-03-26 18:30:34.441
27.0, 496.97473566187546, 42.32818769849837, 807.9455470275134, 381.7558978269808, 0.01600000075995922, 0.43200002051889896, 0.944000044837594, 0.0, 0.0, 0.0, 0.0, 0.0, 1.6483374344419484E9, 0.0, 2022-03-26 18:30:34.441
28.0, 506.4441623496823, 38.58454784285277, 808.4990522209555, 379.7251321510412, 0.01600000075995922, 0.43200002051889896, 0.944000044837594, 0.0, 0.0, 0.0, 0.0, 0.0, 1.6483374344426737E9, 0.0, 2022-03-26 18:30:34.442
28.0, 502.1170981009491, 41.88313960377127, 811.7303257826716, 388.21470505045727, 0.01600000075995922, 0.43200002051889896, 0.944000044837594, 0.0, 0.0, 0.0, 0.0, 0.0, 1.6483374344426737E9, 0.0, 2022-03-26 18:30:34.442
29.0, 507.7830465338193, 42.036475501954556, 807.3322034347802, 391.71151150902733, 0.01600000075995922, 0.43200002051889896, 0.944000044837594, 0.0, 0.0, 0.0, 0.0, 0.0, 1.6483374344563608E9, 0.0, 2022-03-26 18:30:34.456
29.0, 496.8887179628946, 33.2738899057731, 799.6055701263249, 372.8960748319514, 0.01600000075995922, 0.43200002051889896, 0.944000044837594, 0.0, 0.0, 0.0, 0.0, 0.0, 1.6483374344563608E9, 0.0, 2022-03-26 18:30:34.456
30.0, 495.1010457840748, 27.914613269269466, 801.5241388035938, 354.9744742442854, 0.01600000075995922, 0.43200002051889896, 0.944000044837594, 0.0, 0.0, 0.0, 0.0, 0.0, 1.648337434471976E9, 0.0, 2022-03-26 18:30:34.471
30.0, 489.52859485009685, 33.8685339987278, 797.2120341546834, 381.84565542591736, 0.01600000075995922, 0.43200002051889896, 0.944000044837594, 0.0, 0.0, 0.0, 0.0, 0.0, 1.648337434471976E9, 0.0, 2022-03-26 18:30:34.471
31.0, 493.5489873024635, 28.845848358236253, 800.2637925185263, 377.0062248832546, 0.01600000075995922, 0.43200002051889896, 0.944000044837594, 0.0, 0.0, 0.0, 0.0, 0.0, 1.648337434472672E9, 0.0, 2022-03-26 18:30:34.472
31.0, 497.6965363533236, 21.807356641627848, 798.6070168381557, 369.6348820705898, 0.01600000075995922, 0.43200002051889896, 0.944000044837594, 0.0, 0.0, 0.0, 0.0, 0.0, 1.648337434472672E9, 0.0, 2022-03-26 18:30:34.472
32.0, 497.4048241567798, 38.58080794289708, 805.9521803511307, 368.535351483617, 0.03200000151991844, 0.43200002051889896, 0.944000044837594, 0.0, 0.0, 0.0, 0.0, 0.0, 1.648337434486296E9, 0.0, 2022-03-26 18:30:34.486
32.0, 482.8042547297664, 30.356767940334976, 794.743700183928, 375.3756285025738, 0.03200000151991844, 0.43200002051889896, 0.944000044837594, 0.0, 0.0, 0.0, 0.0, 0.0, 1.648337434486296E9, 0.0, 2022-03-26 18:30:34.486
33.0, 491.215289730113, 29.885540545918047, 797.5673246504739, 370.4913191604428, 0.03200000151991844, 0.43200002051889896, 0.944000044837594, 0.0, 0.0, 0.0, 0.0, 0.0, 1.648337434501979E9, 0.0, 2022-03-26 18:30:34.501
33.0, 496.3239930695854, 35.29343588184565, 804.2991445707157, 375.6374214994721, 0.03200000151991844, 0.43200002051889896, 0.944000044837594, 0.0, 0.0, 0.0, 0.0, 0.0, 1.648337434501979E9, 0.0, 2022-03-26 18:30:34.501
34.0, 498.08174604875967, 27.581762173213065, 797.5748044503853, 381.2435315330513, 0.03200000151991844, 0.43200002051889896, 0.944000044837594, 0.0, 0.0, 0.0, 0.0, 0.0, 1.648337434502711E9, 0.0, 2022-03-26 18:30:34.502
34.0, 496.3202531696297, 26.351335087791085, 796.6435693614185, 376.3891413905658, 0.03200000151991844, 0.43200002051889896, 0.944000044837594, 0.0, 0.0, 0.0, 0.0, 0.0, 1.648337434502711E9, 0.0, 2022-03-26 18:30:34.502
35.0, 493.4741893033497, 28.53543666191399, 798.9959664335474, 378.4872252657078, 0.03200000151991844, 0.43200002051889896, 0.944000044837594, 0.0, 0.0, 0.0, 0.0, 0.0, 1.6483374345164993E9, 0.0, 2022-03-26 18:30:34.516
35.0, 496.1145586720668, 36.49020386766642, 797.5598448505625, 357.8541972101666, 0.03200000151991844, 0.43200002051889896, 0.944000044837594, 0.0, 0.0, 0.0, 0.0, 0.0, 1.6483374345164993E9, 0.0, 2022-03-26 18:30:34.516
36.0, 499.93673642678186, 36.67345896549523, 800.1889945194125, 379.1155284582637, 0.03200000151991844, 0.43200002051889896, 0.944000044837594, 0.0, 0.0, 0.0, 0.0, 0.0, 1.648337434531934E9, 0.0, 2022-03-26 18:30:34.531
36.0, 505.2586140637286, 39.32130813412368, 808.3270168229938, 386.7112652682699, 0.03200000151991844, 0.43200002051889896, 0.944000044837594, 0.0, 0.0, 0.0, 0.0, 0.0, 1.648337434531934E9, 0.0, 2022-03-26 18:30:34.531
37.0, 493.2123963064514, 17.7495651897043, 788.8009991543368, 373.9320271196775, 0.03200000151991844, 0.43200002051889896, 0.944000044837594, 0.0, 0.0, 0.0, 0.0, 0.0, 1.6483374345327067E9, 0.0, 2022-03-26 18:30:34.532
37.0, 496.87375836307183, 28.299822964705527, 795.4019225761294, 376.96134608378634, 0.03200000151991844, 0.43200002051889896, 0.944000044837594, 0.0, 0.0, 0.0, 0.0, 0.0, 1.6483374345327067E9, 0.0, 2022-03-26 18:30:34.532
38.0, 491.09187303157523, 28.51673716213554, 799.2727190302685, 376.7145126867108, 0.03200000151991844, 0.43200002051889896, 0.944000044837594, 0.0, 0.0, 0.0, 0.0, 0.0, 1.6483374345463216E9, 0.0, 2022-03-26 18:30:34.546
38.0, 494.1436313954182, 28.729911459609866, 791.3104720246047, 366.6766212056391, 0.03200000151991844, 0.43200002051889896, 0.944000044837594, 0.0, 0.0, 0.0, 0.0, 0.0, 1.6483374345463216E9, 0.0, 2022-03-26 18:30:34.546
39.0, 499.98161522625014, 24.1597537137568, 790.3754970356822, 376.18344689300284, 0.03200000151991844, 0.43200002051889896, 0.944000044837594, 0.0, 0.0, 0.0, 0.0, 0.0, 1.6483374345619612E9, 0.0, 2022-03-26 18:30:34.561
39.0, 498.05556674906984, 19.032350874505937, 788.6663627559319, 379.7139124511741, 0.03200000151991844, 0.43200002051889896, 0.944000044837594, 0.0, 0.0, 0.0, 0.0, 0.0, 1.6483374345619612E9, 0.0, 2022-03-26 18:30:34.561
40.0, 499.4692489323206, 21.3810080466792, 796.4378748638555, 373.40470122592524, 0.03200000151991844, 0.43200002051889896, 0.944000044837594, 0.0, 0.0, 0.0, 0.0, 0.0, 1.648337434562705E9, 0.0, 2022-03-26 18:30:34.562
40.0, 501.2905802107416, 23.067702926695347, 791.7517802193761, 371.0784834534861, 0.03200000151991844, 0.43200002051889896, 0.944000044837594, 0.0, 0.0, 0.0, 0.0, 0.0, 1.648337434562705E9, 0.0, 2022-03-26 18:30:34.562
41.0, 498.8035467402078, 25.277983800508082, 794.3136116890237, 372.3537893383764, 0.03200000151991844, 0.4480000212788582, 0.944000044837594, 0.0, 0.0, 0.0, 0.0, 0.0, 1.648337434576302E9, 0.0, 2022-03-26 18:30:34.576
41.0, 505.2286948640831, 33.81991529930383, 790.9364820290357, 382.4552591186948, 0.03200000151991844, 0.4480000212788582, 0.944000044837594, 0.0, 0.0, 0.0, 0.0, 0.0, 1.648337434576302E9, 0.0, 2022-03-26 18:30:34.576
42.0, 497.9919884498231, 19.159507472999394, 790.2969591366127, 389.51993013499305, 0.03200000151991844, 0.4480000212788582, 0.944000044837594, 0.0, 0.0, 0.0, 0.0, 0.0, 1.6483374345919664E9, 0.0, 2022-03-26 18:30:34.591
42.0, 498.4071173449047, 25.094728702679276, 783.8007529135793, 380.33099594386294, 0.03200000151991844, 0.4480000212788582, 0.944000044837594, 0.0, 0.0, 0.0, 0.0, 0.0, 1.6483374345919664E9, 0.0, 2022-03-26 18:30:34.591
43.0, 497.0682331607677, 19.223085772246122, 785.4837078936398, 373.66649422282353, 0.03200000151991844, 0.4480000212788582, 0.944000044837594, 0.0, 0.0, 0.0, 0.0, 0.0, 1.6483374345926733E9, 0.0, 2022-03-26 18:30:34.592
43.0, 489.0723270555027, 19.76163136586547, 788.9618148524314, 380.43571314262226, 0.03200000151991844, 0.4480000212788582, 0.944000044837594, 0.0, 0.0, 0.0, 0.0, 0.0, 1.6483374345926733E9, 0.0, 2022-03-26 18:30:34.592
44.0, 500.06015312531963, 26.366294687613845, 787.1105643743649, 384.0821155994199, 0.03200000151991844, 0.4480000212788582, 0.944000044837594, 0.0, 0.0, 0.0, 0.0, 0.0, 1.6483374346062307E9, 0.0, 2022-03-26 18:30:34.606
44.0, 489.0386679559015, 29.567649049684405, 780.8798910481855, 370.8914884557016, 0.03200000151991844, 0.4480000212788582, 0.944000044837594, 0.0, 0.0, 0.0, 0.0, 0.0, 1.6483374346062307E9, 0.0, 2022-03-26 18:30:34.606
45.0, 489.1807841542177, 12.44264715258032, 782.3496717307717, 362.8843626505695, 0.03200000151991844, 0.4480000212788582, 0.944000044837594, 0.0, 0.0, 0.0, 0.0, 0.0, 1.6483374346220257E9, 0.0, 2022-03-26 18:30:34.622
45.0, 496.56334666674957, 11.27205846644938, 787.6004912685603, 374.8670021086, 0.03200000151991844, 0.4480000212788582, 0.944000044837594, 0.0, 0.0, 0.0, 0.0, 0.0, 1.6483374346220257E9, 0.0, 2022-03-26 18:30:34.622
46.0, 491.2938276291825, 23.883001117035747, 794.8558971825987, 371.3028774508275, 0.03200000151991844, 0.4480000212788582, 0.944000044837594, 0.0, 0.0, 0.0, 0.0, 0.0, 1.6483374346228032E9, 0.0, 2022-03-26 18:30:34.622
46.0, 492.8010073113255, 19.79155056551099, 778.9725420707837, 370.3155438625254, 0.03200000151991844, 0.4480000212788582, 0.944000044837594, 0.0, 0.0, 0.0, 0.0, 0.0, 1.6483374346228032E9, 0.0, 2022-03-26 18:30:34.622
47.0, 504.75746746966615, 25.046110003255308, 791.7069014199078, 371.7404457456432, 0.03200000151991844, 0.4480000212788582, 0.944000044837594, 0.0, 0.0, 0.0, 0.0, 0.0, 1.6483374346363282E9, 0.0, 2022-03-26 18:30:34.636
47.0, 490.2204763418995, 18.658360878936946, 786.2541272845119, 386.5354899703525, 0.03200000151991844, 0.4480000212788582, 0.944000044837594, 0.0, 0.0, 0.0, 0.0, 0.0, 1.6483374346363282E9, 0.0, 2022-03-26 18:30:34.636
48.0, 501.7356283054687, 24.223332013003528, 786.8599910773337, 380.0243241474964, 0.03200000151991844, 0.4480000212788582, 0.944000044837594, 0.0, 0.0, 0.0, 0.0, 0.0, 1.648337434652017E9, 0.0, 2022-03-26 18:30:34.652
48.0, 495.71064947685227, 24.477645209990442, 788.7000218555331, 374.1639009169303, 0.03200000151991844, 0.4480000212788582, 0.944000044837594, 0.0, 0.0, 0.0, 0.0, 0.0, 1.648337434652017E9, 0.0, 2022-03-26 18:30:34.652
49.0, 499.97413542633876, 27.30500957649201, 785.3303719954565, 378.95097286021337, 0.03200000151991844, 0.4480000212788582, 0.944000044837594, 0.0, 0.0, 0.0, 0.0, 0.0, 1.64833743465278E9, 0.0, 2022-03-26 18:30:34.652
49.0, 499.56648633116856, 35.603847578167915, 796.7520264601335, 383.88764080172405, 0.03200000151991844, 0.4480000212788582, 0.944000044837594, 0.0, 0.0, 0.0, 0.0, 0.0, 1.64833743465278E9, 0.0, 2022-03-26 18:30:34.652
50.0, 481.78700194181874, 29.02536355610937, 793.984500492923, 366.32133070984855, 0.03200000151991844, 0.4480000212788582, 0.944000044837594, 0.0, 0.0, 0.0, 0.0, 0.0, 1.648337434666246E9, 0.0, 2022-03-26 18:30:34.666
50.0, 503.90477027976885, 35.158799483440816, 787.1741426736116, 380.8022233382799, 0.03200000151991844, 0.4480000212788582, 0.944000044837594, 0.0, 0.0, 0.0, 0.0, 0.0, 1.648337434666246E9, 0.0, 2022-03-26 18:30:34.666
51.0, 496.57082646666095, 27.00955747999251, 791.0748583273962, 382.50761771807447, 0.03200000151991844, 0.43200002051889896, 0.944000044837594, 0.0, 0.0, 0.0, 0.0, 0.0, 1.6483374346820023E9, 0.0, 2022-03-26 18:30:34.682
51.0, 510.9657013961114, 32.72412461228669, 797.2456932542846, 380.450672742445, 0.03200000151991844, 0.43200002051889896, 0.944000044837594, 0.0, 0.0, 0.0, 0.0, 0.0, 1.6483374346820023E9, 0.0, 2022-03-26 18:30:34.682
52.0, 508.75542052229866, 36.11621387209743, 799.1567821316421, 386.96183856530115, 0.01600000075995922, 0.43200002051889896, 0.944000044837594, 0.0, 0.0, 0.0, 0.0, 0.0, 1.6483374346827912E9, 0.0, 2022-03-26 18:30:34.682
52.0, 512.1437698821537, 31.04116963222623, 791.9836540166289, 376.8229697854258, 0.01600000075995922, 0.43200002051889896, 0.944000044837594, 0.0, 0.0, 0.0, 0.0, 0.0, 1.6483374346827912E9, 0.0, 2022-03-26 18:30:34.682
53.0, 503.20166908809915, 30.364247740246356, 790.8280249303207, 363.32567084534094, 0.01600000075995922, 0.43200002051889896, 0.944000044837594, 0.0, 0.0, 0.0, 0.0, 0.0, 1.6483374346962247E9, 0.0, 2022-03-26 18:30:34.696
53.0, 493.82573989918455, 26.54580988548696, 790.3493177359924, 375.8169366973452, 0.01600000075995922, 0.43200002051889896, 0.944000044837594, 0.0, 0.0, 0.0, 0.0, 0.0, 1.6483374346962247E9, 0.0, 2022-03-26 18:30:34.696
54.0, 506.7770134457387, 31.160846430808306, 802.088863696903, 383.32665580837056, 0.01600000075995922, 0.43200002051889896, 0.944000044837594, 0.0, 0.0, 0.0, 0.0, 0.0, 1.6483374347119842E9, 0.0, 2022-03-26 18:30:34.711
54.0, 498.42581684468314, 35.181238883174956, 805.3163973586634, 379.40724065480754, 0.01600000075995922, 0.43200002051889896, 0.944000044837594, 0.0, 0.0, 0.0, 0.0, 0.0, 1.6483374347119842E9, 0.0, 2022-03-26 18:30:34.711
55.0, 493.64248480135575, 31.295482829213142, 799.2727190302685, 375.8954745964147, 0.01600000075995922, 0.43200002051889896, 0.944000044837594, 0.0, 0.0, 0.0, 0.0, 0.0, 1.6483374347128067E9, 0.0, 2022-03-26 18:30:34.712
55.0, 501.0063478141092, 30.5699422378093, 790.6485097324476, 377.98981857160106, 0.01600000075995922, 0.43200002051889896, 0.944000044837594, 0.0, 0.0, 0.0, 0.0, 0.0, 1.6483374347128067E9, 0.0, 2022-03-26 18:30:34.712
56.0, 502.0273405020125, 21.75499804224819, 783.2996063195169, 360.3449705806561, 0.01600000075995922, 0.43200002051889896, 0.944000044837594, 0.0, 0.0, 0.0, 0.0, 0.0, 1.6483374347262444E9, 0.0, 2022-03-26 18:30:34.726
56.0, 499.9516960266046, 15.999292010441422, 787.1292638741434, 373.3523426265456, 0.01600000075995922, 0.43200002051889896, 0.944000044837594, 0.0, 0.0, 0.0, 0.0, 0.0, 1.6483374347262444E9, 0.0, 2022-03-26 18:30:34.726
57.0, 509.05461251875386, 44.55716807208955, 798.3153046416119, 375.7570982980542, 0.01600000075995922, 0.43200002051889896, 0.944000044837594, 0.0, 0.0, 0.0, 0.0, 0.0, 1.6483374347419832E9, 0.0, 2022-03-26 18:30:34.741
57.0, 502.8463785923086, 37.55981525499374, 795.3458240767941, 383.06486281147227, 0.01600000075995922, 0.43200002051889896, 0.944000044837594, 0.0, 0.0, 0.0, 0.0, 0.0, 1.6483374347419832E9, 0.0, 2022-03-26 18:30:34.741
58.0, 505.9691950553097, 35.71230467688292, 797.3466705530882, 379.6877331514843, 0.01600000075995922, 0.43200002051889896, 0.944000044837594, 0.0, 0.0, 0.0, 0.0, 0.0, 1.6483374347427504E9, 0.0, 2022-03-26 18:30:34.742
58.0, 496.6605840655975, 32.18183911871165, 791.2768129250035, 373.6814538226463, 0.01600000075995922, 0.43200002051889896, 0.944000044837594, 0.0, 0.0, 0.0, 0.0, 0.0, 1.6483374347427504E9, 0.0, 2022-03-26 18:30:34.742
59.0, 503.6990757822059, 43.210804088041186, 797.5074862511829, 376.6696338872425, 0.01600000075995922, 0.43200002051889896, 0.944000044837594, 0.0, 0.0, 0.0, 0.0, 0.0, 1.648337434756364E9, 0.0, 2022-03-26 18:30:34.756
59.0, 496.582046166528, 27.996891068294644, 792.5446390099823, 373.62161542335525, 0.01600000075995922, 0.43200002051889896, 0.944000044837594, 0.0, 0.0, 0.0, 0.0, 0.0, 1.648337434756364E9, 0.0, 2022-03-26 18:30:34.756
60.0, 501.52993380790576, 28.883247357793152, 802.2870783945546, 373.4944588248618, 0.01600000075995922, 0.43200002051889896, 0.944000044837594, 0.0, 0.0, 0.0, 0.0, 0.0, 1.6483374347720096E9, 0.0, 2022-03-26 18:30:34.772
60.0, 493.6200454016216, 24.95261250436306, 806.3149506468326, 380.3384757437743, 0.01600000075995922, 0.43200002051889896, 0.944000044837594, 0.0, 0.0, 0.0, 0.0, 0.0, 1.6483374347720096E9, 0.0, 2022-03-26 18:30:34.772
61.0, 492.0754667199217, 27.495744474232197, 795.4767205752432, 371.03360465401784, 0.01600000075995922, 0.43200002051889896, 0.944000044837594, 0.0, 0.0, 0.0, 0.0, 0.0, 1.6483374347727475E9, 0.0, 2022-03-26 18:30:34.772
61.0, 506.76205384591594, 29.126340854912996, 793.5656316978857, 360.98823337303475, 0.01600000075995922, 0.43200002051889896, 0.944000044837594, 0.0, 0.0, 0.0, 0.0, 0.0, 1.6483374347727475E9, 0.0, 2022-03-26 18:30:34.772
62.0, 506.54139974853024, 26.747764483094215, 800.9369745105505, 375.7870174976997, 0.03200000151991844, 0.43200002051889896, 0.944000044837594, 0.0, 0.0, 0.0, 0.0, 0.0, 1.6483374347862742E9, 0.0, 2022-03-26 18:30:34.786
62.0, 495.882684874814, 23.27713732421398, 797.0287790568545, 380.4618924423121, 0.03200000151991844, 0.43200002051889896, 0.944000044837594, 0.0, 0.0, 0.0, 0.0, 0.0, 1.6483374347862742E9, 0.0, 2022-03-26 18:30:34.786
63.0, 504.72754827002063, 35.94043857418001, 801.2586059067398, 367.0730506009422, 0.03200000151991844, 0.43200002051889896, 0.944000044837594, 0.0, 0.0, 0.0, 0.0, 0.0, 1.6483374348019729E9, 0.0, 2022-03-26 18:30:34.801
63.0, 503.8486717804335, 40.488156920298934, 801.5390984034166, 375.0539971063845, 0.03200000151991844, 0.43200002051889896, 0.944000044837594, 0.0, 0.0, 0.0, 0.0, 0.0, 1.6483374348019729E9, 0.0, 2022-03-26 18:30:34.801
64.0, 501.90392380347475, 32.424932615831494, 794.0106797926128, 377.8963210727088, 0.03200000151991844, 0.43200002051889896, 0.944000044837594, 0.0, 0.0, 0.0, 0.0, 0.0, 1.6483374348027542E9, 0.0, 2022-03-26 18:30:34.802
64.0, 505.46430856129155, 28.96552515681833, 801.9504873985425, 380.5404303413816, 0.03200000151991844, 0.43200002051889896, 0.944000044837594, 0.0, 0.0, 0.0, 0.0, 0.0, 1.6483374348027542E9, 0.0, 2022-03-26 18:30:34.802
65.0, 496.9261169624515, 36.045155772939324, 806.2102334480733, 367.29370469832793, 0.03200000151991844, 0.43200002051889896, 0.944000044837594, 0.0, 0.0, 0.0, 0.0, 0.0, 1.6483374348163347E9, 0.0, 2022-03-26 18:30:34.816
65.0, 502.01612080214545, 38.16941894777119, 800.1777748195454, 375.0016385070048, 0.03200000151991844, 0.43200002051889896, 0.944000044837594, 0.0, 0.0, 0.0, 0.0, 0.0, 1.6483374348163347E9, 0.0, 2022-03-26 18:30:34.816
66.0, 496.8774982630275, 37.53363595530391, 799.7028075251728, 380.18513984559104, 0.03200000151991844, 0.43200002051889896, 0.944000044837594, 0.0, 0.0, 0.0, 0.0, 0.0, 1.6483374348320305E9, 0.0, 2022-03-26 18:30:34.832
66.0, 494.809333587531, 27.686479371972382, 791.8714570179582, 375.14001480536535, 0.03200000151991844, 0.43200002051889896, 0.944000044837594, 0.0, 0.0, 0.0, 0.0, 0.0, 1.6483374348320305E9, 0.0, 2022-03-26 18:30:34.832
67.0, 508.91623622039333, 29.80700264684856, 799.2577594304457, 367.20768699934706, 0.03200000151991844, 0.43200002051889896, 0.944000044837594, 0.0, 0.0, 0.0, 0.0, 0.0, 1.6483374348328185E9, 0.0, 2022-03-26 18:30:34.832
67.0, 502.45368909696117, 36.13117347192019, 799.4634539280087, 369.28333147475496, 0.03200000151991844, 0.43200002051889896, 0.944000044837594, 0.0, 0.0, 0.0, 0.0, 0.0, 1.6483374348328185E9, 0.0, 2022-03-26 18:30:34.832
68.0, 508.20939512876794, 37.96372445020825, 801.6475555021316, 384.8226157906465, 0.03200000151991844, 0.43200002051889896, 0.944000044837594, 0.0, 0.0, 0.0, 0.0, 0.0, 1.6483374348627143E9, 0.0, 2022-03-26 18:30:34.862
68.0, 509.83251170953736, 46.22890335228294, 808.0988829256967, 393.319668489974, 0.03200000151991844, 0.43200002051889896, 0.944000044837594, 0.0, 0.0, 0.0, 0.0, 0.0, 1.6483374348627143E9, 0.0, 2022-03-26 18:30:34.862
69.0, 511.2200145930983, 30.55124273803085, 800.8397371117026, 378.894874360878, 0.03200000151991844, 0.43200002051889896, 0.944000044837594, 0.0, 0.0, 0.0, 0.0, 0.0, 1.6483374348633718E9, 0.0, 2022-03-26 18:30:34.863
69.0, 506.7508341460489, 45.46222386136651, 802.2721187947318, 376.3367827911861, 0.03200000151991844, 0.43200002051889896, 0.944000044837594, 0.0, 0.0, 0.0, 0.0, 0.0, 1.6483374348633718E9, 0.0, 2022-03-26 18:30:34.863
70.0, 501.514974208083, 37.92632545065135, 803.3641695817932, 388.74203094420955, 0.03200000151991844, 0.43200002051889896, 0.944000044837594, 0.0, 0.0, 0.0, 0.0, 0.0, 1.648337434864138E9, 0.0, 2022-03-26 18:30:34.864
70.0, 507.5175136369653, 28.374620963819325, 804.9461472630501, 388.19226565072313, 0.03200000151991844, 0.43200002051889896, 0.944000044837594, 0.0, 0.0, 0.0, 0.0, 0.0, 1.648337434864138E9, 0.0, 2022-03-26 18:30:34.864
71.0, 504.27502037538216, 36.98387066181749, 812.4109875746071, 377.87762157293037, 0.03200000151991844, 0.43200002051889896, 0.944000044837594, 0.0, 0.0, 0.0, 0.0, 0.0, 1.6483374348762507E9, 0.0, 2022-03-26 18:30:34.876
71.0, 494.08379299612716, 39.94961132667959, 811.2516185883433, 361.8259709631093, 0.03200000151991844, 0.43200002051889896, 0.944000044837594, 0.0, 0.0, 0.0, 0.0, 0.0, 1.6483374348762507E9, 0.0, 2022-03-26 18:30:34.876
72.0, 505.1426771651022, 38.464871044270694, 803.7007605778053, 385.58555538160726, 0.01600000075995922, 0.43200002051889896, 0.944000044837594, 0.0, 0.0, 0.0, 0.0, 0.0, 1.6483374348919768E9, 0.0, 2022-03-26 18:30:34.891
72.0, 510.7824462982826, 34.70253168884665, 801.8869090992957, 399.22123062005267, 0.01600000075995922, 0.43200002051889896, 0.944000044837594, 0.0, 0.0, 0.0, 0.0, 0.0, 1.6483374348919768E9, 0.0, 2022-03-26 18:30:34.891
73.0, 500.5799992191605, 26.736544783227146, 796.1461626673117, 392.1266404041089, 0.01600000075995922, 0.43200002051889896, 0.944000044837594, 0.0, 0.0, 0.0, 0.0, 0.0, 1.6483374348927195E9, 0.0, 2022-03-26 18:30:34.892
73.0, 501.82538590440527, 25.77539049461484, 800.1366359200329, 389.7293645325117, 0.01600000075995922, 0.43200002051889896, 0.944000044837594, 0.0, 0.0, 0.0, 0.0, 0.0, 1.6483374348927195E9, 0.0, 2022-03-26 18:30:34.892
74.0, 511.5266863894649, 32.3127356171608, 789.6686559440568, 381.14629413420334, 0.01600000075995922, 0.43200002051889896, 0.944000044837594, 0.0, 0.0, 0.0, 0.0, 0.0, 1.648337434922666E9, 0.0, 2022-03-26 18:30:34.922
74.0, 497.8573520514183, 26.882400881499052, 787.4770745700225, 368.1950205876492, 0.01600000075995922, 0.43200002051889896, 0.944000044837594, 0.0, 0.0, 0.0, 0.0, 0.0, 1.648337434922666E9, 0.0, 2022-03-26 18:30:34.922
75.0, 495.34413928119466, 29.3095959527418, 777.3120264904574, 376.3068635915406, 0.01600000075995922, 0.43200002051889896, 0.944000044837594, 0.0, 0.0, 0.0, 0.0, 0.0, 1.6483374349233537E9, 0.0, 2022-03-26 18:30:34.923
75.0, 494.652257789392, 25.82400919403881, 772.8503258433193, 372.1518347407691, 0.01600000075995922, 0.43200002051889896, 0.944000044837594, 0.0, 0.0, 0.0, 0.0, 0.0, 1.6483374349233537E9, 0.0, 2022-03-26 18:30:34.923
76.0, 504.31615927489474, 31.187025730498135, 772.0125882532448, 373.22144612809643, 0.01600000075995922, 0.43200002051889896, 0.944000044837594, 0.0, 0.0, 0.0, 0.0, 0.0, 1.6483374349242105E9, 0.0, 2022-03-26 18:30:34.924
76.0, 486.2898414884694, 34.13406689558178, 760.4001988908276, 345.86033805226907, 0.01600000075995922, 0.43200002051889896, 0.944000044837594, 0.0, 0.0, 0.0, 0.0, 0.0, 1.6483374349242105E9, 0.0, 2022-03-26 18:30:34.924
77.0, 506.7844932456501, 43.56235468387604, 751.9629845907912, 365.66310831764713, 0.01600000075995922, 0.43200002051889896, 0.944000044837594, 0.0, 0.0, 0.0, 0.0, 0.0, 1.6483374349364395E9, 0.0, 2022-03-26 18:30:34.936
77.0, 506.84059174498543, 49.4676567139104, 748.2978826342151, 348.8559979167767, 0.01600000075995922, 0.43200002051889896, 0.944000044837594, 0.0, 0.0, 0.0, 0.0, 0.0, 1.6483374349364395E9, 0.0, 2022-03-26 18:30:34.936
78.0, 507.6633697352372, 50.062300806865096, 752.2322573876008, 348.7475408180617, 0.01600000075995922, 0.43200002051889896, 0.944000044837594, 0.0, 0.0, 0.0, 0.0, 0.0, 1.648337434952057E9, 0.0, 2022-03-26 18:30:34.952
78.0, 504.98560136696324, 37.80664865206927, 747.2768899463117, 356.57889132527635, 0.01600000075995922, 0.43200002051889896, 0.944000044837594, 0.0, 0.0, 0.0, 0.0, 0.0, 1.648337434952057E9, 0.0, 2022-03-26 18:30:34.952
79.0, 507.1884024408646, 39.80375522840768, 746.5812685545534, 364.8178909276612, 0.01600000075995922, 0.43200002051889896, 0.944000044837594, 0.0, 0.0, 0.0, 0.0, 0.0, 1.6483374349527905E9, 0.0, 2022-03-26 18:30:34.952
79.0, 506.98644784325734, 41.669965306296945, 751.1402066005394, 362.9666404495947, 0.01600000075995922, 0.43200002051889896, 0.944000044837594, 0.0, 0.0, 0.0, 0.0, 0.0, 1.6483374349527905E9, 0.0, 2022-03-26 18:30:34.952
80.0, 508.2916729277931, 38.17689874768257, 748.5372362313792, 359.0771444956772, 0.01600000075995922, 0.43200002051889896, 0.944000044837594, 0.0, 0.0, 0.0, 0.0, 0.0, 1.6483374349827085E9, 0.0, 2022-03-26 18:30:34.982
80.0, 507.3417383390479, 48.128772529773414, 756.933311631903, 362.0503649604507, 0.01600000075995922, 0.43200002051889896, 0.944000044837594, 0.0, 0.0, 0.0, 0.0, 0.0, 1.6483374349827085E9, 0.0, 2022-03-26 18:30:34.982
81.0, 510.31495880382136, 43.8353673806414, 760.1683250935748, 360.6740817767568, 0.01600000075995922, 0.43200002051889896, 0.944000044837594, 0.0, 0.0, 0.0, 0.0, 0.0, 1.6483374349834044E9, 0.0, 2022-03-26 18:30:34.983
81.0, 502.9884947906248, 36.811835263855755, 758.3170746155083, 359.7802456873469, 0.01600000075995922, 0.43200002051889896, 0.944000044837594, 0.0, 0.0, 0.0, 0.0, 0.0, 1.6483374349834044E9, 0.0, 2022-03-26 18:30:34.983
82.0, 485.63535899622366, 36.28076947014779, 752.5239695841447, 358.9200686975382, 0.03200000151991844, 0.43200002051889896, 0.944000044837594, 0.0, 0.0, 0.0, 0.0, 0.0, 1.6483374349841776E9, 0.0, 2022-03-26 18:30:34.984
82.0, 511.31351209199056, 59.26245469786227, 769.308640585281, 375.409287602175, 0.03200000151991844, 0.43200002051889896, 0.944000044837594, 0.0, 0.0, 0.0, 0.0, 0.0, 1.6483374349841776E9, 0.0, 2022-03-26 18:30:34.984
83.0, 491.3200069288723, 43.39779908582568, 759.2557895043865, 355.90570933325216, 0.03200000151991844, 0.43200002051889896, 0.944000044837594, 0.0, 0.0, 0.0, 0.0, 0.0, 1.6483374349963791E9, 0.0, 2022-03-26 18:30:34.996
83.0, 507.83166523324326, 40.26750282291323, 760.9050853848457, 350.7783064940013, 0.03200000151991844, 0.43200002051889896, 0.944000044837594, 0.0, 0.0, 0.0, 0.0, 0.0, 1.6483374349963791E9, 0.0, 2022-03-26 18:30:34.996
84.0, 512.248487080913, 60.42556358408183, 764.4579903427511, 376.88654808467254, 0.03200000151991844, 0.43200002051889896, 0.944000044837594, 0.0, 0.0, 0.0, 0.0, 0.0, 1.648337435012E9, 0.0, 2022-03-26 18:30:35.012
84.0, 507.27816003980115, 42.63111959490925, 763.638952252455, 378.0122579713352, 0.03200000151991844, 0.43200002051889896, 0.944000044837594, 0.0, 0.0, 0.0, 0.0, 0.0, 1.648337435012E9, 0.0, 2022-03-26 18:30:35.012
85.0, 508.54224622482434, 37.95998455025256, 759.1136733060703, 351.5562056847848, 0.03200000151991844, 0.43200002051889896, 0.944000044837594, 0.0, 0.0, 0.0, 0.0, 0.0, 1.648337435012796E9, 0.0, 2022-03-26 18:30:35.012
85.0, 512.0614920831285, 49.89026540890336, 768.7401757920161, 373.91332761989906, 0.03200000151991844, 0.43200002051889896, 0.944000044837594, 0.0, 0.0, 0.0, 0.0, 0.0, 1.648337435012796E9, 0.0, 2022-03-26 18:30:35.012
86.0, 509.8998299087398, 46.59541354794055, 771.4291638601571, 375.22229260439053, 0.03200000151991844, 0.43200002051889896, 0.944000044837594, 0.0, 0.0, 0.0, 0.0, 0.0, 1.648337435026524E9, 0.0, 2022-03-26 18:30:35.026
86.0, 500.5912189190276, 45.80629465728998, 765.4976825304329, 365.9697801140137, 0.03200000151991844, 0.43200002051889896, 0.944000044837594, 0.0, 0.0, 0.0, 0.0, 0.0, 1.648337435026524E9, 0.0, 2022-03-26 18:30:35.026
87.0, 507.12482414161786, 42.22721039969474, 766.6570515166968, 374.9380602077581, 0.03200000151991844, 0.43200002051889896, 0.944000044837594, 0.0, 0.0, 0.0, 0.0, 0.0, 1.6483374350420318E9, 0.0, 2022-03-26 18:30:35.042
87.0, 506.01407385477796, 39.90099262725562, 758.3021150156856, 365.6780679174699, 0.03200000151991844, 0.43200002051889896, 0.944000044837594, 0.0, 0.0, 0.0, 0.0, 0.0, 1.6483374350420318E9, 0.0, 2022-03-26 18:30:35.042
88.0, 500.23592842323706, 35.52156977914274, 758.1001604180783, 346.7803534413688, 0.03200000151991844, 0.43200002051889896, 0.944000044837594, 0.0, 0.0, 0.0, 0.0, 0.0, 1.648337435042786E9, 0.0, 2022-03-26 18:30:35.042
88.0, 499.01298113772646, 41.01174291409552, 766.1334655229002, 369.66480127023533, 0.03200000151991844, 0.43200002051889896, 0.944000044837594, 0.0, 0.0, 0.0, 0.0, 0.0, 1.648337435042786E9, 0.0, 2022-03-26 18:30:35.042
89.0, 510.0830850065686, 39.92343202698976, 766.0137887243181, 355.4831006382592, 0.03200000151991844, 0.43200002051889896, 0.944000044837594, 0.0, 0.0, 0.0, 0.0, 0.0, 1.6483374350563471E9, 0.0, 2022-03-26 18:30:35.056
89.0, 502.7828002930619, 43.38657938595861, 765.9876094246283, 362.99281974928454, 0.03200000151991844, 0.43200002051889896, 0.944000044837594, 0.0, 0.0, 0.0, 0.0, 0.0, 1.6483374350563471E9, 0.0, 2022-03-26 18:30:35.056
90.0, 499.94047632673755, 45.623039559461176, 775.7375286091119, 370.81295055663213, 0.03200000151991844, 0.43200002051889896, 0.944000044837594, 0.0, 0.0, 0.0, 0.0, 0.0, 1.6483374350883949E9, 0.0, 2022-03-26 18:30:35.088
90.0, 502.82767909253016, 35.81702187564224, 771.0850930642337, 370.2370059634559, 0.03200000151991844, 0.43200002051889896, 0.944000044837594, 0.0, 0.0, 0.0, 0.0, 0.0, 1.6483374350883949E9, 0.0, 2022-03-26 18:30:35.088
91.0, 509.09201151831076, 36.97265096195042, 776.8407990960404, 366.94589400244877, 0.03200000151991844, 0.43200002051889896, 0.944000044837594, 0.0, 0.0, 0.0, 0.0, 0.0, 1.6483374350891104E9, 0.0, 2022-03-26 18:30:35.089
91.0, 502.8949972917326, 40.5741746192798, 777.2895870907232, 369.9639932666905, 0.03200000151991844, 0.43200002051889896, 0.944000044837594, 0.0, 0.0, 0.0, 0.0, 0.0, 1.6483374350891104E9, 0.0, 2022-03-26 18:30:35.089
92.0, 492.09042631974444, 29.964078444987535, 772.0387675529346, 365.3414769214578, 0.01600000075995922, 0.43200002051889896, 0.944000044837594, 0.0, 0.0, 0.0, 0.0, 0.0, 1.6483374350898955E9, 0.0, 2022-03-26 18:30:35.089
92.0, 502.76036089332774, 45.058314666152, 786.0409529870376, 360.35619028052315, 0.01600000075995922, 0.43200002051889896, 0.944000044837594, 0.0, 0.0, 0.0, 0.0, 0.0, 1.6483374350898955E9, 0.0, 2022-03-26 18:30:35.089
93.0, 508.8975367206149, 50.155798305757344, 783.2921265196055, 383.6894261040725, 0.01600000075995922, 0.43200002051889896, 0.944000044837594, 0.0, 0.0, 0.0, 0.0, 0.0, 1.6483374350906332E9, 0.0, 2022-03-26 18:30:35.090
93.0, 502.98475489066914, 42.27208919916302, 788.4270091587678, 381.2061325334944, 0.01600000075995922, 0.43200002051889896, 0.944000044837594, 0.0, 0.0, 0.0, 0.0, 0.0, 1.6483374350906332E9, 0.0, 2022-03-26 18:30:35.090
94.0, 503.1754897884093, 40.877106515690684, 796.1723419670016, 363.13493594760075, 0.01600000075995922, 0.43200002051889896, 0.944000044837594, 0.0, 0.0, 0.0, 0.0, 0.0, 1.6483374351013231E9, 0.0, 2022-03-26 18:30:35.101
94.0, 491.79497422324494, 27.83233547024429, 779.8289791606367, 368.4156746850349, 0.01600000075995922, 0.43200002051889896, 0.944000044837594, 0.0, 0.0, 0.0, 0.0, 0.0, 1.6483374351013231E9, 0.0, 2022-03-26 18:30:35.101
95.0, 502.9249164913781, 38.431211944669485, 779.9561357591301, 365.54343151906505, 0.01600000075995922, 0.43200002051889896, 0.944000044837594, 0.0, 0.0, 0.0, 0.0, 0.0, 1.648337435116413E9, 0.0, 2022-03-26 18:30:35.116
95.0, 497.82743285177276, 37.77298955246806, 780.3226459547877, 369.0364980776794, 0.01600000075995922, 0.43200002051889896, 0.944000044837594, 0.0, 0.0, 0.0, 0.0, 0.0, 1.648337435116413E9, 0.0, 2022-03-26 18:30:35.116
96.0, 501.6196914068423, 47.45933043770492, 783.7334347143769, 375.17367390496656, 0.01600000075995922, 0.43200002051889896, 0.944000044837594, 0.0, 0.0, 0.0, 0.0, 0.0, 1.6483374351319757E9, 0.0, 2022-03-26 18:30:35.131
96.0, 491.2564286296256, 43.218283887952566, 780.9696486471221, 366.13433571206406, 0.01600000075995922, 0.43200002051889896, 0.944000044837594, 0.0, 0.0, 0.0, 0.0, 0.0, 1.6483374351319757E9, 0.0, 2022-03-26 18:30:35.131
97.0, 499.19997613551095, 47.4668102376163, 778.7743273731321, 378.0496569708921, 0.01600000075995922, 0.43200002051889896, 0.944000044837594, 0.0, 0.0, 0.0, 0.0, 0.0, 1.6483374351327038E9, 0.0, 2022-03-26 18:30:35.132
97.0, 505.50170756084844, 48.29332812782377, 779.9673554589972, 382.04013022361323, 0.01600000075995922, 0.43200002051889896, 0.944000044837594, 0.0, 0.0, 0.0, 0.0, 0.0, 1.6483374351327038E9, 0.0, 2022-03-26 18:30:35.132
98.0, 499.53282723156735, 36.804355463944376, 780.1917494563386, 363.5650244425051, 0.01600000075995922, 0.43200002051889896, 0.944000044837594, 0.0, 0.0, 0.0, 0.0, 0.0, 1.648337435146326E9, 0.0, 2022-03-26 18:30:35.146
98.0, 501.7767672049813, 38.71918424125761, 783.7296948144212, 369.6049628709443, 0.01600000075995922, 0.43200002051889896, 0.944000044837594, 0.0, 0.0, 0.0, 0.0, 0.0, 1.648337435146326E9, 0.0, 2022-03-26 18:30:35.146
99.0, 503.5195605843328, 40.33108112215996, 782.2898333314806, 372.54452423611656, 0.01600000075995922, 0.43200002051889896, 0.944000044837594, 0.0, 0.0, 0.0, 0.0, 0.0, 1.6483374351620352E9, 0.0, 2022-03-26 18:30:35.162
99.0, 496.365131969098, 41.262316211126745, 782.3758510304615, 352.16954927751794, 0.01600000075995922, 0.43200002051889896, 0.944000044837594, 0.0, 0.0, 0.0, 0.0, 0.0, 1.6483374351620352E9, 0.0, 2022-03-26 18:30:35.162
100.0, 498.5978522426449, 43.225763687863946, 778.8379056723788, 337.5465404507704, 0.01600000075995922, 0.43200002051889896, 0.9280000440776348, 0.0, 0.0, 0.0, 0.0, 0.0, 1.648337435162776E9, 0.0, 2022-03-26 18:30:35.162
100.0, 512.8992296732031, 49.86782600916922, 782.6451238272712, 382.80680971452966, 0.01600000075995922, 0.43200002051889896, 0.9280000440776348, 0.0, 0.0, 0.0, 0.0, 0.0, 1.648337435162776E9, 0.0, 2022-03-26 18:30:35.162
0.0, 499.7086025294848, 45.882962606381625, 784.6328806537203, 366.9346743025817, 0.01600000075995922, 0.43200002051889896, 0.9280000440776348, 0.0, 0.0, 0.0, 0.0, 0.0, 1.6483374351770687E9, 0.0, 2022-03-26 18:30:35.177
1.0, 495.04494728473946, 42.40485564759001, 783.4136732681654, 365.9249013145454, 0.01600000075995922, 0.43200002051889896, 0.9280000440776348, 0.0, 0.0, 0.0, 0.0, 0.0, 1.6483374351778016E9, 0.0, 2022-03-26 18:30:35.177
1.0, 501.45513580879197, 32.87933046044782, 784.0681557604112, 361.25376626988873, 0.01600000075995922, 0.43200002051889896, 0.9280000440776348, 0.0, 0.0, 0.0, 0.0, 0.0, 1.6483374351778016E9, 0.0, 2022-03-26 18:30:35.177
2.0, 497.12807156005874, 37.423308906611055, 783.7091253646649, 365.21806022292003, 0.01600000075995922, 0.43200002051889896, 0.9280000440776348, 0.0, 0.0, 0.0, 0.0, 0.0, 1.6483374352077565E9, 0.0, 2022-03-26 18:30:35.207
2.0, 490.56080723786727, 39.33813768392429, 785.7698102402501, 371.4936123485677, 0.01600000075995922, 0.43200002051889896, 0.9280000440776348, 0.0, 0.0, 0.0, 0.0, 0.0, 1.6483374352077565E9, 0.0, 2022-03-26 18:30:35.207
3.0, 505.6026848596521, 46.47012689942494, 791.0692484774627, 377.50737147731707, 0.01600000075995922, 0.43200002051889896, 0.9280000440776348, 0.0, 0.0, 0.0, 0.0, 0.0, 1.6483374352084682E9, 0.0, 2022-03-26 18:30:35.208
3.0, 497.6628772537224, 51.466633240226656, 785.915666338522, 378.1543741696514, 0.01600000075995922, 0.43200002051889896, 0.9280000440776348, 0.0, 0.0, 0.0, 0.0, 0.0, 1.6483374352084682E9, 0.0, 2022-03-26 18:30:35.208
4.0, 500.2134890235029, 60.62564823171124, 783.985877961386, 356.1562826302834, 0.01600000075995922, 0.43200002051889896, 0.9280000440776348, 0.0, 0.0, 0.0, 0.0, 0.0, 1.6483374352091453E9, 0.0, 2022-03-26 18:30:35.209
4.0, 504.91080336784944, 49.106756368186325, 793.7208375460468, 375.2335123042576, 0.01600000075995922, 0.43200002051889896, 0.9280000440776348, 0.0, 0.0, 0.0, 0.0, 0.0, 1.6483374352091453E9, 0.0, 2022-03-26 18:30:35.209
5.0, 499.8768980274908, 31.357191178482026, 784.7675170521252, 368.8906419794075, 0.01600000075995922, 0.43200002051889896, 0.9280000440776348, 0.0, 0.0, 0.0, 0.0, 0.0, 1.6483374352213233E9, 0.0, 2022-03-26 18:30:35.221
5.0, 511.16391609376296, 48.98333966964856, 799.5700410767458, 378.25909136841074, 0.01600000075995922, 0.43200002051889896, 0.9280000440776348, 0.0, 0.0, 0.0, 0.0, 0.0, 1.6483374352213233E9, 0.0, 2022-03-26 18:30:35.221
6.0, 508.2318345285021, 70.67849931260571, 808.2204296742566, 360.28139228140935, 0.01600000075995922, 0.43200002051889896, 0.9280000440776348, 0.0, 0.0, 0.0, 0.0, 0.0, 1.6483374352371104E9, 0.0, 2022-03-26 18:30:35.237
6.0, 508.1084178299643, 58.808056853245944, 802.3338271440007, 388.99260424124077, 0.01600000075995922, 0.43200002051889896, 0.9280000440776348, 0.0, 0.0, 0.0, 0.0, 0.0, 1.6483374352371104E9, 0.0, 2022-03-26 18:30:35.237
7.0, 504.39095727400854, 44.98538661701605, 794.5473554362543, 380.824662738014, 0.01600000075995922, 0.43200002051889896, 0.9280000440776348, 0.0, 0.0, 0.0, 0.0, 0.0, 1.6483374352378972E9, 0.0, 2022-03-26 18:30:35.237
7.0, 510.3411381035112, 55.03449779795483, 808.2765281735919, 383.85024180216715, 0.01600000075995922, 0.43200002051889896, 0.9280000440776348, 0.0, 0.0, 0.0, 0.0, 0.0, 1.6483374352378972E9, 0.0, 2022-03-26 18:30:35.237
8.0, 509.1593297175132, 52.83917652396485, 806.357959496323, 376.32930299127474, 0.01600000075995922, 0.43200002051889896, 0.9280000440776348, 0.0, 0.0, 0.0, 0.0, 0.0, 1.6483374352513237E9, 0.0, 2022-03-26 18:30:35.251
8.0, 509.32388531556353, 45.26961901364848, 796.5519418125041, 390.8363749193959, 0.01600000075995922, 0.43200002051889896, 0.9280000440776348, 0.0, 0.0, 0.0, 0.0, 0.0, 1.6483374352513237E9, 0.0, 2022-03-26 18:30:35.251
9.0, 502.2928733988665, 43.31739123677835, 795.2280172281899, 375.28213100368157, 0.01600000075995922, 0.43200002051889896, 0.9280000440776348, 0.0, 0.0, 0.0, 0.0, 0.0, 1.648337435267006E9, 0.0, 2022-03-26 18:30:35.267
9.0, 499.5814459309913, 43.107956839259714, 790.2240310874768, 375.62246189964935, 0.01600000075995922, 0.43200002051889896, 0.9280000440776348, 0.0, 0.0, 0.0, 0.0, 0.0, 1.648337435267006E9, 0.0, 2022-03-26 18:30:35.267
10.0, 495.4825155795552, 35.411242730449885, 794.1883250405081, 379.4296800545417, 0.01600000075995922, 0.43200002051889896, 0.944000044837594, 0.0, 0.0, 0.0, 0.0, 0.0, 1.6483374352677815E9, 0.0, 2022-03-26 18:30:35.267
10.0, 500.1798299239017, 45.441654411610216, 799.3306874795817, 383.81284280261025, 0.01600000075995922, 0.43200002051889896, 0.944000044837594, 0.0, 0.0, 0.0, 0.0, 0.0, 1.6483374352677815E9, 0.0, 2022-03-26 18:30:35.267
11.0, 503.3250857866369, 43.848457030486315, 797.4682173016481, 375.43920680182055, 0.01600000075995922, 0.4480000212788582, 0.944000044837594, 0.0, 0.0, 0.0, 0.0, 0.0, 1.6483374352813628E9, 0.0, 2022-03-26 18:30:35.281
11.0, 501.9936814024113, 44.04667172813788, 799.9402911723591, 385.16668658657, 0.01600000075995922, 0.4480000212788582, 0.944000044837594, 0.0, 0.0, 0.0, 0.0, 0.0, 1.6483374352813628E9, 0.0, 2022-03-26 18:30:35.281
12.0, 507.6371904355474, 48.81504417164251, 792.5016301604919, 383.76796400314197, 0.0, 0.4480000212788582, 0.944000044837594, 0.0, 0.0, 0.0, 0.0, 0.0, 1.6483374352969978E9, 0.0, 2022-03-26 18:30:35.296
12.0, 492.928163909819, 42.77136584324762, 786.9740580259822, 375.9665326955728, 0.0, 0.4480000212788582, 0.944000044837594, 0.0, 0.0, 0.0, 0.0, 0.0, 1.6483374352969978E9, 0.0, 2022-03-26 18:30:35.296
13.0, 481.8468403411098, 30.175382792484015, 777.280237340834, 342.2251552953385, 0.0, 0.4480000212788582, 0.944000044837594, 0.0, 0.0, 0.0, 0.0, 0.0, 1.6483374352978675E9, 0.0, 2022-03-26 18:30:35.297
13.0, 485.7251165951602, 20.28334740968421, 769.6957202306949, 355.99172703223303, 0.0, 0.4480000212788582, 0.944000044837594, 0.0, 0.0, 0.0, 0.0, 0.0, 1.6483374352978675E9, 0.0, 2022-03-26 18:30:35.297
14.0, 484.85745980544016, 31.323532078880817, 775.0101180677302, 361.2313268701546, 0.0, 0.4480000212788582, 0.944000044837594, 0.0, 0.0, 0.0, 0.0, 0.0, 1.6483374353112924E9, 0.0, 2022-03-26 18:30:35.311
14.0, 479.52062256867066, 15.971242760773748, 767.2049468602054, 352.20694827707484, 0.0, 0.4480000212788582, 0.944000044837594, 0.0, 0.0, 0.0, 0.0, 0.0, 1.6483374353112924E9, 0.0, 2022-03-26 18:30:35.311
15.0, 468.36450100084767, 9.800407833885401, 758.9509876579978, 342.56922609126195, 0.0, 0.4480000212788582, 0.944000044837594, 0.0, 0.0, 0.0, 0.0, 0.0, 1.6483374353269444E9, 0.0, 2022-03-26 18:30:35.326
15.0, 470.1783524793573, 2.825494416523725, 755.6523958970793, 352.0311729791574, 0.0, 0.4480000212788582, 0.944000044837594, 0.0, 0.0, 0.0, 0.0, 0.0, 1.6483374353269444E9, 0.0, 2022-03-26 18:30:35.326
16.0, 464.44508584728464, 4.306494798976928, 760.009379345458, 341.7763673006557, 0.0, 0.4480000212788582, 0.944000044837594, 0.0, 0.0, 0.0, 0.0, 0.0, 1.6483374353277812E9, 0.0, 2022-03-26 18:30:35.327
16.0, 459.568256305065, -0.9181454391218722, 745.6257241158746, 337.75971474824473, 0.0, 0.4480000212788582, 0.944000044837594, 0.0, 0.0, 0.0, 0.0, 0.0, 1.6483374353277812E9, 0.0, 2022-03-26 18:30:35.327
17.0, 455.14769455743954, -1.8643401279114187, 745.8650777130388, 342.1540971961804, 0.0, 0.4480000212788582, 0.944000044837594, 0.0, 0.0, 0.0, 0.0, 0.0, 1.648337435341296E9, 0.0, 2022-03-26 18:30:35.341
17.0, 453.18424708070233, -4.108280101325363, 748.7859395784326, 329.52071514585987, 0.0, 0.4480000212788582, 0.944000044837594, 0.0, 0.0, 0.0, 0.0, 0.0, 1.648337435341296E9, 0.0, 2022-03-26 18:30:35.341
18.0, 447.1891874517314, -9.44511733809486, 739.9036771836691, 321.30789484316483, 0.0, 0.4480000212788582, 0.944000044837594, 0.0, 0.0, 0.0, 0.0, 0.0, 1.648337435373365E9, 0.0, 2022-03-26 18:30:35.373
18.0, 447.46967994840816, -7.4667102615348995, 743.2022689445876, 335.7700879718177, 0.0, 0.4480000212788582, 0.944000044837594, 0.0, 0.0, 0.0, 0.0, 0.0, 1.648337435373365E9, 0.0, 2022-03-26 18:30:35.373
19.0, 450.1885872161947, -0.7199307414703071, 743.5239003407769, 317.23140389146283, 0.0, 0.4480000212788582, 0.944000044837594, 0.0, 0.0, 0.0, 0.0, 0.0, 1.6483374353741407E9, 0.0, 2022-03-26 18:30:35.374
19.0, 450.0090720183216, -1.3033551345579326, 745.1320573217236, 333.78420109534636, 0.0, 0.4480000212788582, 0.944000044837594, 0.0, 0.0, 0.0, 0.0, 0.0, 1.6483374353741407E9, 0.0, 2022-03-26 18:30:35.374
20.0, 448.73750603338704, 2.2832089229486883, 748.8270784779452, 344.67478976631537, 0.0, 0.4480000212788582, 0.9280000440776348, 0.0, 0.0, 0.0, 0.0, 0.0, 1.6483374353748603E9, 0.0, 2022-03-26 18:30:35.374
20.0, 454.5044317650609, 4.564547895919532, 750.4240157590248, 338.5226543392055, 0.0, 0.4480000212788582, 0.9280000440776348, 0.0, 0.0, 0.0, 0.0, 0.0, 1.6483374353748603E9, 0.0, 2022-03-26 18:30:35.374
21.0, 455.44688655389473, 3.9138053036294878, 750.2818995607086, 348.02200022665784, 0.0, 0.41600001975893974, 0.9280000440776348, 0.0, 0.0, 0.0, 0.0, 0.0, 1.6483374353755648E9, 0.0, 2022-03-26 18:30:35.375
21.0, 466.4646318233572, 4.901138891931623, 749.6161973685957, 344.3755977698602, 0.0, 0.41600001975893974, 0.9280000440776348, 0.0, 0.0, 0.0, 0.0, 0.0, 1.6483374353755648E9, 0.0, 2022-03-26 18:30:35.375
22.0, 463.07628246350214, 14.587479777168483, 757.0174593809061, 355.7486335351132, -0.01600000075995922, 0.41600001975893974, 0.9280000440776348, 0.0, 0.0, 0.0, 0.0, 0.0, 1.64833743538627E9, 0.0, 2022-03-26 18:30:35.386
22.0, 478.33507428271696, 8.547541348729283, 754.4556279112585, 358.0449321079068, -0.01600000075995922, 0.41600001975893974, 0.9280000440776348, 0.0, 0.0, 0.0, 0.0, 0.0, 1.64833743538627E9, 0.0, 2022-03-26 18:30:35.386
23.0, 473.3497876417823, 11.326287015806884, 758.1244697677903, 352.94744846830145, -0.01600000075995922, 0.41600001975893974, 0.9280000440776348, 0.0, 0.0, 0.0, 0.0, 0.0, 1.6483374354013276E9, 0.0, 2022-03-26 18:30:35.401
23.0, 474.41191922919825, 16.375151955988258, 756.4265551879071, 357.3642703159712, -0.01600000075995922, 0.41600001975893974, 0.9280000440776348, 0.0, 0.0, 0.0, 0.0, 0.0, 1.6483374354013276E9, 0.0, 2022-03-26 18:30:35.401
24.0, 468.469218199607, 16.420030755456537, 759.6989676491357, 360.94709447352216, -0.01600000075995922, 0.41600001975893974, 0.9280000440776348, 0.0, 0.0, 0.0, 0.0, 0.0, 1.6483374354171371E9, 0.0, 2022-03-26 18:30:35.417
24.0, 465.9896645289846, 14.097552882973105, 759.1155432560481, 361.17148847086355, -0.01600000075995922, 0.41600001975893974, 0.9280000440776348, 0.0, 0.0, 0.0, 0.0, 0.0, 1.6483374354171371E9, 0.0, 2022-03-26 18:30:35.417
25.0, 474.6213536267169, 13.45055019063875, 758.5470784627832, 365.8276639156975, -0.01600000075995922, 0.41600001975893974, 0.9280000440776348, 0.0, 0.0, 0.0, 0.0, 0.0, 1.6483374354177902E9, 0.0, 2022-03-26 18:30:35.417
25.0, 459.2316653090529, 17.800053839106113, 769.3703489345498, 351.1111575900577, -0.01600000075995922, 0.41600001975893974, 0.9280000440776348, 0.0, 0.0, 0.0, 0.0, 0.0, 1.6483374354177902E9, 0.0, 2022-03-26 18:30:35.417
26.0, 475.9452782110311, 22.35151208518073, 764.411241593305, 337.64377784961835, -0.01600000075995922, 0.41600001975893974, 0.9280000440776348, 0.0, 0.0, 0.0, 0.0, 0.0, 1.6483374354312563E9, 0.0, 2022-03-26 18:30:35.431
26.0, 475.55632861563936, 19.11649862350896, 769.7817379296757, 373.76747152162716, -0.01600000075995922, 0.41600001975893974, 0.9280000440776348, 0.0, 0.0, 0.0, 0.0, 0.0, 1.6483374354312563E9, 0.0, 2022-03-26 18:30:35.431
27.0, 483.37271952303126, 17.07451324770227, 769.1122958376072, 380.7199455392547, -0.01600000075995922, 0.41600001975893974, 0.9280000440776348, 0.0, 0.0, 0.0, 0.0, 0.0, 1.6483374354469953E9, 0.0, 2022-03-26 18:30:35.446
27.0, 483.701830719132, 21.023847600910813, 780.4254932035692, 384.41122679552063, -0.01600000075995922, 0.41600001975893974, 0.9280000440776348, 0.0, 0.0, 0.0, 0.0, 0.0, 1.6483374354469953E9, 0.0, 2022-03-26 18:30:35.446
28.0, 488.5487410617061, 42.4833935466595, 797.1765051051043, 388.3044626493938, -0.01600000075995922, 0.41600001975893974, 0.9280000440776348, 0.0, 0.0, 0.0, 0.0, 0.0, 1.648337435447786E9, 0.0, 2022-03-26 18:30:35.447
28.0, 506.2945663514547, 50.23620615480468, 809.3274400611408, 401.7269635903649, -0.01600000075995922, 0.41600001975893974, 0.9280000440776348, 0.0, 0.0, 0.0, 0.0, 0.0, 1.648337435447786E9, 0.0, 2022-03-26 18:30:35.447
29.0, 507.9924809313379, 56.17516728444025, 810.3222534493543, 397.26526294322684, -0.01600000075995922, 0.41600001975893974, 0.9280000440776348, 0.0, 0.0, 0.0, 0.0, 0.0, 1.64833743546126E9, 0.0, 2022-03-26 18:30:35.461
29.0, 519.0289257005788, 61.175413525197655, 818.3742580539547, 405.8819924411364, -0.01600000075995922, 0.41600001975893974, 0.9280000440776348, 0.0, 0.0, 0.0, 0.0, 0.0, 1.64833743546126E9, 0.0, 2022-03-26 18:30:35.461
30.0, 510.8086255979724, 62.85088870534673, 831.1983750020154, 420.16841027187183, -0.01600000075995922, 0.41600001975893974, 0.9120000433176756, 0.0, 0.0, 0.0, 0.0, 0.0, 1.6483374354934373E9, 0.0, 2022-03-26 18:30:35.493
30.0, 530.4580599651672, 81.26989598711953, 843.0314184618182, 428.71782157057896, -0.01600000075995922, 0.41600001975893974, 0.9120000433176756, 0.0, 0.0, 0.0, 0.0, 0.0, 1.6483374354934373E9, 0.0, 2022-03-26 18:30:35.493
31.0, 528.4422538890503, 77.61975363036618, 838.8763896110468, 422.38991084555164, -0.01600000075995922, 0.4480000212788582, 0.9120000433176756, 0.0, 0.0, 0.0, 0.0, 0.0, 1.6483374354940968E9, 0.0, 2022-03-26 18:30:35.494
31.0, 526.033758317586, 72.58210839005187, 844.336643546354, 423.0406534378417, -0.01600000075995922, 0.4480000212788582, 0.9120000433176756, 0.0, 0.0, 0.0, 0.0, 0.0, 1.6483374354940968E9, 0.0, 2022-03-26 18:30:35.494
32.0, 521.1457090754993, 78.07976132491603, 840.3873091931455, 409.8799454937689, -0.06400000303983688, 0.4480000212788582, 0.9120000433176756, 0.0, 0.0, 0.0, 0.0, 0.0, 1.648337435494866E9, 0.0, 2022-03-26 18:30:35.494
32.0, 526.4301877128892, 71.78550969948992, 840.3985288930126, 391.5432160110213, -0.06400000303983688, 0.4480000212788582, 0.9120000433176756, 0.0, 0.0, 0.0, 0.0, 0.0, 1.648337435494866E9, 0.0, 2022-03-26 18:30:35.494
33.0, 530.7198529620655, 81.58030768344179, 846.3711491222493, 428.3064325754531, -0.06400000303983688, 0.4480000212788582, 0.9120000433176756, 0.0, 0.0, 0.0, 0.0, 0.0, 1.6483374354956217E9, 0.0, 2022-03-26 18:30:35.495
33.0, 519.6460091932677, 76.71843774104491, 835.0055931569077, 409.63311209669337, -0.06400000303983688, 0.4480000212788582, 0.9120000433176756, 0.0, 0.0, 0.0, 0.0, 0.0, 1.6483374354956217E9, 0.0, 2022-03-26 18:30:35.495
34.0, 525.4989526239224, 81.7972218808718, 838.3266243175603, 394.9801840703003, -0.06400000303983688, 0.4480000212788582, 0.9120000433176756, 0.0, 0.0, 0.0, 0.0, 0.0, 1.648337435506432E9, 0.0, 2022-03-26 18:30:35.506
34.0, 523.5691642467864, 69.24611762957647, 828.4196293349378, 413.75822174781933, -0.06400000303983688, 0.4480000212788582, 0.9120000433176756, 0.0, 0.0, 0.0, 0.0, 0.0, 1.648337435506432E9, 0.0, 2022-03-26 18:30:35.506
35.0, 506.17114965291694, 59.81408994132653, 826.6394369560294, 401.77932218974456, -0.06400000303983688, 0.4480000212788582, 0.9120000433176756, 0.0, 0.0, 0.0, 0.0, 0.0, 1.648337435521388E9, 0.0, 2022-03-26 18:30:35.521
35.0, 506.6573366471566, 69.98661782080308, 826.3701641592197, 399.30724831903353, -0.06400000303983688, 0.4480000212788582, 0.9120000433176756, 0.0, 0.0, 0.0, 0.0, 0.0, 1.648337435521388E9, 0.0, 2022-03-26 18:30:35.521
36.0, 507.0836852421053, 64.42912648664787, 819.286793643143, 388.9402456418611, -0.06400000303983688, 0.4480000212788582, 0.9120000433176756, 0.0, 0.0, 0.0, 0.0, 0.0, 1.6483374355370152E9, 0.0, 2022-03-26 18:30:35.537
36.0, 509.38372371485457, 52.0799768329598, 811.3619456370361, 386.6776061686687, -0.06400000303983688, 0.4480000212788582, 0.9120000433176756, 0.0, 0.0, 0.0, 0.0, 0.0, 1.6483374355370152E9, 0.0, 2022-03-26 18:30:35.537
37.0, 512.2746663806029, 61.4559060218744, 826.8114723539911, 401.255736195948, -0.06400000303983688, 0.4480000212788582, 0.9120000433176756, 0.0, 0.0, 0.0, 0.0, 0.0, 1.6483374355378003E9, 0.0, 2022-03-26 18:30:35.537
37.0, 510.86846399726346, 63.35203529940918, 826.6618763557635, 391.5693953107111, -0.06400000303983688, 0.4480000212788582, 0.9120000433176756, 0.0, 0.0, 0.0, 0.0, 0.0, 1.6483374355378003E9, 0.0, 2022-03-26 18:30:35.537
38.0, 512.2597067807801, 69.28725652908906, 821.0819456218742, 394.2509035789408, -0.06400000303983688, 0.4480000212788582, 0.9120000433176756, 0.0, 0.0, 0.0, 0.0, 0.0, 1.648337435551448E9, 0.0, 2022-03-26 18:30:35.551
38.0, 515.2740661450662, 67.2751903529279, 819.8739579361863, 401.85786008881405, -0.06400000303983688, 0.4480000212788582, 0.9120000433176756, 0.0, 0.0, 0.0, 0.0, 0.0, 1.648337435551448E9, 0.0, 2022-03-26 18:30:35.551
39.0, 506.230988052208, 64.07009609090164, 824.2459009843878, 394.89790627127513, -0.06400000303983688, 0.4480000212788582, 0.9120000433176756, 0.0, 0.0, 0.0, 0.0, 0.0, 1.6483374355669644E9, 0.0, 2022-03-26 18:30:35.566
39.0, 515.3526040441357, 74.44083866802976, 833.2964588771574, 389.7293645325117, -0.06400000303983688, 0.4480000212788582, 0.9120000433176756, 0.0, 0.0, 0.0, 0.0, 0.0, 1.6483374355669644E9, 0.0, 2022-03-26 18:30:35.566
40.0, 508.6357437237166, 67.6417005485855, 821.4783750171773, 392.36599400127307, -0.06400000303983688, 0.4480000212788582, 0.9280000440776348, 0.0, 0.0, 0.0, 0.0, 0.0, 1.648337435567772E9, 0.0, 2022-03-26 18:30:35.567
40.0, 511.1826155935414, 69.41815302753821, 837.4514877279289, 392.9830774939619, -0.06400000303983688, 0.4480000212788582, 0.9280000440776348, 0.0, 0.0, 0.0, 0.0, 0.0, 1.648337435567772E9, 0.0, 2022-03-26 18:30:35.567
41.0, 515.6704955403693, 79.17929191188887, 838.4986597155221, 374.28357771551237, -0.06400000303983688, 0.43200002051889896, 0.9280000440776348, 0.0, 0.0, 0.0, 0.0, 0.0, 1.6483374355813396E9, 0.0, 2022-03-26 18:30:35.581
41.0, 513.7481869631447, 89.71085018711165, 852.5906027485617, 365.90994171472266, -0.06400000303983688, 0.43200002051889896, 0.9280000440776348, 0.0, 0.0, 0.0, 0.0, 0.0, 1.6483374355813396E9, 0.0, 2022-03-26 18:30:35.581
42.0, 494.1511111953296, 84.52360894856974, 850.4925188734196, 361.4183218679391, -0.06400000303983688, 0.43200002051889896, 0.9280000440776348, 0.0, 0.0, 0.0, 0.0, 0.0, 1.648337435596974E9, 0.0, 2022-03-26 18:30:35.596
42.0, 496.148217771668, 78.27423612261191, 853.9481864324771, 365.3003380219452, -0.06400000303983688, 0.43200002051889896, 0.9280000440776348, 0.0, 0.0, 0.0, 0.0, 0.0, 1.648337435596974E9, 0.0, 2022-03-26 18:30:35.596
43.0, 492.1016460196115, 73.09447468398139, 846.7526189177297, 349.8208921053447, -0.06400000303983688, 0.43200002051889896, 0.9280000440776348, 0.0, 0.0, 0.0, 0.0, 0.0, 1.6483374355978038E9, 0.0, 2022-03-26 18:30:35.597
43.0, 493.2871943055652, 78.53228921955451, 843.588663555216, 339.4763288279064, -0.06400000303983688, 0.43200002051889896, 0.9280000440776348, 0.0, 0.0, 0.0, 0.0, 0.0, 1.6483374355978038E9, 0.0, 2022-03-26 18:30:35.597
44.0, 493.86687879869714, 79.73653700528666, 846.748879017774, 336.37969166459516, -0.06400000303983688, 0.43200002051889896, 0.9280000440776348, 0.0, 0.0, 0.0, 0.0, 0.0, 1.64833743561136E9, 0.0, 2022-03-26 18:30:35.611
44.0, 490.48600923875347, 65.07986907893792, 843.3792291576974, 305.28616343298927, -0.06400000303983688, 0.43200002051889896, 0.9280000440776348, 0.0, 0.0, 0.0, 0.0, 0.0, 1.64833743561136E9, 0.0, 2022-03-26 18:30:35.611
45.0, 480.8370673530735, 51.863062635529786, 834.6839617607184, 294.77330465754494, -0.06400000303983688, 0.43200002051889896, 0.9280000440776348, 0.0, 0.0, 0.0, 0.0, 0.0, 1.6483374356433249E9, 0.0, 2022-03-26 18:30:35.643
45.0, 463.4203532594256, 47.97730658156797, 837.2532730302773, 283.6396224894561, -0.06400000303983688, 0.43200002051889896, 0.9280000440776348, 0.0, 0.0, 0.0, 0.0, 0.0, 1.6483374356433249E9, 0.0, 2022-03-26 18:30:35.643
46.0, 473.55922203930095, 47.43128118803725, 831.3292715004645, 263.01781413378194, -0.06400000303983688, 0.43200002051889896, 0.9280000440776348, 0.0, 0.0, 0.0, 0.0, 0.0, 1.6483374356442175E9, 0.0, 2022-03-26 18:30:35.644
46.0, 488.75817545922473, 68.76367053529248, 852.5756431487389, 276.46649437444285, -0.06400000303983688, 0.43200002051889896, 0.9280000440776348, 0.0, 0.0, 0.0, 0.0, 0.0, 1.6483374356442175E9, 0.0, 2022-03-26 18:30:35.644
47.0, 456.7483717384748, 44.660015320871025, 822.8471784009598, 255.57915312191471, -0.06400000303983688, 0.43200002051889896, 0.9280000440776348, 0.0, 0.0, 0.0, 0.0, 0.0, 1.64833743564497E9, 0.0, 2022-03-26 18:30:35.644
47.0, 466.1729196268134, 53.64325501443818, 828.995573928114, 230.6078411177732, -0.06400000303983688, 0.43200002051889896, 0.9280000440776348, 0.0, 0.0, 0.0, 0.0, 0.0, 1.64833743564497E9, 0.0, 2022-03-26 18:30:35.644
48.0, 493.45174990361556, 77.73943042894825, 851.4013145626523, 251.282008072827, -0.06400000303983688, 0.43200002051889896, 0.9280000440776348, 0.0, 0.0, 0.0, 0.0, 0.0, 1.648337435645571E9, 0.0, 2022-03-26 18:30:35.645
48.0, 513.4265555669554, 106.64885708643124, 873.4667243012227, 277.12845666659996, -0.06400000303983688, 0.43200002051889896, 0.9280000440776348, 0.0, 0.0, 0.0, 0.0, 0.0, 1.648337435645571E9, 0.0, 2022-03-26 18:30:35.645
49.0, 507.8054859335534, 104.67418990982696, 876.2417300683446, 275.57639818498865, -0.06400000303983688, 0.43200002051889896, 0.9280000440776348, 0.0, 0.0, 0.0, 0.0, 0.0, 1.6483374356562796E9, 0.0, 2022-03-26 18:30:35.656
49.0, 510.65528969978914, 107.4005769775249, 884.1441386747174, 255.60533242160454, -0.06400000303983688, 0.43200002051889896, 0.9280000440776348, 0.0, 0.0, 0.0, 0.0, 0.0, 1.6483374356562796E9, 0.0, 2022-03-26 18:30:35.656
50.0, 523.45322734816, 121.72439380781725, 890.9096176945604, 282.53635200252756, -0.06400000303983688, 0.43200002051889896, 0.944000044837594, 0.0, 0.0, 0.0, 0.0, 0.0, 1.6483374356714368E9, 0.0, 2022-03-26 18:30:35.671
50.0, 514.3129118564539, 120.90161581756547, 897.4843618166633, 280.299891829025, -0.06400000303983688, 0.43200002051889896, 0.944000044837594, 0.0, 0.0, 0.0, 0.0, 0.0, 1.6483374356714368E9, 0.0, 2022-03-26 18:30:35.671
51.0, 526.624662510585, 123.27645228942856, 894.2568281549029, 255.0256479284726, -0.06400000303983688, 0.41600001975893974, 0.944000044837594, 0.0, 0.0, 0.0, 0.0, 0.0, 1.6483374356870923E9, 0.0, 2022-03-26 18:30:35.687
51.0, 534.235358920414, 137.3833549222909, 909.9307488691993, 286.6465020538308, -0.06400000303983688, 0.41600001975893974, 0.944000044837594, 0.0, 0.0, 0.0, 0.0, 0.0, 1.6483374356870923E9, 0.0, 2022-03-26 18:30:35.687
52.0, 529.9008148717694, 122.94734109332785, 906.0412529152818, 297.65302762342617, -0.01600000075995922, 0.41600001975893974, 0.944000044837594, 0.0, 0.0, 0.0, 0.0, 0.0, 1.6483374356877987E9, 0.0, 2022-03-26 18:30:35.687
52.0, 527.8326501962729, 142.88100785715505, 918.1585287717171, 316.51708299992606, -0.01600000075995922, 0.41600001975893974, 0.944000044837594, 0.0, 0.0, 0.0, 0.0, 0.0, 1.6483374356877987E9, 0.0, 2022-03-26 18:30:35.687
53.0, 527.698013797868, 149.13412058306858, 920.8549966397695, 306.17625962244347, -0.01600000075995922, 0.41600001975893974, 0.944000044837594, 0.0, 0.0, 0.0, 0.0, 0.0, 1.6483374357013268E9, 0.0, 2022-03-26 18:30:35.701
53.0, 539.1271480624564, 152.29059614567086, 935.0366972717457, 338.64607103774324, -0.01600000075995922, 0.41600001975893974, 0.944000044837594, 0.0, 0.0, 0.0, 0.0, 0.0, 1.6483374357013268E9, 0.0, 2022-03-26 18:30:35.701
54.0, 522.8772827549838, 140.9325199802406, 912.7094945362769, 315.7279641092755, -0.01600000075995922, 0.41600001975893974, 0.944000044837594, 0.0, 0.0, 0.0, 0.0, 0.0, 1.6483374357171125E9, 0.0, 2022-03-26 18:30:35.717
54.0, 529.1079560811631, 135.92853383952752, 912.612257137429, 319.7296570618637, -0.01600000075995922, 0.41600001975893974, 0.944000044837594, 0.0, 0.0, 0.0, 0.0, 0.0, 1.6483374357171125E9, 0.0, 2022-03-26 18:30:35.717
55.0, 529.7624385734089, 133.39288166956976, 914.8374976110645, 345.19837576011196, -0.01600000075995922, 0.41600001975893974, 0.944000044837594, 0.0, 0.0, 0.0, 0.0, 0.0, 1.6483374357177796E9, 0.0, 2022-03-26 18:30:35.717
55.0, 541.580522433389, 141.0895957783796, 922.6688481182791, 365.7566058165394, -0.01600000075995922, 0.41600001975893974, 0.944000044837594, 0.0, 0.0, 0.0, 0.0, 0.0, 1.6483374357177796E9, 0.0, 2022-03-26 18:30:35.717
56.0, 544.4826847990043, 148.6404537889175, 922.2836384228431, 377.81404327368364, -0.01600000075995922, 0.41600001975893974, 0.944000044837594, 0.0, 0.0, 0.0, 0.0, 0.0, 1.6483374357312543E9, 0.0, 2022-03-26 18:30:35.731
56.0, 553.1816920959391, 150.58146186592057, 928.8883017445914, 393.585201386828, -0.01600000075995922, 0.41600001975893974, 0.944000044837594, 0.0, 0.0, 0.0, 0.0, 0.0, 1.6483374357312543E9, 0.0, 2022-03-26 18:30:35.731
57.0, 551.9849241101183, 133.84540956420824, 916.2324802945368, 393.9853706820868, -0.01600000075995922, 0.41600001975893974, 0.944000044837594, 0.0, 0.0, 0.0, 0.0, 0.0, 1.6483374357470012E9, 0.0, 2022-03-26 18:30:35.747
57.0, 538.1098952745087, 131.49675239203498, 904.952942028176, 380.9405996366404, -0.01600000075995922, 0.41600001975893974, 0.944000044837594, 0.0, 0.0, 0.0, 0.0, 0.0, 1.6483374357470012E9, 0.0, 2022-03-26 18:30:35.747
58.0, 539.8788679535501, 123.1904345904477, 897.6115184151568, 396.6818385501392, -0.01600000075995922, 0.41600001975893974, 0.944000044837594, 0.0, 0.0, 0.0, 0.0, 0.0, 1.6483374357477524E9, 0.0, 2022-03-26 18:30:35.747
58.0, 546.4573519756086, 121.89642920577899, 892.6711105736904, 408.4774830103852, -0.01600000075995922, 0.41600001975893974, 0.944000044837594, 0.0, 0.0, 0.0, 0.0, 0.0, 1.6483374357477524E9, 0.0, 2022-03-26 18:30:35.747
59.0, 536.3558821952902, 111.27511333161965, 884.8808989659883, 382.4963980182074, -0.01600000075995922, 0.41600001975893974, 0.944000044837594, 0.0, 0.0, 0.0, 0.0, 0.0, 1.648337435761325E9, 0.0, 2022-03-26 18:30:35.761
59.0, 549.1500799437054, 120.08631762722507, 895.8014068366028, 401.1323194974102, -0.01600000075995922, 0.41600001975893974, 0.944000044837594, 0.0, 0.0, 0.0, 0.0, 0.0, 1.648337435761325E9, 0.0, 2022-03-26 18:30:35.761
60.0, 554.4682176806964, 107.61375127499923, 890.1578978034668, 404.96945685194805, -0.01600000075995922, 0.41600001975893974, 0.9280000440776348, 0.0, 0.0, 0.0, 0.0, 0.0, 1.6483374357934167E9, 0.0, 2022-03-26 18:30:35.793
60.0, 545.668233084958, 116.35015757149085, 888.4412837238051, 403.82504746550694, -0.01600000075995922, 0.41600001975893974, 0.9280000440776348, 0.0, 0.0, 0.0, 0.0, 0.0, 1.6483374357934167E9, 0.0, 2022-03-26 18:30:35.793
61.0, 549.2772365421988, 119.39817603537813, 887.1210990394466, 420.78923366451636, -0.01600000075995922, 0.35200001671910286, 0.9280000440776348, 0.0, 0.0, 0.0, 0.0, 0.0, 1.648337435794102E9, 0.0, 2022-03-26 18:30:35.794
61.0, 550.0364362332039, 108.91523645957932, 877.1280863578431, 413.23089585406706, -0.01600000075995922, 0.35200001671910286, 0.9280000440776348, 0.0, 0.0, 0.0, 0.0, 0.0, 1.648337435794102E9, 0.0, 2022-03-26 18:30:35.794
62.0, 541.6740199322812, 96.6558444048278, 871.9184057195671, 407.2395761250518, -0.03200000151991844, 0.35200001671910286, 0.9280000440776348, 0.0, 0.0, 0.0, 0.0, 0.0, 1.6483374357948797E9, 0.0, 2022-03-26 18:30:35.794
62.0, 522.6416690577753, 90.31297407997772, 873.403146001976, 414.34538604086265, -0.03200000151991844, 0.35200001671910286, 0.9280000440776348, 0.0, 0.0, 0.0, 0.0, 0.0, 1.6483374357948797E9, 0.0, 2022-03-26 18:30:35.794
63.0, 520.7343200803734, 82.26844927528873, 851.8725419570692, 392.85218099551275, -0.03200000151991844, 0.35200001671910286, 0.9280000440776348, 0.0, 0.0, 0.0, 0.0, 0.0, 1.6483374357956052E9, 0.0, 2022-03-26 18:30:35.795
63.0, 528.8274635844864, 85.13695254130289, 855.0664165192284, 397.6093337391503, -0.03200000151991844, 0.35200001671910286, 0.9280000440776348, 0.0, 0.0, 0.0, 0.0, 0.0, 1.6483374357956052E9, 0.0, 2022-03-26 18:30:35.795
64.0, 525.8692027195357, 73.95839157374576, 851.3601756631397, 399.7672560135834, -0.03200000151991844, 0.35200001671910286, 0.9280000440776348, 0.0, 0.0, 0.0, 0.0, 0.0, 1.64833743580638E9, 0.0, 2022-03-26 18:30:35.806
64.0, 529.9232542715035, 86.00834923097864, 862.7107720286585, 410.6877638841979, -0.03200000151991844, 0.35200001671910286, 0.9280000440776348, 0.0, 0.0, 0.0, 0.0, 0.0, 1.64833743580638E9, 0.0, 2022-03-26 18:30:35.806
65.0, 546.7041853726842, 95.82558661466464, 861.2260317462496, 419.16985698370263, -0.03200000151991844, 0.35200001671910286, 0.9280000440776348, 0.0, 0.0, 0.0, 0.0, 0.0, 1.6483374358213835E9, 0.0, 2022-03-26 18:30:35.821
65.0, 531.0601838580333, 75.97045774990693, 857.1233614948578, 403.40617867046967, -0.03200000151991844, 0.35200001671910286, 0.9280000440776348, 0.0, 0.0, 0.0, 0.0, 0.0, 1.6483374358213835E9, 0.0, 2022-03-26 18:30:35.821
66.0, 538.902754065115, 85.21175054041669, 853.5330575373955, 412.56145376199856, -0.03200000151991844, 0.35200001671910286, 0.9280000440776348, 0.0, 0.0, 0.0, 0.0, 0.0, 1.648337435837044E9, 0.0, 2022-03-26 18:30:35.837
66.0, 553.1031541968696, 94.99906872445717, 861.0502564483322, 417.9880485977046, -0.03200000151991844, 0.35200001671910286, 0.9280000440776348, 0.0, 0.0, 0.0, 0.0, 0.0, 1.648337435837044E9, 0.0, 2022-03-26 18:30:35.837
67.0, 535.6116421041079, 93.1365985465236, 858.7240386758931, 406.4990759338252, -0.03200000151991844, 0.35200001671910286, 0.9280000440776348, 0.0, 0.0, 0.0, 0.0, 0.0, 1.6483374358377848E9, 0.0, 2022-03-26 18:30:35.837
67.0, 553.7239775895141, 96.28185440925881, 856.2744042049162, 401.19589779665694, -0.03200000151991844, 0.35200001671910286, 0.9280000440776348, 0.0, 0.0, 0.0, 0.0, 0.0, 1.6483374358377848E9, 0.0, 2022-03-26 18:30:35.837
68.0, 557.2170441481285, 93.23383594537154, 863.9972976134159, 402.55722138052806, -0.03200000151991844, 0.35200001671910286, 0.9280000440776348, 0.0, 0.0, 0.0, 0.0, 0.0, 1.6483374358677073E9, 0.0, 2022-03-26 18:30:35.867
68.0, 549.5016305395402, 88.4654635018669, 866.1626996877603, 392.19021870335564, -0.03200000151991844, 0.35200001671910286, 0.9280000440776348, 0.0, 0.0, 0.0, 0.0, 0.0, 1.6483374358677073E9, 0.0, 2022-03-26 18:30:35.867
69.0, 556.6448394549079, 96.45762970717624, 867.2173514752649, 405.0330351511948, -0.03200000151991844, 0.35200001671910286, 0.9280000440776348, 0.0, 0.0, 0.0, 0.0, 0.0, 1.648337435868449E9, 0.0, 2022-03-26 18:30:35.868
69.0, 549.890580134932, 98.30140038533136, 865.190325699281, 393.33462808979675, -0.03200000151991844, 0.35200001671910286, 0.9280000440776348, 0.0, 0.0, 0.0, 0.0, 0.0, 1.648337435868449E9, 0.0, 2022-03-26 18:30:35.868
70.0, 573.8857782506384, 98.82124647917226, 859.786170263309, 394.19106517964974, -0.03200000151991844, 0.35200001671910286, 0.9600000455975533, 0.0, 0.0, 0.0, 0.0, 0.0, 1.6483374358691936E9, 0.0, 2022-03-26 18:30:35.869
70.0, 532.3953281422146, 76.26964974636212, 841.9057085751556, 366.6467020059936, -0.03200000151991844, 0.35200001671910286, 0.9600000455975533, 0.0, 0.0, 0.0, 0.0, 0.0, 1.6483374358691936E9, 0.0, 2022-03-26 18:30:35.869
71.0, 563.1784446774982, 93.96311643673107, 866.0766819887795, 407.53128832159564, -0.03200000151991844, 0.3840000182390213, 0.9600000455975533, 0.0, 0.0, 0.0, 0.0, 0.0, 1.6483374358813405E9, 0.0, 2022-03-26 18:30:35.881
71.0, 556.8355743526481, 90.23817608086392, 853.1515877419151, 382.2420848212205, -0.03200000151991844, 0.3840000182390213, 0.9600000455975533, 0.0, 0.0, 0.0, 0.0, 0.0, 1.6483374358813405E9, 0.0, 2022-03-26 18:30:35.881
72.0, 543.9852781048976, 73.5731818783097, 831.8453776943497, 381.1238547344692, -0.06400000303983688, 0.3840000182390213, 0.9600000455975533, 0.0, 0.0, 0.0, 0.0, 0.0, 1.648337435897081E9, 0.0, 2022-03-26 18:30:35.897
