%OpenBCI Raw EEG Data
%Number of channels = 4
%Sample Rate = 200 Hz
%Board = OpenBCI_GUI$BoardGanglionBLE
Sample Index, EXG Channel 0, EXG Channel 1, EXG Channel 2, EXG Channel 3, Accel Channel 0, Accel Channel 1, Accel Channel 2, Other, Other, Other, Other, Other, Timestamp, Other, Timestamp (Formatted)
4.0, -28.419499763287604, -1.0247325878590345, 2.371096571907401, -15.3036706186831, 0.0, 0.0, 0.0, 0.0, 0.0, 0.0, 0.0, 0.0, 1.6480848971723912E9, 0.0, 2022-03-23 20:21:37.172
4.0, -7.977206605486572, -5.830504030920565, -3.896975753828883, -11.6722277617082, 0.0, 0.0, 0.0, 0.0, 0.0, 0.0, 0.0, 0.0, 1.6480848971723912E9, 0.0, 2022-03-23 20:21:37.172
5.0, -17.831842988729477, -3.5192458583042026, -3.335990760475397, -7.113289715722203, 0.0, 0.0, 0.0, 0.0, 0.0, 0.0, 0.0, 0.0, 1.6480848971861393E9, 0.0, 2022-03-23 20:21:37.186
5.0, -41.50914960820228, -15.475706016644835, -6.963693717494607, -25.539776797406375, 0.0, 0.0, 0.0, 0.0, 0.0, 0.0, 0.0, 0.0, 1.6480848971861393E9, 0.0, 2022-03-23 20:21:37.186
6.0, -11.859222759492695, -13.011111945845187, -0.766679490916431, -15.909534411504865, 0.0, 0.0, 0.0, 0.0, 0.0, 0.0, 0.0, 0.0, 1.648084897201723E9, 0.0, 2022-03-23 20:21:37.201
6.0, -10.673674473538995, -11.485232763923705, 3.171435162425041, -11.201000367291272, 0.0, 0.0, 0.0, 0.0, 0.0, 0.0, 0.0, 0.0, 1.648084897201723E9, 0.0, 2022-03-23 20:21:37.201
7.0, -21.994351639412344, 1.7502731792628765, 13.501038840040565, -6.638322421349585, 0.0, 0.0, 0.0, 0.0, 0.0, 0.0, 0.0, 0.0, 1.6480848972024684E9, 0.0, 2022-03-23 20:21:37.202
7.0, -29.949118845164776, -21.919553640298545, -2.060684875585139, -21.407187346369028, 0.0, 0.0, 0.0, 0.0, 0.0, 0.0, 0.0, 0.0, 1.6480848972024684E9, 0.0, 2022-03-23 20:21:37.202
8.0, 0.8676567897200584, -16.182547108270228, 2.9657406648620963, -0.927495189011097, 0.0, 0.0, 0.0, 0.0, 0.0, 0.0, 0.0, 0.0, 1.64808489721607E9, 0.0, 2022-03-23 20:21:37.216
8.0, -11.754505560733378, -11.156121567822993, 7.936067705973983, -2.8834628658369184, 0.0, 0.0, 0.0, 0.0, 0.0, 0.0, 0.0, 0.0, 1.64808489721607E9, 0.0, 2022-03-23 20:21:37.216
9.0, -35.211158082820475, -20.95839935168624, -5.860423230566084, -23.224778724834323, 0.0, 0.0, 0.0, 0.0, 0.0, 0.0, 0.0, 0.0, 1.6480848972319045E9, 0.0, 2022-03-23 20:21:37.231
9.0, -9.966833381913602, -21.26133124809712, -3.5641246577724814, -11.593689862638712, 0.0, 0.0, 0.0, 0.0, 0.0, 0.0, 0.0, 0.0, 1.6480848972319045E9, 0.0, 2022-03-23 20:21:37.231
10.0, -29.115121155045927, -25.457498998381197, -3.425748359411955, -24.95635240431875, 0.0, 0.0, 0.6400000303983688, 0.0, 0.0, 0.0, 0.0, 0.0, 1.6480848972325284E9, 0.0, 2022-03-23 20:21:37.232
10.0, -39.646679430268705, -25.453759098425508, -5.116183139383793, -18.4900653809309, 0.0, 0.0, 0.6400000303983688, 0.0, 0.0, 0.0, 0.0, 0.0, 1.6480848972325284E9, 0.0, 2022-03-23 20:21:37.232
11.0, -16.5640169037506, -20.16554056107998, -8.339976901188493, -4.854390142485499, 0.0, 0.6560000311583281, 0.6400000303983688, 0.0, 0.0, 0.0, 0.0, 0.0, 1.6480848972460763E9, 0.0, 2022-03-23 20:21:37.246
11.0, -12.569803751073778, -17.75330508965999, -4.906748741865158, -10.512858775444329, 0.0, 0.6560000311583281, 0.6400000303983688, 0.0, 0.0, 0.0, 0.0, 0.0, 1.6480848972460763E9, 0.0, 2022-03-23 20:21:37.246
12.0, -33.27015000581741, -19.425040369853377, -10.344563277438283, -26.14190069027245, -0.4800000227987766, 0.6560000311583281, 0.6400000303983688, 0.0, 0.0, 0.0, 0.0, 0.0, 1.6480848972617805E9, 0.0, 2022-03-23 20:21:37.261
12.0, -25.42383989877999, -20.08700266201049, -2.569311269558966, -19.645694467239082, -0.4800000227987766, 0.6560000311583281, 0.6400000303983688, 0.0, 0.0, 0.0, 0.0, 0.0, 1.6480848972617805E9, 0.0, 2022-03-23 20:21:37.261
13.0, -9.925694482401013, -21.055636750534177, -5.5350519344210625, -14.263978431001306, -0.4800000227987766, 0.6560000311583281, 0.6400000303983688, 0.0, 0.0, 0.0, 0.0, 0.0, 1.6480848972626123E9, 0.0, 2022-03-23 20:21:37.262
13.0, -26.489711386151612, -22.301023435778916, -3.4369680592790246, -26.755244283005595, -0.4800000227987766, 0.6560000311583281, 0.6400000303983688, 0.0, 0.0, 0.0, 0.0, 0.0, 1.6480848972626123E9, 0.0, 2022-03-23 20:21:37.262
14.0, -28.651373560540378, -17.502731792628765, 4.663655244745314, -23.426733322441578, -0.4800000227987766, 0.6560000311583281, 0.6400000303983688, 0.0, 0.0, 0.0, 0.0, 0.0, 1.6480848972761035E9, 0.0, 2022-03-23 20:21:37.276
14.0, -5.437814535573125, -20.255298160016537, -1.0957906870171428, -7.876229306682944, -0.4800000227987766, 0.6560000311583281, 0.6400000303983688, 0.0, 0.0, 0.0, 0.0, 0.0, 1.6480848972761035E9, 0.0, 2022-03-23 20:21:37.276
15.0, -14.148041532374918, -11.952720258384943, 3.7997383549809456, -9.405848388560116, -0.4800000227987766, 0.6560000311583281, 0.6400000303983688, 0.0, 0.0, 0.0, 0.0, 0.0, 1.6480848972916903E9, 0.0, 2022-03-23 20:21:37.291
15.0, -37.43639855645597, -17.66728739067912, -2.2775990730151534, -26.485971486195922, -0.4800000227987766, 0.6560000311583281, 0.6400000303983688, 0.0, 0.0, 0.0, 0.0, 0.0, 1.6480848972916903E9, 0.0, 2022-03-23 20:21:37.291
16.0, -5.363016536459327, -6.45132742356509, 3.5603847578167915, -12.711919949389994, -0.4800000227987766, 0.6560000311583281, 0.6400000303983688, 0.0, 0.0, 0.0, 0.0, 0.0, 1.64808489729246E9, 0.0, 2022-03-23 20:21:37.292
16.0, -8.46339359972626, -10.610096174292266, -3.938114653341472, -7.008572516962886, -0.4800000227987766, 0.6560000311583281, 0.6400000303983688, 0.0, 0.0, 0.0, 0.0, 0.0, 1.64808489729246E9, 0.0, 2022-03-23 20:21:37.292
17.0, -29.159999954514205, -11.990119257941842, -6.2194536263123155, -12.214513255283237, -0.4800000227987766, 0.6560000311583281, 0.6400000303983688, 0.0, 0.0, 0.0, 0.0, 0.0, 1.6480848973061116E9, 0.0, 2022-03-23 20:21:37.306
17.0, -23.987718315795064, -11.171081167645752, -2.745086567476392, -14.204140031710267, -0.4800000227987766, 0.6560000311583281, 0.6400000303983688, 0.0, 0.0, 0.0, 0.0, 0.0, 1.6480848973061116E9, 0.0, 2022-03-23 20:21:37.306
18.0, -6.511165822856128, -17.76826468948275, 3.466887258924544, -3.7959984550252557, -0.4800000227987766, 0.6560000311583281, 0.6400000303983688, 0.0, 0.0, 0.0, 0.0, 0.0, 1.6480848973218043E9, 0.0, 2022-03-23 20:21:37.321
18.0, -30.338068440556526, -27.518183873966336, -13.28786454256624, -22.20378603693098, -0.4800000227987766, 0.6560000311583281, 0.6400000303983688, 0.0, 0.0, 0.0, 0.0, 0.0, 1.6480848973218043E9, 0.0, 2022-03-23 20:21:37.321
19.0, -36.76321656443179, -16.86320890020579, -14.121862232685089, -23.77080411836505, -0.4800000227987766, 0.6560000311583281, 0.6400000303983688, 0.0, 0.0, 0.0, 0.0, 0.0, 1.6480848973224804E9, 0.0, 2022-03-23 20:21:37.322
19.0, 0.7853789906948805, -10.576437074691057, 4.84691034257412, -6.731819920241833, -0.4800000227987766, 0.6560000311583281, 0.6400000303983688, 0.0, 0.0, 0.0, 0.0, 0.0, 1.6480848973224804E9, 0.0, 2022-03-23 20:21:37.322
20.0, -21.32490954734385, -11.739545960910618, 7.954767205752432, -8.609249697998166, -0.4800000227987766, 0.6560000311583281, 0.6400000303983688, 0.0, 0.0, 0.0, 0.0, 0.0, 1.6480848973360915E9, 0.0, 2022-03-23 20:21:37.336
20.0, -30.54002303816378, -19.66813386697322, 6.013759128749371, -19.398861070163548, -0.4800000227987766, 0.6560000311583281, 0.6400000303983688, 0.0, 0.0, 0.0, 0.0, 0.0, 1.6480848973360915E9, 0.0, 2022-03-23 20:21:37.336
21.0, -9.701300485059619, -22.828349329531193, 5.430334735661745, -12.749318948946893, -0.4800000227987766, 0.6560000311583281, 0.6400000303983688, 0.0, 0.0, 0.0, 0.0, 0.0, 1.648084897351766E9, 0.0, 2022-03-23 20:21:37.351
21.0, -13.976006134413183, -21.201492848806083, 6.387749124318361, -7.9884263053536415, -0.4800000227987766, 0.6560000311583281, 0.6400000303983688, 0.0, 0.0, 0.0, 0.0, 0.0, 1.648084897351766E9, 0.0, 2022-03-23 20:21:37.351
22.0, -29.37691415194422, -23.41177372261882, 3.6015236573293805, -14.750165425240993, -0.4800000227987766, 0.6560000311583281, 0.6400000303983688, 0.0, 0.0, 0.0, 0.0, 0.0, 1.6480848973525002E9, 0.0, 2022-03-23 20:21:37.352
22.0, -20.8611619528383, -15.344809518195689, 7.9098884062841535, -10.172527879476547, -0.4800000227987766, 0.6560000311583281, 0.6400000303983688, 0.0, 0.0, 0.0, 0.0, 0.0, 1.6480848973525002E9, 0.0, 2022-03-23 20:21:37.352
23.0, 1.0359522877261043, -13.370142341591418, 4.3270642487332225, 1.929788377135992, -0.4800000227987766, 0.6560000311583281, 0.6400000303983688, 0.0, 0.0, 0.0, 0.0, 0.0, 1.648084897366078E9, 0.0, 2022-03-23 20:21:37.366
23.0, -11.877922259271145, -12.192073855549097, 20.662947255186737, -2.329957672394812, -0.4800000227987766, 0.6560000311583281, 0.6400000303983688, 0.0, 0.0, 0.0, 0.0, 0.0, 1.648084897366078E9, 0.0, 2022-03-23 20:21:37.366
24.0, -26.291496688500047, -9.005679093301296, 18.804216977208853, -7.730373208411038, -0.4800000227987766, 0.6560000311583281, 0.6400000303983688, 0.0, 0.0, 0.0, 0.0, 0.0, 1.648084897381836E9, 0.0, 2022-03-23 20:21:37.381
24.0, 17.065163497813046, -0.321631396189332, 31.639553625136614, 23.879261217080057, -0.4800000227987766, 0.6560000311583281, 0.6400000303983688, 0.0, 0.0, 0.0, 0.0, 0.0, 1.648084897381836E9, 0.0, 2022-03-23 20:21:37.381
25.0, -15.610342415049672, -19.062270074151456, 7.22922661434859, -7.7864717077463865, -0.4800000227987766, 0.6560000311583281, 0.6400000303983688, 0.0, 0.0, 0.0, 0.0, 0.0, 1.6480848973824737E9, 0.0, 2022-03-23 20:21:37.382
25.0, -37.73933045286685, -20.05708346236497, -5.097483639605343, -25.117168102413416, -0.4800000227987766, 0.6560000311583281, 0.6400000303983688, 0.0, 0.0, 0.0, 0.0, 0.0, 1.6480848973824737E9, 0.0, 2022-03-23 20:21:37.382
26.0, -3.130296262912452, -16.14514810871333, 9.734959584660828, -9.181454391218722, -0.4800000227987766, 0.6560000311583281, 0.6400000303983688, 0.0, 0.0, 0.0, 0.0, 0.0, 1.6480848973961768E9, 0.0, 2022-03-23 20:21:37.396
26.0, -4.757152743637562, -14.88106192369014, 7.0646710162982345, -1.1593689862638712, -0.4800000227987766, 0.6560000311583281, 0.6400000303983688, 0.0, 0.0, 0.0, 0.0, 0.0, 1.6480848973961768E9, 0.0, 2022-03-23 20:21:37.396
27.0, -40.12538662459701, -29.85188144631684, -12.816637148149312, -26.729064983315766, -0.4800000227987766, 0.6560000311583281, 0.6400000303983688, 0.0, 0.0, 0.0, 0.0, 0.0, 1.648084897411749E9, 0.0, 2022-03-23 20:21:37.411
27.0, -24.870334705337882, -25.7155520953238, -7.371342812664807, -11.043924569152296, -0.4800000227987766, 0.6560000311583281, 0.6400000303983688, 0.0, 0.0, 0.0, 0.0, 0.0, 1.648084897411749E9, 0.0, 2022-03-23 20:21:37.411
28.0, -0.22065409738570452, -27.77997687086463, -8.171681403182447, -5.680908032692969, -0.4800000227987766, 0.6560000311583281, 0.6400000303983688, 0.0, 0.0, 0.0, 0.0, 0.0, 1.6480848974124944E9, 0.0, 2022-03-23 20:21:37.412
28.0, -26.373774487525225, -22.98916502762586, -3.62396305706352, -14.660407826304436, -0.4800000227987766, 0.6560000311583281, 0.6400000303983688, 0.0, 0.0, 0.0, 0.0, 0.0, 1.6480848974124944E9, 0.0, 2022-03-23 20:21:37.412
29.0, -22.817129629664123, -14.140561732463539, 1.1743285860866308, -13.785271236672997, -0.4800000227987766, 0.6560000311583281, 0.6400000303983688, 0.0, 0.0, 0.0, 0.0, 0.0, 1.6480848974260974E9, 0.0, 2022-03-23 20:21:37.426
29.0, 3.4519276591017842, -19.069749874062836, -3.5267256582155824, -3.306071560829878, -0.4800000227987766, 0.6560000311583281, 0.6400000303983688, 0.0, 0.0, 0.0, 0.0, 0.0, 1.6480848974260974E9, 0.0, 2022-03-23 20:21:37.426
30.0, 3.496806458570063, -4.0054328525438905, 11.350596365518868, 8.811204295605421, -0.4800000227987766, 0.6560000311583281, 0.6400000303983688, 0.0, 0.0, 0.0, 0.0, 0.0, 1.6480848974417868E9, 0.0, 2022-03-23 20:21:37.441
30.0, -11.29823776613921, -8.732666396535933, 5.718307032249868, 4.080230851657689, -0.4800000227987766, 0.6560000311583281, 0.6400000303983688, 0.0, 0.0, 0.0, 0.0, 0.0, 1.6480848974417868E9, 0.0, 2022-03-23 20:21:37.441
31.0, 13.721692937426269, -3.3098114607855678, 5.21716043818742, 16.657514402642846, -0.4800000227987766, 0.6720000319182873, 0.6400000303983688, 0.0, 0.0, 0.0, 0.0, 0.0, 1.64808489744247E9, 0.0, 2022-03-23 20:21:37.442
31.0, 7.371342812664807, -8.968280093744397, 0.8377375900745392, 6.084817227907479, -0.4800000227987766, 0.6720000319182873, 0.6400000303983688, 0.0, 0.0, 0.0, 0.0, 0.0, 1.64808489744247E9, 0.0, 2022-03-23 20:21:37.442
32.0, -12.020038457587361, -4.184948050417006, 10.385702176950872, 0.40390919521450996, -0.4800000227987766, 0.6720000319182873, 0.6400000303983688, 0.0, 0.0, 0.0, 0.0, 0.0, 1.648084897456092E9, 0.0, 2022-03-23 20:21:37.456
32.0, 3.388349359855056, -7.210527114570141, 13.549657539464533, 6.42888802383095, -0.4800000227987766, 0.6720000319182873, 0.6400000303983688, 0.0, 0.0, 0.0, 0.0, 0.0, 1.648084897456092E9, 0.0, 2022-03-23 20:21:37.456
33.0, 14.619268926791847, -7.913628306239843, 7.883709106594324, 10.88310887105763, -0.4800000227987766, 0.6720000319182873, 0.6400000303983688, 0.0, 0.0, 0.0, 0.0, 0.0, 1.6480848974714987E9, 0.0, 2022-03-23 20:21:37.471
33.0, -15.658961114473641, -24.073736014775932, -6.391489024274051, -20.374974958598614, -0.4800000227987766, 0.6720000319182873, 0.6400000303983688, 0.0, 0.0, 0.0, 0.0, 0.0, 1.6480848974714987E9, 0.0, 2022-03-23 20:21:37.471
34.0, -15.917014211416245, -4.181208150461316, 6.750519420020282, -5.751966131851077, -0.4800000227987766, 0.6720000319182873, 0.6400000303983688, 0.0, 0.0, 0.0, 0.0, 0.0, 1.6480848974867897E9, 0.0, 2022-03-23 20:21:37.486
34.0, 5.363016536459327, -17.75330508965999, -5.871642930433154, -6.099776827730238, -0.4800000227987766, 0.6720000319182873, 0.6400000303983688, 0.0, 0.0, 0.0, 0.0, 0.0, 1.6480848974867897E9, 0.0, 2022-03-23 20:21:37.486
35.0, 0.11219699867069721, -8.519492099061608, 5.587410533800721, 3.021839164197445, -0.4800000227987766, 0.6720000319182873, 0.6400000303983688, 0.0, 0.0, 0.0, 0.0, 0.0, 1.6480848974875348E9, 0.0, 2022-03-23 20:21:37.487
35.0, -17.020284698344767, -14.757645225152373, 5.056344740092754, -7.5059792110696435, -0.4800000227987766, 0.6720000319182873, 0.6400000303983688, 0.0, 0.0, 0.0, 0.0, 0.0, 1.6480848974875348E9, 0.0, 2022-03-23 20:21:37.487
36.0, -0.4300884949043393, -9.016898793168366, 9.084216992370784, -11.174821067601442, -0.4800000227987766, 0.6720000319182873, 0.6400000303983688, 0.0, 0.0, 0.0, 0.0, 0.0, 1.6480848975017593E9, 0.0, 2022-03-23 20:21:37.501
36.0, 2.221500573679805, -5.194721038453281, 9.899515182711184, -2.614190069027245, -0.4800000227987766, 0.6720000319182873, 0.6400000303983688, 0.0, 0.0, 0.0, 0.0, 0.0, 1.6480848975017593E9, 0.0, 2022-03-23 20:21:37.501
37.0, -12.554844151251018, -6.481246623210609, 12.435167352668941, -1.3613235838711262, -0.4800000227987766, 0.6720000319182873, 0.6400000303983688, 0.0, 0.0, 0.0, 0.0, 0.0, 1.6480848975025003E9, 0.0, 2022-03-23 20:21:37.502
37.0, -5.3742362363263965, -3.3285109605640173, 13.549657539464533, -1.125709886662662, -0.4800000227987766, 0.6720000319182873, 0.6400000303983688, 0.0, 0.0, 0.0, 0.0, 0.0, 1.6480848975025003E9, 0.0, 2022-03-23 20:21:37.502
38.0, 14.215359731577337, -1.7427933793514967, 14.028364733792841, 10.531558275222778, -0.4800000227987766, 0.6720000319182873, 0.6400000303983688, 0.0, 0.0, 0.0, 0.0, 0.0, 1.648084897516072E9, 0.0, 2022-03-23 20:21:37.516
38.0, -5.804324731230736, -3.62770295701921, 17.024024598300457, 2.0345055758953094, -0.4800000227987766, 0.6720000319182873, 0.6400000303983688, 0.0, 0.0, 0.0, 0.0, 0.0, 1.648084897516072E9, 0.0, 2022-03-23 20:21:37.516
39.0, -18.751858377829194, -10.172527879476547, 7.543378210626543, -8.594290098175406, -0.4800000227987766, 0.6720000319182873, 0.6400000303983688, 0.0, 0.0, 0.0, 0.0, 0.0, 1.6480848975318103E9, 0.0, 2022-03-23 20:21:37.531
39.0, 19.31658327113837, -3.702500956133008, 23.168680225498974, 9.319830689579248, -0.4800000227987766, 0.6720000319182873, 0.6400000303983688, 0.0, 0.0, 0.0, 0.0, 0.0, 1.6480848975318103E9, 0.0, 2022-03-23 20:21:37.531
40.0, -4.072751051746309, -10.726033072918653, 26.044663291424513, 3.2836321610957384, -0.4800000227987766, 0.6720000319182873, 0.6400000303983688, 0.0, 0.0, 0.0, 0.0, 0.0, 1.6480848975325396E9, 0.0, 2022-03-23 20:21:37.532
40.0, -20.603108855895698, -13.355182741768658, 15.980592510662973, -2.3561369720846415, -0.4800000227987766, 0.6720000319182873, 0.6400000303983688, 0.0, 0.0, 0.0, 0.0, 0.0, 1.6480848975325396E9, 0.0, 2022-03-23 20:21:37.532
41.0, 5.078784139826894, -7.348903412930667, 16.16384760849178, 8.02956520486623, -0.4800000227987766, 0.6720000319182873, 0.6400000303983688, 0.0, 0.0, 0.0, 0.0, 0.0, 1.648084897546048E9, 0.0, 2022-03-23 20:21:37.546
41.0, 4.454220847226679, -2.9470411650836468, 20.5283108567819, -0.2730126967653632, -0.4800000227987766, 0.6720000319182873, 0.6400000303983688, 0.0, 0.0, 0.0, 0.0, 0.0, 1.648084897546048E9, 0.0, 2022-03-23 20:21:37.546
42.0, -21.223932248540223, -14.697806825861335, 11.309457466006279, -10.355782977305353, -0.4800000227987766, 0.6720000319182873, 0.6400000303983688, 0.0, 0.0, 0.0, 0.0, 0.0, 1.6480848975618358E9, 0.0, 2022-03-23 20:21:37.561
42.0, -3.896975753828883, -6.567264322191477, 17.061423597857356, 4.4878799468278885, -0.4800000227987766, 0.6720000319182873, 0.6400000303983688, 0.0, 0.0, 0.0, 0.0, 0.0, 1.6480848975618358E9, 0.0, 2022-03-23 20:21:37.561
43.0, 8.687787597067654, -7.124509415589273, 19.152027673088014, 9.099176592193544, -0.4800000227987766, 0.6720000319182873, 0.6400000303983688, 0.0, 0.0, 0.0, 0.0, 0.0, 1.6480848975624948E9, 0.0, 2022-03-23 20:21:37.562
43.0, -15.614082315005362, -13.807710636407137, 12.169634455814958, -6.331650624983013, -0.4800000227987766, 0.6720000319182873, 0.6400000303983688, 0.0, 0.0, 0.0, 0.0, 0.0, 1.6480848975624948E9, 0.0, 2022-03-23 20:21:37.562
44.0, -30.24831084161997, -22.297283535823226, -1.3762831836938858, -26.407433587126434, -0.4800000227987766, 0.6720000319182873, 0.6400000303983688, 0.0, 0.0, 0.0, 0.0, 0.0, 1.6480848975760417E9, 0.0, 2022-03-23 20:21:37.576
44.0, 6.877676018513739, -13.908687935210764, 5.4116352358832955, -0.7591996910050511, -0.4800000227987766, 0.6720000319182873, 0.6400000303983688, 0.0, 0.0, 0.0, 0.0, 0.0, 1.6480848975760417E9, 0.0, 2022-03-23 20:21:37.576
45.0, -14.349996129982173, -20.397414358332753, 2.4010157715529203, -13.942347034811974, -0.4800000227987766, 0.6720000319182873, 0.6400000303983688, 0.0, 0.0, 0.0, 0.0, 0.0, 1.6480848975918117E9, 0.0, 2022-03-23 20:21:37.591
45.0, -33.36738740466535, -21.253851448185742, 0.8152981903403997, -13.65811463817954, -0.4800000227987766, 0.6720000319182873, 0.6400000303983688, 0.0, 0.0, 0.0, 0.0, 0.0, 1.6480848975918117E9, 0.0, 2022-03-23 20:21:37.591
46.0, -4.577637545764446, -14.432273929007351, 13.70673333760351, 12.117275856435299, -0.4800000227987766, 0.6720000319182873, 0.6400000303983688, 0.0, 0.0, 0.0, 0.0, 0.0, 1.6480848975925186E9, 0.0, 2022-03-23 20:21:37.592
46.0, -8.197860702872276, -11.821823759935796, 6.327910725027323, -2.861023466102779, -0.4800000227987766, 0.6720000319182873, 0.6400000303983688, 0.0, 0.0, 0.0, 0.0, 0.0, 1.6480848975925186E9, 0.0, 2022-03-23 20:21:37.592
47.0, -27.80241627059877, -14.140561732463539, 4.472920347005129, -17.207279696129262, -0.4800000227987766, 0.6720000319182873, 0.6400000303983688, 0.0, 0.0, 0.0, 0.0, 0.0, 1.64808489760606E9, 0.0, 2022-03-23 20:21:37.606
47.0, -11.814343960024416, -9.918214682489634, 10.02667178120464, 3.0293189641088247, -0.4800000227987766, 0.6720000319182873, 0.6400000303983688, 0.0, 0.0, 0.0, 0.0, 0.0, 1.64808489760606E9, 0.0, 2022-03-23 20:21:37.606
48.0, 0.19073489774018526, -17.412974193692207, 2.778745667077601, 3.6912812562659383, -0.4800000227987766, 0.6720000319182873, 0.6400000303983688, 0.0, 0.0, 0.0, 0.0, 0.0, 1.6480848976219025E9, 0.0, 2022-03-23 20:21:37.621
48.0, -23.69974601920694, -10.247325878590345, 9.68260098528117, -4.0428318521007895, -0.4800000227987766, 0.6720000319182873, 0.6400000303983688, 0.0, 0.0, 0.0, 0.0, 0.0, 1.6480848976219025E9, 0.0, 2022-03-23 20:21:37.621
49.0, -23.79698341805488, -5.344317036680877, 7.128249315544963, -4.932928041554987, -0.4800000227987766, 0.6720000319182873, 0.6400000303983688, 0.0, 0.0, 0.0, 0.0, 0.0, 1.648084897622564E9, 0.0, 2022-03-23 20:21:37.622
49.0, 6.668241620995104, -9.734959584660828, 10.393181976862252, 10.09398998040706, -0.4800000227987766, 0.6720000319182873, 0.6400000303983688, 0.0, 0.0, 0.0, 0.0, 0.0, 1.648084897622564E9, 0.0, 2022-03-23 20:21:37.622
50.0, -11.713366661220789, -1.4211619831621647, 14.47715272847563, 5.366756436415017, -0.4800000227987766, 0.6720000319182873, 0.6240000296384096, 0.0, 0.0, 0.0, 0.0, 0.0, 1.6480848976360824E9, 0.0, 2022-03-23 20:21:37.636
50.0, -26.92727968096733, -7.984686405397952, 10.83823007158935, -12.827856848016381, -0.4800000227987766, 0.6720000319182873, 0.6240000296384096, 0.0, 0.0, 0.0, 0.0, 0.0, 1.6480848976360824E9, 0.0, 2022-03-23 20:21:37.636
51.0, 11.354336265474558, 7.962247005663812, 29.548949549905956, 18.48632548097521, -0.4800000227987766, 0.6720000319182873, 0.6240000296384096, 0.0, 0.0, 0.0, 0.0, 0.0, 1.6480848976518135E9, 0.0, 2022-03-23 20:21:37.651
51.0, 5.710827232338488, 2.8049249667674303, 22.06914963852614, 16.291004206985235, -0.4800000227987766, 0.6720000319182873, 0.6240000296384096, 0.0, 0.0, 0.0, 0.0, 0.0, 1.6480848976518135E9, 0.0, 2022-03-23 20:21:37.651
52.0, -8.605509798042476, 14.49585222825408, 30.023916844278574, 2.4047556715086102, -0.4800000227987766, 0.6720000319182873, 0.6240000296384096, 0.0, 0.0, 0.0, 0.0, 0.0, 1.6480848976524851E9, 0.0, 2022-03-23 20:21:37.652
52.0, -0.2580530969426036, 17.29703729506582, 21.631581343710423, 6.316691025160253, -0.4800000227987766, 0.6720000319182873, 0.6240000296384096, 0.0, 0.0, 0.0, 0.0, 0.0, 1.6480848976524851E9, 0.0, 2022-03-23 20:21:37.652
53.0, 7.63687570951879, 0.24309349711984396, 6.152135427109897, 12.513705251738429, -0.4800000227987766, 0.6720000319182873, 0.6240000296384096, 0.0, 0.0, 0.0, 0.0, 0.0, 1.6480848976660204E9, 0.0, 2022-03-23 20:21:37.666
53.0, -9.615282786078751, -0.321631396189332, 11.761985360644758, 5.950180829502642, -0.4800000227987766, 0.6720000319182873, 0.6240000296384096, 0.0, 0.0, 0.0, 0.0, 0.0, 1.6480848976660204E9, 0.0, 2022-03-23 20:21:37.666
54.0, -25.049849903210998, 1.7128741797059774, 6.750519420020282, -13.168187743984163, -0.4800000227987766, 0.6720000319182873, 0.6240000296384096, 0.0, 0.0, 0.0, 0.0, 0.0, 1.64808489769814E9, 0.0, 2022-03-23 20:21:37.698
54.0, 12.584763350896537, 10.744732572697103, 14.140561732463539, 3.5155059583485126, -0.4800000227987766, 0.6720000319182873, 0.6240000296384096, 0.0, 0.0, 0.0, 0.0, 0.0, 1.64808489769814E9, 0.0, 2022-03-23 20:21:37.698
55.0, -11.122462468221784, 8.190380902960896, 13.343963041901588, 0.7330203913152218, -0.4800000227987766, 0.6720000319182873, 0.6240000296384096, 0.0, 0.0, 0.0, 0.0, 0.0, 1.6480848976989255E9, 0.0, 2022-03-23 20:21:37.698
55.0, -21.3062100475654, 8.396075400523841, 15.524324716068804, 4.259746049530804, -0.4800000227987766, 0.6720000319182873, 0.6240000296384096, 0.0, 0.0, 0.0, 0.0, 0.0, 1.6480848976989255E9, 0.0, 2022-03-23 20:21:37.698
56.0, 10.583916874602437, 12.386548653244972, 25.31538280006498, 7.816390907391906, -0.4800000227987766, 0.6720000319182873, 0.6240000296384096, 0.0, 0.0, 0.0, 0.0, 0.0, 1.6480848976996932E9, 0.0, 2022-03-23 20:21:37.699
56.0, 1.0696113873273134, 8.197860702872276, 16.50791840441525, 1.0209926879033446, -0.4800000227987766, 0.6720000319182873, 0.6240000296384096, 0.0, 0.0, 0.0, 0.0, 0.0, 1.6480848976996932E9, 0.0, 2022-03-23 20:21:37.699
57.0, -17.506471692584455, 13.302824142389, 24.92269330471754, 5.2246402380988, -0.4800000227987766, 0.6720000319182873, 0.6240000296384096, 0.0, 0.0, 0.0, 0.0, 0.0, 1.6480848977004852E9, 0.0, 2022-03-23 20:21:37.700
57.0, -4.158768750727177, 18.09737588558346, 27.248911077156663, 5.785625231452286, -0.4800000227987766, 0.6720000319182873, 0.6240000296384096, 0.0, 0.0, 0.0, 0.0, 0.0, 1.6480848977004852E9, 0.0, 2022-03-23 20:21:37.700
58.0, 2.662808768451214, 2.81240476667881, 11.791904560290277, 2.81988456659019, -0.4800000227987766, 0.6720000319182873, 0.6240000296384096, 0.0, 0.0, 0.0, 0.0, 0.0, 1.64808489771119E9, 0.0, 2022-03-23 20:21:37.711
58.0, -34.22008459456265, -7.090850315988064, -3.5603847578167915, -18.14225468505174, -0.4800000227987766, 0.6720000319182873, 0.6240000296384096, 0.0, 0.0, 0.0, 0.0, 0.0, 1.64808489771119E9, 0.0, 2022-03-23 20:21:37.711
59.0, -30.2370911417529, 4.865609842352569, 3.0891573633998632, -14.570650227367878, -0.4800000227987766, 0.6720000319182873, 0.6240000296384096, 0.0, 0.0, 0.0, 0.0, 0.0, 1.6480848977260628E9, 0.0, 2022-03-23 20:21:37.726
59.0, 2.0382454758509994, 3.814697954803705, 5.467733735218644, 5.8978222301229835, -0.4800000227987766, 0.6720000319182873, 0.6240000296384096, 0.0, 0.0, 0.0, 0.0, 0.0, 1.6480848977260628E9, 0.0, 2022-03-23 20:21:37.726
60.0, -18.987472075037658, 6.369049624539912, 11.515151963569224, -2.580530969426036, -0.4800000227987766, 0.6720000319182873, 0.6240000296384096, 0.0, 0.0, 0.0, 0.0, 0.0, 1.648084897741874E9, 0.0, 2022-03-23 20:21:37.741
60.0, -27.596721773035824, 22.15142743755132, 19.114628673531115, 0.321631396189332, -0.4800000227987766, 0.6720000319182873, 0.6240000296384096, 0.0, 0.0, 0.0, 0.0, 0.0, 1.648084897741874E9, 0.0, 2022-03-23 20:21:37.741
61.0, 0.8713966896757483, 19.914967264048755, 23.897960716858506, 10.673674473538995, -0.4800000227987766, 0.6720000319182873, 0.6240000296384096, 0.0, 0.0, 0.0, 0.0, 0.0, 1.648084897742482E9, 0.0, 2022-03-23 20:21:37.742
61.0, -1.7390534793958068, 25.857668293640018, 28.008110768161714, 14.005925334058702, -0.4800000227987766, 0.6720000319182873, 0.6240000296384096, 0.0, 0.0, 0.0, 0.0, 0.0, 1.648084897742482E9, 0.0, 2022-03-23 20:21:37.742
62.0, -21.7886571418494, 19.941146563738585, 25.577175796963274, -0.7442400911822915, -0.4800000227987766, 0.6720000319182873, 0.6240000296384096, 0.0, 0.0, 0.0, 0.0, 0.0, 1.6480848977561154E9, 0.0, 2022-03-23 20:21:37.756
62.0, -12.536144651472569, 15.169034220278263, 24.477645209990442, -4.697314344346523, -0.4800000227987766, 0.6720000319182873, 0.6240000296384096, 0.0, 0.0, 0.0, 0.0, 0.0, 1.6480848977561154E9, 0.0, 2022-03-23 20:21:37.756
63.0, -0.7105809915810823, 12.89143514726311, 20.54701035656035, -0.7442400911822915, -0.4800000227987766, 0.6720000319182873, 0.6240000296384096, 0.0, 0.0, 0.0, 0.0, 0.0, 1.64808489777183E9, 0.0, 2022-03-23 20:21:37.771
63.0, -20.18797996081412, 19.28292417153716, 21.635321243666112, -6.42888802383095, -0.4800000227987766, 0.6720000319182873, 0.6240000296384096, 0.0, 0.0, 0.0, 0.0, 0.0, 1.64808489777183E9, 0.0, 2022-03-23 20:21:37.771
64.0, -27.634120772592723, 20.741485154256225, 28.400800263509154, -4.293405149132013, -0.4800000227987766, 0.6720000319182873, 0.6240000296384096, 0.0, 0.0, 0.0, 0.0, 0.0, 1.6480848977725587E9, 0.0, 2022-03-23 20:21:37.772
64.0, 7.049711416475475, 22.08036933839321, 30.083755243569613, 9.903255082666874, -0.4800000227987766, 0.6720000319182873, 0.6240000296384096, 0.0, 0.0, 0.0, 0.0, 0.0, 1.6480848977725587E9, 0.0, 2022-03-23 20:21:37.772
65.0, -8.654128497466445, 21.437106546014547, 21.171573649160564, -4.43178144749254, -0.4800000227987766, 0.6720000319182873, 0.6240000296384096, 0.0, 0.0, 0.0, 0.0, 0.0, 1.6480848977861395E9, 0.0, 2022-03-23 20:21:37.786
65.0, -23.030303927138448, 27.091835279017687, 20.58814925607294, -2.782485567033291, -0.4800000227987766, 0.6720000319182873, 0.6240000296384096, 0.0, 0.0, 0.0, 0.0, 0.0, 1.6480848977861395E9, 0.0, 2022-03-23 20:21:37.786
66.0, -2.700207768008113, 20.1206617616117, 22.241185036487877, 5.8155444310978055, -0.4800000227987766, 0.6720000319182873, 0.6240000296384096, 0.0, 0.0, 0.0, 0.0, 0.0, 1.6480848978018172E9, 0.0, 2022-03-23 20:21:37.801
66.0, -15.920754111371934, 16.635075002908707, 10.165048079565167, -0.1570757981389761, -0.4800000227987766, 0.6720000319182873, 0.6240000296384096, 0.0, 0.0, 0.0, 0.0, 0.0, 1.6480848978018172E9, 0.0, 2022-03-23 20:21:37.801
67.0, -32.30525581724942, 6.638322421349585, 9.001939193345606, -8.549411298707128, -0.4800000227987766, 0.6720000319182873, 0.6240000296384096, 0.0, 0.0, 0.0, 0.0, 0.0, 1.6480848978024912E9, 0.0, 2022-03-23 20:21:37.802
67.0, -24.010157715529203, 3.855836854316294, 13.882508635520935, -5.6547287330031395, -0.4800000227987766, 0.6720000319182873, 0.6240000296384096, 0.0, 0.0, 0.0, 0.0, 0.0, 1.6480848978024912E9, 0.0, 2022-03-23 20:21:37.802
68.0, -3.388349359855056, 13.946086934767663, 16.55653710383922, 6.8552366187796, -0.4800000227987766, 0.6720000319182873, 0.6240000296384096, 0.0, 0.0, 0.0, 0.0, 0.0, 1.6480848978160815E9, 0.0, 2022-03-23 20:21:37.816
68.0, -43.618453183211386, -0.4113889951258898, 0.7367602912709117, -25.68937279563397, -0.4800000227987766, 0.6720000319182873, 0.6240000296384096, 0.0, 0.0, 0.0, 0.0, 0.0, 1.6480848978160815E9, 0.0, 2022-03-23 20:21:37.816
69.0, -37.38030005712062, 6.683201220817864, 8.553151198662817, -8.657868397422135, -0.4800000227987766, 0.6720000319182873, 0.6240000296384096, 0.0, 0.0, 0.0, 0.0, 0.0, 1.6480848978318136E9, 0.0, 2022-03-23 20:21:37.831
69.0, -10.669934573583305, 5.938961129635572, -0.7479799911379814, -2.6665486684069037, -0.4800000227987766, 0.6720000319182873, 0.6240000296384096, 0.0, 0.0, 0.0, 0.0, 0.0, 1.6480848978318136E9, 0.0, 2022-03-23 20:21:37.831
70.0, -28.340961864218116, 6.167095026932657, -3.2387533616274595, -13.729172737337649, -0.4800000227987766, 0.6720000319182873, 0.6240000296384096, 0.0, 0.0, 0.0, 0.0, 0.0, 1.6480848978324797E9, 0.0, 2022-03-23 20:21:37.832
70.0, -44.25423617567867, 6.675721420906484, 2.580530969426036, -19.963585963472724, -0.4800000227987766, 0.6720000319182873, 0.6240000296384096, 0.0, 0.0, 0.0, 0.0, 0.0, 1.6480848978324797E9, 0.0, 2022-03-23 20:21:37.832
71.0, -22.319722935557365, 7.019792216829956, 1.2416467852890491, -6.44010772369802, -0.4800000227987766, 0.6720000319182873, 0.6240000296384096, 0.0, 0.0, 0.0, 0.0, 0.0, 1.6480848978461483E9, 0.0, 2022-03-23 20:21:37.846
71.0, -28.307302764616907, 3.904455553740263, 1.7240938795730472, -10.015452081337571, -0.4800000227987766, 0.6720000319182873, 0.6240000296384096, 0.0, 0.0, 0.0, 0.0, 0.0, 1.6480848978461483E9, 0.0, 2022-03-23 20:21:37.846
72.0, -47.62388603575528, 5.916521729901433, -1.9821469765156507, -23.3070565238595, -0.4800000227987766, 0.6720000319182873, 0.6240000296384096, 0.0, 0.0, 0.0, 0.0, 0.0, 1.6480848978617373E9, 0.0, 2022-03-23 20:21:37.861
72.0, -41.99159670248628, 1.9559676768258214, -2.3187379725277424, -23.213559024967253, -0.4800000227987766, 0.6720000319182873, 0.6240000296384096, 0.0, 0.0, 0.0, 0.0, 0.0, 1.6480848978617373E9, 0.0, 2022-03-23 20:21:37.861
73.0, -29.73220464773476, -10.89058867096901, -9.951873782090843, -16.09652940928936, -0.4800000227987766, 0.6720000319182873, 0.6240000296384096, 0.0, 0.0, 0.0, 0.0, 0.0, 1.6480848978624897E9, 0.0, 2022-03-23 20:21:37.862
73.0, -50.77662169840187, -9.203893790952861, -18.95381297543645, -24.746918006800115, -0.4800000227987766, 0.6720000319182873, 0.6240000296384096, 0.0, 0.0, 0.0, 0.0, 0.0, 1.6480848978624897E9, 0.0, 2022-03-23 20:21:37.862
74.0, -61.10622537601739, -7.001092717051506, -2.2252404736354947, -34.0891880961135, -0.4800000227987766, 0.6720000319182873, 0.6240000296384096, 0.0, 0.0, 0.0, 0.0, 0.0, 1.6480848978761382E9, 0.0, 2022-03-23 20:21:37.876
74.0, -24.260731012560427, -1.649295880459249, 6.4475875236094, -12.4875259520486, -0.4800000227987766, 0.6720000319182873, 0.6240000296384096, 0.0, 0.0, 0.0, 0.0, 0.0, 1.6480848978761382E9, 0.0, 2022-03-23 20:21:37.876
75.0, -32.46607151534408, -3.7324201557785273, 13.467379740439355, -5.61732973344624, -0.4800000227987766, 0.6720000319182873, 0.6240000296384096, 0.0, 0.0, 0.0, 0.0, 0.0, 1.6480848979080896E9, 0.0, 2022-03-23 20:21:37.908
75.0, -47.57526733633131, 3.2387533616274595, 23.00786452740431, -7.685494408942759, -0.4800000227987766, 0.6720000319182873, 0.6240000296384096, 0.0, 0.0, 0.0, 0.0, 0.0, 1.6480848979080896E9, 0.0, 2022-03-23 20:21:37.908
76.0, -18.48258558101952, 1.7353135794401169, 29.197398954071105, 2.9246017653495073, -0.4800000227987766, 0.6720000319182873, 0.6240000296384096, 0.0, 0.0, 0.0, 0.0, 0.0, 1.64808489790883E9, 0.0, 2022-03-23 20:21:37.908
76.0, -20.14684106130153, -2.1504424745216966, 26.373774487525225, -2.292558672837913, -0.4800000227987766, 0.6720000319182873, 0.6240000296384096, 0.0, 0.0, 0.0, 0.0, 0.0, 1.64808489790883E9, 0.0, 2022-03-23 20:21:37.908
77.0, -35.10644088406116, 7.902408606372774, 33.51698340289295, -2.9919199645519257, -0.4800000227987766, 0.6720000319182873, 0.6240000296384096, 0.0, 0.0, 0.0, 0.0, 0.0, 1.6480848979095707E9, 0.0, 2022-03-23 20:21:37.909
77.0, -33.44966520369053, 2.7862254669889808, 28.819669058546424, -0.1533358981832862, -0.4800000227987766, 0.6720000319182873, 0.6240000296384096, 0.0, 0.0, 0.0, 0.0, 0.0, 1.6480848979095707E9, 0.0, 2022-03-23 20:21:37.909
78.0, -16.190026908181608, 6.2194536263123155, 31.908826421946287, 7.62939590960741, -0.4800000227987766, 0.6720000319182873, 0.6240000296384096, 0.0, 0.0, 0.0, 0.0, 0.0, 1.6480848979103768E9, 0.0, 2022-03-23 20:21:37.910
78.0, -23.972758715972304, 15.161554420366883, 36.5350826671347, 9.708780284970999, -0.4800000227987766, 0.6720000319182873, 0.6240000296384096, 0.0, 0.0, 0.0, 0.0, 0.0, 1.6480848979103768E9, 0.0, 2022-03-23 20:21:37.910
79.0, -41.681185006164014, 5.718307032249868, 25.34156209975481, -6.462547123432159, -0.4800000227987766, 0.6720000319182873, 0.6240000296384096, 0.0, 0.0, 0.0, 0.0, 0.0, 1.648084897921103E9, 0.0, 2022-03-23 20:21:37.921
79.0, -26.19051938969642, -4.3270642487332225, 17.861762188374996, -7.491019611246884, -0.4800000227987766, 0.6720000319182873, 0.6240000296384096, 0.0, 0.0, 0.0, 0.0, 0.0, 1.648084897921103E9, 0.0, 2022-03-23 20:21:37.921
80.0, -42.52266249619424, -7.356383212842047, 15.449526716955006, -17.424193893559277, -0.4800000227987766, 0.6720000319182873, 0.6240000296384096, 0.0, 0.0, 0.0, 0.0, 0.0, 1.6480848979361036E9, 0.0, 2022-03-23 20:21:37.936
80.0, -38.74910344090313, 17.626148491166532, 37.81038855202496, -2.1841015741229057, -0.4800000227987766, 0.6720000319182873, 0.6240000296384096, 0.0, 0.0, 0.0, 0.0, 0.0, 1.6480848979361036E9, 0.0, 2022-03-23 20:21:37.936
81.0, -17.816883388906717, 9.746179284527898, 31.76671022363007, 6.746779520064592, -0.4800000227987766, 0.6720000319182873, 0.6240000296384096, 0.0, 0.0, 0.0, 0.0, 0.0, 1.6480848979519105E9, 0.0, 2022-03-23 20:21:37.951
81.0, -16.14140820875764, 14.619268926791847, 39.12683333642781, 19.914967264048755, -0.4800000227987766, 0.6720000319182873, 0.6240000296384096, 0.0, 0.0, 0.0, 0.0, 0.0, 1.6480848979519105E9, 0.0, 2022-03-23 20:21:37.951
82.0, -37.96746435016394, 16.5640169037506, 43.07242778968066, 0.7405001912266016, -0.4800000227987766, 0.6720000319182873, 0.6240000296384096, 0.0, 0.0, 0.0, 0.0, 0.0, 1.648084897952633E9, 0.0, 2022-03-23 20:21:37.952
82.0, -30.92523273359984, 12.09483645670116, 39.35496723372489, 5.071304339915514, -0.4800000227987766, 0.6720000319182873, 0.6240000296384096, 0.0, 0.0, 0.0, 0.0, 0.0, 1.648084897952633E9, 0.0, 2022-03-23 20:21:37.952
83.0, -17.547610592097044, 7.016052316874266, 30.783116535283625, 9.203893790952861, -0.4800000227987766, 0.6720000319182873, 0.6240000296384096, 0.0, 0.0, 0.0, 0.0, 0.0, 1.6480848979660788E9, 0.0, 2022-03-23 20:21:37.966
83.0, -36.14239317178726, 5.751966131851077, 30.52506343834102, -0.35155059583485126, -0.4800000227987766, 0.6720000319182873, 0.6240000296384096, 0.0, 0.0, 0.0, 0.0, 0.0, 1.6480848979660788E9, 0.0, 2022-03-23 20:21:37.966
84.0, -53.66756436415017, -3.8446171544492245, 22.042970338836312, -14.810003824532032, -0.4800000227987766, 0.6720000319182873, 0.6240000296384096, 0.0, 0.0, 0.0, 0.0, 0.0, 1.648084897982015E9, 0.0, 2022-03-23 20:21:37.982
84.0, -20.322616359218955, -1.1855482859537005, 17.465332793071866, -1.6418160805478692, -0.4800000227987766, 0.6720000319182873, 0.6240000296384096, 0.0, 0.0, 0.0, 0.0, 0.0, 1.648084897982015E9, 0.0, 2022-03-23 20:21:37.982
85.0, -37.33168135769665, -4.001692952588201, 14.952120022848248, -5.351796836592257, -0.4800000227987766, 0.6720000319182873, 0.6240000296384096, 0.0, 0.0, 0.0, 0.0, 0.0, 1.6480848979825203E9, 0.0, 2022-03-23 20:21:37.982
85.0, -57.08209302369505, -6.062377828173339, 15.793597512878478, -16.87816850002855, -0.4800000227987766, 0.6720000319182873, 0.6240000296384096, 0.0, 0.0, 0.0, 0.0, 0.0, 1.6480848979825203E9, 0.0, 2022-03-23 20:21:37.982
86.0, -25.7903500944376, 1.4810003824532032, 23.28835702408105, -1.7652327790856361, -0.4800000227987766, 0.6720000319182873, 0.6240000296384096, 0.0, 0.0, 0.0, 0.0, 0.0, 1.6480848979960237E9, 0.0, 2022-03-23 20:21:37.996
86.0, -30.020176944322884, 2.449634470976889, 26.9758983803913, 4.121369751170278, -0.4800000227987766, 0.6720000319182873, 0.6240000296384096, 0.0, 0.0, 0.0, 0.0, 0.0, 1.6480848979960237E9, 0.0, 2022-03-23 20:21:37.996
87.0, -56.47996913082898, -6.671981520950794, 14.783824524842203, -13.69925353769213, -0.4800000227987766, 0.6720000319182873, 0.6240000296384096, 0.0, 0.0, 0.0, 0.0, 0.0, 1.64808489801187E9, 0.0, 2022-03-23 20:21:38.011
87.0, -42.896652491763234, -6.174574826844037, 20.11692186165601, -10.628795674070716, -0.4800000227987766, 0.6720000319182873, 0.6240000296384096, 0.0, 0.0, 0.0, 0.0, 0.0, 1.64808489801187E9, 0.0, 2022-03-23 20:21:38.011
88.0, -14.252758731134236, 5.6958676325157285, 27.843555170111358, 9.454467087984085, -0.4800000227987766, 0.6720000319182873, 0.6240000296384096, 0.0, 0.0, 0.0, 0.0, 0.0, 1.6480848980125065E9, 0.0, 2022-03-23 20:21:38.012
88.0, -56.37525193206966, -17.442893393337727, 3.8109580548480153, -21.478245445527136, -0.4800000227987766, 0.6720000319182873, 0.6240000296384096, 0.0, 0.0, 0.0, 0.0, 0.0, 1.6480848980125065E9, 0.0, 2022-03-23 20:21:38.012
89.0, -55.709549739956856, -7.64061560947448, 12.723139649257064, -17.031504398211837, -0.4800000227987766, 0.6720000319182873, 0.6240000296384096, 0.0, 0.0, 0.0, 0.0, 0.0, 1.6480848980260124E9, 0.0, 2022-03-23 20:21:38.026
89.0, -25.532296997494996, 1.7166140796616673, 21.242631748318672, 3.130296262912452, -0.4800000227987766, 0.6720000319182873, 0.6240000296384096, 0.0, 0.0, 0.0, 0.0, 0.0, 1.6480848980260124E9, 0.0, 2022-03-23 20:21:38.026
90.0, -32.16687951888889, 4.054051551967859, 21.657760643400252, 4.379422848112881, -0.4800000227987766, 0.6720000319182873, 0.6400000303983688, 0.0, 0.0, 0.0, 0.0, 0.0, 1.6480848980417604E9, 0.0, 2022-03-23 20:21:38.041
90.0, -50.65694489981979, -0.08975759893655777, 23.849342017434537, -11.29075796622783, -0.4800000227987766, 0.6720000319182873, 0.6400000303983688, 0.0, 0.0, 0.0, 0.0, 0.0, 1.6480848980417604E9, 0.0, 2022-03-23 20:21:38.041
91.0, -32.402493216097355, -5.875382830388844, 10.87936897110194, -4.356983448378742, -0.4800000227987766, 0.6720000319182873, 0.6400000303983688, 0.0, 0.0, 0.0, 0.0, 0.0, 1.648084898042647E9, 0.0, 2022-03-23 20:21:38.042
91.0, -32.61940741352737, -5.6958676325157285, 7.846310107037425, 0.22813389729708433, -0.4800000227987766, 0.6720000319182873, 0.6400000303983688, 0.0, 0.0, 0.0, 0.0, 0.0, 1.648084898042647E9, 0.0, 2022-03-23 20:21:38.042
92.0, -63.021054153330624, -18.377868382260203, -3.9268949534744024, -18.198353184387088, -0.4800000227987766, 0.6720000319182873, 0.6400000303983688, 0.0, 0.0, 0.0, 0.0, 0.0, 1.6480848980561645E9, 0.0, 2022-03-23 20:21:38.056
92.0, -44.085940677672625, -6.922554817982018, 4.472920347005129, -12.977452846243978, -0.4800000227987766, 0.6720000319182873, 0.6400000303983688, 0.0, 0.0, 0.0, 0.0, 0.0, 1.6480848980561645E9, 0.0, 2022-03-23 20:21:38.056
93.0, -34.97180448565632, -11.70214696135372, 5.680908032692969, -6.911335118114948, -0.4800000227987766, 0.6720000319182873, 0.6400000303983688, 0.0, 0.0, 0.0, 0.0, 0.0, 1.6480848980717363E9, 0.0, 2022-03-23 20:21:38.071
93.0, -68.39529038965702, -24.372928011231124, -10.88310887105763, -27.488264674320817, -0.4800000227987766, 0.6720000319182873, 0.6400000303983688, 0.0, 0.0, 0.0, 0.0, 0.0, 1.6480848980717363E9, 0.0, 2022-03-23 20:21:38.071
94.0, -59.67384369298816, -9.562924186699092, 4.102670251391828, -23.987718315795064, -0.4800000227987766, 0.6720000319182873, 0.6400000303983688, 0.0, 0.0, 0.0, 0.0, 0.0, 1.6480848980724428E9, 0.0, 2022-03-23 20:21:38.072
94.0, -35.14383988361806, -11.64230856206268, -0.40764909517019987, -13.108349344693124, -0.4800000227987766, 0.6720000319182873, 0.6400000303983688, 0.0, 0.0, 0.0, 0.0, 0.0, 1.6480848980724428E9, 0.0, 2022-03-23 20:21:38.072
95.0, -61.49517497140914, -16.650034602731466, -14.249018831178546, -28.389580563642085, -0.4800000227987766, 0.6720000319182873, 0.6400000303983688, 0.0, 0.0, 0.0, 0.0, 0.0, 1.6480848980860965E9, 0.0, 2022-03-23 20:21:38.086
95.0, -63.836352343671024, -8.250219302251935, -7.509719111025333, -23.643647519871593, -0.4800000227987766, 0.6720000319182873, 0.6400000303983688, 0.0, 0.0, 0.0, 0.0, 0.0, 1.6480848980860965E9, 0.0, 2022-03-23 20:21:38.086
96.0, -41.15011921245605, -7.296544813551009, 4.659915344789624, -10.007972281426191, -0.4800000227987766, 0.6720000319182873, 0.6400000303983688, 0.0, 0.0, 0.0, 0.0, 0.0, 1.648084898101725E9, 0.0, 2022-03-23 20:21:38.101
96.0, -40.865886815823615, -17.053943797945976, 8.261439002119005, -4.921708341687918, -0.4800000227987766, 0.6720000319182873, 0.6400000303983688, 0.0, 0.0, 0.0, 0.0, 0.0, 1.648084898101725E9, 0.0, 2022-03-23 20:21:38.101
97.0, -66.04663321748376, -25.225625201128423, 7.431181211955845, -16.268564807251096, -0.4800000227987766, 0.6720000319182873, 0.6400000303983688, 0.0, 0.0, 0.0, 0.0, 0.0, 1.6480848981024513E9, 0.0, 2022-03-23 20:21:38.102
97.0, -58.76504800375551, -16.246125407516956, 11.201000367291272, -18.12355518527329, -0.4800000227987766, 0.6720000319182873, 0.6400000303983688, 0.0, 0.0, 0.0, 0.0, 0.0, 1.6480848981024513E9, 0.0, 2022-03-23 20:21:38.102
98.0, -37.45135815627873, -14.46593302860856, 20.53205075673759, -6.870196218602359, -0.4800000227987766, 0.6720000319182873, 0.6400000303983688, 0.0, 0.0, 0.0, 0.0, 0.0, 1.6480848981160357E9, 0.0, 2022-03-23 20:21:38.116
98.0, -62.48250855971128, -24.18219311349094, 16.42938050534576, -19.069749874062836, -0.4800000227987766, 0.6720000319182873, 0.6400000303983688, 0.0, 0.0, 0.0, 0.0, 0.0, 1.6480848981160357E9, 0.0, 2022-03-23 20:21:38.116
99.0, -61.831765967421234, -17.427933793514967, 19.589595967903733, -17.887941488064826, -0.4800000227987766, 0.6720000319182873, 0.6400000303983688, 0.0, 0.0, 0.0, 0.0, 0.0, 1.6480848981317413E9, 0.0, 2022-03-23 20:21:38.131
99.0, -35.34579448122531, -18.261931483633816, 19.32780297100544, -4.454220847226679, -0.4800000227987766, 0.6720000319182873, 0.6400000303983688, 0.0, 0.0, 0.0, 0.0, 0.0, 1.6480848981317413E9, 0.0, 2022-03-23 20:21:38.131
100.0, -58.46959590725601, -32.843801410868764, 3.429488259367645, -20.15432086121291, -0.4800000227987766, 0.6720000319182873, 0.6400000303983688, 0.0, 0.0, 0.0, 0.0, 0.0, 1.6480848981324606E9, 0.0, 2022-03-23 20:21:38.132
100.0, -55.5075951423496, -17.72712578997016, 25.218145401217043, -2.5655713696032763, -0.4800000227987766, 0.6720000319182873, 0.6400000303983688, 0.0, 0.0, 0.0, 0.0, 0.0, 1.6480848981324606E9, 0.0, 2022-03-23 20:21:38.132
0.0, 614.6263784179464, 93.76116183912382, 1362.9971891012974, 652.1674941731617, -0.4800000227987766, 0.6720000319182873, 0.6400000303983688, 0.0, 0.0, 0.0, 0.0, 0.0, 1.6480848981467457E9, 0.0, 2022-03-23 20:21:38.146
1.0, 602.7447162587196, 81.89071937976405, 1345.7263311059214, 633.4118958953768, -0.4800000227987766, 0.6720000319182873, 0.6400000303983688, 0.0, 0.0, 0.0, 0.0, 0.0, 1.64808489814746E9, 0.0, 2022-03-23 20:21:38.147
1.0, 580.4810918224975, 87.93439770815894, 1346.5416292962618, 626.7025153748691, -0.4800000227987766, 0.6720000319182873, 0.6400000303983688, 0.0, 0.0, 0.0, 0.0, 0.0, 1.64808489814746E9, 0.0, 2022-03-23 20:21:38.147
2.0, 601.7274634707719, 103.16327032772824, 1355.5099093900062, 637.9670940414071, -0.4800000227987766, 0.6720000319182873, 0.6400000303983688, 0.0, 0.0, 0.0, 0.0, 0.0, 1.6480848981610901E9, 0.0, 2022-03-23 20:21:38.161
2.0, 613.2538351342082, 94.40068473154679, 1348.0749882780947, 634.9676942769438, -0.4800000227987766, 0.6720000319182873, 0.6400000303983688, 0.0, 0.0, 0.0, 0.0, 0.0, 1.6480848981610901E9, 0.0, 2022-03-23 20:21:38.161
3.0, 591.4838774921373, 94.34832613216713, 1352.2337570288219, 633.4567746948451, -0.4800000227987766, 0.6720000319182873, 0.6400000303983688, 0.0, 0.0, 0.0, 0.0, 0.0, 1.6480848981767676E9, 0.0, 2022-03-23 20:21:38.176
3.0, 581.4310264112428, 93.09545964701101, 1348.1834453768097, 619.6902029579505, -0.4800000227987766, 0.6720000319182873, 0.6400000303983688, 0.0, 0.0, 0.0, 0.0, 0.0, 1.6480848981767676E9, 0.0, 2022-03-23 20:21:38.176
4.0, 603.1710648536682, 83.51009606057778, 1335.2059925305657, 624.6493102991953, -0.4800000227987766, 0.6720000319182873, 0.6400000303983688, 0.0, 0.0, 0.0, 0.0, 0.0, 1.6480848981774728E9, 0.0, 2022-03-23 20:21:38.177
4.0, 585.5598759623244, 84.00376285472885, 1333.066769755911, 614.5141814192757, -0.4800000227987766, 0.6720000319182873, 0.6400000303983688, 0.0, 0.0, 0.0, 0.0, 0.0, 1.6480848981774728E9, 0.0, 2022-03-23 20:21:38.177
5.0, 576.9020075649023, 87.45943041378632, 1343.1308405366726, 616.3953510969877, -0.4800000227987766, 0.6720000319182873, 0.6400000303983688, 0.0, 0.0, 0.0, 0.0, 0.0, 1.6480848981910737E9, 0.0, 2022-03-23 20:21:38.191
5.0, 612.5395142426714, 97.48610219499096, 1353.9728105082177, 639.8894026186317, -0.4800000227987766, 0.6720000319182873, 0.6400000303983688, 0.0, 0.0, 0.0, 0.0, 0.0, 1.6480848981910737E9, 0.0, 2022-03-23 20:21:38.191
6.0, 604.2144969413057, 98.5444938824512, 1344.1443534246646, 630.393796631135, -0.4800000227987766, 0.6720000319182873, 0.6400000303983688, 0.0, 0.0, 0.0, 0.0, 0.0, 1.6480848982069132E9, 0.0, 2022-03-23 20:21:38.206
6.0, 590.6648394018412, 104.09076551673934, 1349.1184203657322, 625.7488408861682, -0.4800000227987766, 0.6720000319182873, 0.6400000303983688, 0.0, 0.0, 0.0, 0.0, 0.0, 1.6480848982069132E9, 0.0, 2022-03-23 20:21:38.206
7.0, 595.6089871432632, 94.34832613216713, 1343.54970933171, 625.8198989853263, -0.4800000227987766, 0.6720000319182873, 0.6400000303983688, 0.0, 0.0, 0.0, 0.0, 0.0, 1.6480848982075272E9, 0.0, 2022-03-23 20:21:38.207
7.0, 609.9963822728023, 93.21887634554878, 1342.8540879399516, 642.8476634835824, -0.4800000227987766, 0.6720000319182873, 0.6400000303983688, 0.0, 0.0, 0.0, 0.0, 0.0, 1.6480848982075272E9, 0.0, 2022-03-23 20:21:38.207
8.0, 591.6671325899661, 95.88542501395568, 1348.6210136716254, 630.865024025552, -0.4800000227987766, 0.6720000319182873, 0.6400000303983688, 0.0, 0.0, 0.0, 0.0, 0.0, 1.6480848982211287E9, 0.0, 2022-03-23 20:21:38.221
8.0, 572.7432388141751, 83.48765666084364, 1336.0811291201971, 617.4200836848468, -0.4800000227987766, 0.6720000319182873, 0.6400000303983688, 0.0, 0.0, 0.0, 0.0, 0.0, 1.6480848982211287E9, 0.0, 2022-03-23 20:21:38.221
9.0, 611.3726654564962, 90.1371987820603, 1343.7105250298046, 644.1753279678524, -0.4800000227987766, 0.6720000319182873, 0.6400000303983688, 0.0, 0.0, 0.0, 0.0, 0.0, 1.6480848982368023E9, 0.0, 2022-03-23 20:21:38.236
9.0, 600.4745969856158, 105.33615220198408, 1348.602314171847, 640.211034014821, -0.4800000227987766, 0.6720000319182873, 0.6400000303983688, 0.0, 0.0, 0.0, 0.0, 0.0, 1.6480848982368023E9, 0.0, 2022-03-23 20:21:38.236
10.0, 594.1317266607657, 114.82801828952506, 1362.5371814067475, 634.6086638811976, -0.4800000227987766, 0.6720000319182873, 0.6240000296384096, 0.0, 0.0, 0.0, 0.0, 0.0, 1.6480848982374945E9, 0.0, 2022-03-23 20:21:38.237
10.0, 617.3265861859545, 113.63125030370429, 1358.008162560407, 642.8214841838926, -0.4800000227987766, 0.6720000319182873, 0.6240000296384096, 0.0, 0.0, 0.0, 0.0, 0.0, 1.6480848982374945E9, 0.0, 2022-03-23 20:21:38.237
11.0, 619.7911802567542, 116.58577126869932, 1360.8392668268643, 645.9517804468051, -0.4800000227987766, 0.6720000319182873, 0.6240000296384096, 0.0, 0.0, 0.0, 0.0, 0.0, 1.648084898251083E9, 0.0, 2022-03-23 20:21:38.251
11.0, 603.1785446535796, 123.69532108446583, 1369.2690013269894, 651.6139889797196, -0.4800000227987766, 0.6720000319182873, 0.6240000296384096, 0.0, 0.0, 0.0, 0.0, 0.0, 1.648084898251083E9, 0.0, 2022-03-23 20:21:38.251
12.0, 620.0417535537854, 128.7142668250017, 1368.2779278387316, 655.5221844334155, -0.4800000227987766, 0.6720000319182873, 0.6240000296384096, 0.0, 0.0, 0.0, 0.0, 0.0, 1.648084898266791E9, 0.0, 2022-03-23 20:21:38.266
12.0, 629.043692747131, 127.90644843457267, 1365.764715068508, 664.767217123881, -0.4800000227987766, 0.6720000319182873, 0.6240000296384096, 0.0, 0.0, 0.0, 0.0, 0.0, 1.648084898266791E9, 0.0, 2022-03-23 20:21:38.266
13.0, 613.6577443294227, 124.40590207604691, 1367.933857042808, 654.3328962475061, -0.4800000227987766, 0.6720000319182873, 0.6240000296384096, 0.0, 0.0, 0.0, 0.0, 0.0, 1.6480848982674613E9, 0.0, 2022-03-23 20:21:38.267
13.0, 610.9313572617248, 131.98293938627467, 1382.3923102715053, 662.3699412522838, -0.4800000227987766, 0.6720000319182873, 0.6240000296384096, 0.0, 0.0, 0.0, 0.0, 0.0, 1.6480848982674613E9, 0.0, 2022-03-23 20:21:38.267
14.0, 640.693481109105, 122.26667930139229, 1369.5831529232673, 668.4809377798811, -0.4800000227987766, 0.6720000319182873, 0.6240000296384096, 0.0, 0.0, 0.0, 0.0, 0.0, 1.6480848982810583E9, 0.0, 2022-03-23 20:21:38.281
14.0, 627.3756973668933, 134.44753345707431, 1374.340305666905, 662.0782290557399, -0.4800000227987766, 0.6720000319182873, 0.6240000296384096, 0.0, 0.0, 0.0, 0.0, 0.0, 1.6480848982810583E9, 0.0, 2022-03-23 20:21:38.281
15.0, 602.4530040621758, 129.71656001312658, 1368.7229759334587, 642.0136657934636, -0.4800000227987766, 0.6720000319182873, 0.6240000296384096, 0.0, 0.0, 0.0, 0.0, 0.0, 1.6480848982967823E9, 0.0, 2022-03-23 20:21:38.296
15.0, 634.6610224805772, 131.0030855978839, 1372.5563733880408, 660.0848623793572, -0.4800000227987766, 0.6720000319182873, 0.6240000296384096, 0.0, 0.0, 0.0, 0.0, 0.0, 1.6480848982967823E9, 0.0, 2022-03-23 20:21:38.296
16.0, 626.1864091809839, 119.82452463032678, 1359.9416908374988, 649.3102106070146, -0.4800000227987766, 0.6720000319182873, 0.6240000296384096, 0.0, 0.0, 0.0, 0.0, 0.0, 1.648084898297457E9, 0.0, 2022-03-23 20:21:38.297
16.0, 603.6348124481738, 127.12854924378917, 1370.3647920140065, 633.5652317935601, -0.4800000227987766, 0.6720000319182873, 0.6240000296384096, 0.0, 0.0, 0.0, 0.0, 0.0, 1.648084898297457E9, 0.0, 2022-03-23 20:21:38.297
17.0, 620.2624076511711, 120.52388592204079, 1371.5839993995614, 648.6594680147246, -0.4800000227987766, 0.6720000319182873, 0.6240000296384096, 0.0, 0.0, 0.0, 0.0, 0.0, 1.6480848983111176E9, 0.0, 2022-03-23 20:21:38.311
17.0, 630.8912033252418, 115.82657157769427, 1368.0273545417003, 658.0840159030631, -0.4800000227987766, 0.6720000319182873, 0.6240000296384096, 0.0, 0.0, 0.0, 0.0, 0.0, 1.6480848983111176E9, 0.0, 2022-03-23 20:21:38.311
18.0, 610.3067939691246, 136.83358962880448, 1364.6464849817567, 650.3835618942976, -0.4800000227987766, 0.6720000319182873, 0.6240000296384096, 0.0, 0.0, 0.0, 0.0, 0.0, 1.6480848983268447E9, 0.0, 2022-03-23 20:21:38.326
18.0, 590.4329656045884, 125.90560195827857, 1345.3560810103081, 633.3931963955984, -0.4800000227987766, 0.6720000319182873, 0.6240000296384096, 0.0, 0.0, 0.0, 0.0, 0.0, 1.6480848983268447E9, 0.0, 2022-03-23 20:21:38.326
19.0, 612.1281252475455, 117.35619065957144, 1336.6944727129303, 641.8565899953246, -0.4800000227987766, 0.6720000319182873, 0.6240000296384096, 0.0, 0.0, 0.0, 0.0, 0.0, 1.6480848983274863E9, 0.0, 2022-03-23 20:21:38.327
19.0, 617.5771594829857, 151.8717273506336, 1360.8878855262883, 655.0135580394417, -0.4800000227987766, 0.6720000319182873, 0.6240000296384096, 0.0, 0.0, 0.0, 0.0, 0.0, 1.6480848983274863E9, 0.0, 2022-03-23 20:21:38.327
20.0, 576.5691564688459, 125.24363966612145, 1321.18884749664, 617.0535734891891, -0.4800000227987766, 0.6720000319182873, 0.6240000296384096, 0.0, 0.0, 0.0, 0.0, 0.0, 1.6480848983410645E9, 0.0, 2022-03-23 20:21:38.341
20.0, 614.4393834201619, 135.60690244333819, 1335.9913715212606, 638.2625461379066, -0.4800000227987766, 0.6720000319182873, 0.6240000296384096, 0.0, 0.0, 0.0, 0.0, 0.0, 1.6480848983410645E9, 0.0, 2022-03-23 20:21:38.341
21.0, 605.9423307208344, 136.66155423084274, 1338.4634453919716, 637.6454626452178, -0.4800000227987766, 0.6720000319182873, 0.6240000296384096, 0.0, 0.0, 0.0, 0.0, 0.0, 1.648084898356712E9, 0.0, 2022-03-23 20:21:38.356
21.0, 581.0570364156738, 132.88425527559593, 1334.7011060365476, 632.6639159042388, -0.4800000227987766, 0.6720000319182873, 0.6240000296384096, 0.0, 0.0, 0.0, 0.0, 0.0, 1.648084898356712E9, 0.0, 2022-03-23 20:21:38.356
22.0, 599.2740890998393, 131.39951499318704, 1337.9211598983966, 630.707948227413, -0.4800000227987766, 0.6720000319182873, 0.6240000296384096, 0.0, 0.0, 0.0, 0.0, 0.0, 1.6480848983574867E9, 0.0, 2022-03-23 20:21:38.357
22.0, 611.7840544516221, 127.54367813887075, 1333.0705096558668, 630.8238851260394, -0.4800000227987766, 0.6720000319182873, 0.6240000296384096, 0.0, 0.0, 0.0, 0.0, 0.0, 1.6480848983574867E9, 0.0, 2022-03-23 20:21:38.357
23.0, 584.3818074762821, 128.83020372362807, 1330.2655846890993, 619.9071171553805, -0.4800000227987766, 0.6720000319182873, 0.6240000296384096, 0.0, 0.0, 0.0, 0.0, 0.0, 1.6480848983710735E9, 0.0, 2022-03-23 20:21:38.371
23.0, 580.4025539234281, 120.0002999282442, 1326.3835685350932, 616.597305694595, -0.4800000227987766, 0.6720000319182873, 0.6240000296384096, 0.0, 0.0, 0.0, 0.0, 0.0, 1.6480848983710735E9, 0.0, 2022-03-23 20:21:38.371
24.0, 612.1580444471911, 122.63692939700559, 1331.3052768767811, 635.0873710755259, -0.4800000227987766, 0.6720000319182873, 0.6240000296384096, 0.0, 0.0, 0.0, 0.0, 0.0, 1.6480848983867452E9, 0.0, 2022-03-23 20:21:38.386
24.0, 593.5894411671907, 124.20020757848397, 1329.087516203057, 632.9294488010928, -0.4800000227987766, 0.6720000319182873, 0.6240000296384096, 0.0, 0.0, 0.0, 0.0, 0.0, 1.6480848983867452E9, 0.0, 2022-03-23 20:21:38.386
25.0, 576.0754896746948, 118.76613294286653, 1325.6580279436894, 619.9445161549374, -0.4800000227987766, 0.6720000319182873, 0.6240000296384096, 0.0, 0.0, 0.0, 0.0, 0.0, 1.6480848983874154E9, 0.0, 2022-03-23 20:21:38.387
25.0, 592.8564207758754, 117.37863005930558, 1321.2262464961968, 634.2870324850082, -0.4800000227987766, 0.6720000319182873, 0.6240000296384096, 0.0, 0.0, 0.0, 0.0, 0.0, 1.6480848983874154E9, 0.0, 2022-03-23 20:21:38.387
26.0, 595.6650856425986, 123.13059619115666, 1320.6540418029763, 625.617944387719, -0.4800000227987766, 0.6720000319182873, 0.6240000296384096, 0.0, 0.0, 0.0, 0.0, 0.0, 1.6480848984011164E9, 0.0, 2022-03-23 20:21:38.401
26.0, 572.8105570133775, 126.57130415039137, 1322.2434992841445, 617.5958589827642, -0.4800000227987766, 0.6720000319182873, 0.6240000296384096, 0.0, 0.0, 0.0, 0.0, 0.0, 1.6480848984011164E9, 0.0, 2022-03-23 20:21:38.401
27.0, 583.1812995905057, 128.1121429321356, 1325.8038840419613, 620.3746046498418, -0.4800000227987766, 0.6720000319182873, 0.6240000296384096, 0.0, 0.0, 0.0, 0.0, 0.0, 1.6480848984167836E9, 0.0, 2022-03-23 20:21:38.416
27.0, 591.0612687971443, 122.46489399904385, 1321.1140494975261, 629.2942660441622, -0.4800000227987766, 0.6720000319182873, 0.6240000296384096, 0.0, 0.0, 0.0, 0.0, 0.0, 1.6480848984167836E9, 0.0, 2022-03-23 20:21:38.416
28.0, 568.1805608682334, 113.83320490131155, 1315.3695631655864, 614.8171133156866, -0.4800000227987766, 0.6720000319182873, 0.6240000296384096, 0.0, 0.0, 0.0, 0.0, 0.0, 1.648084898417493E9, 0.0, 2022-03-23 20:21:38.417
28.0, 565.3943354012445, 122.91742189368233, 1322.019105286803, 606.297621216625, -0.4800000227987766, 0.6720000319182873, 0.6240000296384096, 0.0, 0.0, 0.0, 0.0, 0.0, 1.648084898417493E9, 0.0, 2022-03-23 20:21:38.417
29.0, 588.7425308246166, 119.36825683573261, 1315.5976970628835, 623.2954665152356, -0.4800000227987766, 0.6720000319182873, 0.6240000296384096, 0.0, 0.0, 0.0, 0.0, 0.0, 1.6480848984310822E9, 0.0, 2022-03-23 20:21:38.431
29.0, 577.9566593524069, 120.80063851876184, 1317.594803639222, 625.8161590853706, -0.4800000227987766, 0.6720000319182873, 0.6240000296384096, 0.0, 0.0, 0.0, 0.0, 0.0, 1.6480848984310822E9, 0.0, 2022-03-23 20:21:38.431
30.0, 564.4743200121447, 116.38755657104775, 1312.0896709044464, 618.538313771598, -0.4800000227987766, 0.6720000319182873, 0.6400000303983688, 0.0, 0.0, 0.0, 0.0, 0.0, 1.6480848984467196E9, 0.0, 2022-03-23 20:21:38.446
30.0, 586.9735581455752, 115.63583667995408, 1307.8224450550042, 625.4870478892699, -0.4800000227987766, 0.6720000319182873, 0.6400000303983688, 0.0, 0.0, 0.0, 0.0, 0.0, 1.6480848984467196E9, 0.0, 2022-03-23 20:21:38.446
31.0, 585.4588986635208, 122.50229299860075, 1314.543045275379, 627.536513064988, -0.4800000227987766, 0.6720000319182873, 0.6400000303983688, 0.0, 0.0, 0.0, 0.0, 0.0, 1.6480848984474452E9, 0.0, 2022-03-23 20:21:38.447
31.0, 575.7127193789929, 129.8586762114428, 1329.0501172035001, 628.9614149481058, -0.4800000227987766, 0.6720000319182873, 0.6400000303983688, 0.0, 0.0, 0.0, 0.0, 0.0, 1.6480848984474452E9, 0.0, 2022-03-23 20:21:38.447
32.0, 573.203246508725, 117.7040013554506, 1325.3176970477216, 627.1251240698621, -0.4800000227987766, 0.6720000319182873, 0.6400000303983688, 0.0, 0.0, 0.0, 0.0, 0.0, 1.648084898461015E9, 0.0, 2022-03-23 20:21:38.461
32.0, 590.691018701531, 116.53341266931966, 1324.614595856052, 632.6115573048592, -0.4800000227987766, 0.6720000319182873, 0.6400000303983688, 0.0, 0.0, 0.0, 0.0, 0.0, 1.648084898461015E9, 0.0, 2022-03-23 20:21:38.461
33.0, 576.5878559686244, 120.59868392115459, 1326.024538139347, 627.8394449613988, -0.4800000227987766, 0.6720000319182873, 0.6400000303983688, 0.0, 0.0, 0.0, 0.0, 0.0, 1.6480848984767928E9, 0.0, 2022-03-23 20:21:38.476
33.0, 568.3750356659293, 124.46574047533795, 1328.85938230576, 620.3297258503735, -0.4800000227987766, 0.6720000319182873, 0.6400000303983688, 0.0, 0.0, 0.0, 0.0, 0.0, 1.6480848984767928E9, 0.0, 2022-03-23 20:21:38.476
34.0, 589.1053011203185, 114.26703329617158, 1320.186554308515, 622.3305723266676, -0.4800000227987766, 0.6720000319182873, 0.6400000303983688, 0.0, 0.0, 0.0, 0.0, 0.0, 1.6480848984775405E9, 0.0, 2022-03-23 20:21:38.477
34.0, 576.0792295746505, 118.86337034171447, 1325.3812753469683, 621.5638928357512, -0.4800000227987766, 0.6720000319182873, 0.6400000303983688, 0.0, 0.0, 0.0, 0.0, 0.0, 1.6480848984775405E9, 0.0, 2022-03-23 20:21:38.477
35.0, 559.9041622662917, 119.10272393887863, 1328.821983306203, 620.2811071509495, -0.4800000227987766, 0.6720000319182873, 0.6400000303983688, 0.0, 0.0, 0.0, 0.0, 0.0, 1.6480848984910598E9, 0.0, 2022-03-23 20:21:38.491
35.0, 591.2183445952833, 122.03106560418382, 1338.313849393744, 635.6109570693225, -0.4800000227987766, 0.6720000319182873, 0.6400000303983688, 0.0, 0.0, 0.0, 0.0, 0.0, 1.6480848984910598E9, 0.0, 2022-03-23 20:21:38.491
36.0, 580.294096824713, 125.95796055765823, 1321.7984511894174, 627.7085484629497, -0.4800000227987766, 0.6720000319182873, 0.6400000303983688, 0.0, 0.0, 0.0, 0.0, 0.0, 1.6480848985067537E9, 0.0, 2022-03-23 20:21:38.506
36.0, 559.3506570728496, 132.03155808569863, 1315.2237070673145, 610.1235388712958, -0.4800000227987766, 0.6720000319182873, 0.6400000303983688, 0.0, 0.0, 0.0, 0.0, 0.0, 1.6480848985067537E9, 0.0, 2022-03-23 20:21:38.506
37.0, 561.7180137448013, 111.84357812488452, 1308.1777355507948, 608.395705091767, -0.4800000227987766, 0.6720000319182873, 0.6400000303983688, 0.0, 0.0, 0.0, 0.0, 0.0, 1.648084898507485E9, 0.0, 2022-03-23 20:21:38.507
37.0, 571.6287486273795, 109.292966355104, 1309.669955633115, 616.3504722975194, -0.4800000227987766, 0.6720000319182873, 0.6400000303983688, 0.0, 0.0, 0.0, 0.0, 0.0, 1.648084898507485E9, 0.0, 2022-03-23 20:21:38.507
38.0, 560.2070941627026, 113.12262390973046, 1316.196081055794, 618.8113264683634, -0.4800000227987766, 0.6720000319182873, 0.6400000303983688, 0.0, 0.0, 0.0, 0.0, 0.0, 1.6480848985210454E9, 0.0, 2022-03-23 20:21:38.521
38.0, 555.5957975173369, 120.01525952806696, 1316.7346266494133, 616.3878712970763, -0.4800000227987766, 0.6720000319182873, 0.6400000303983688, 0.0, 0.0, 0.0, 0.0, 0.0, 1.6480848985210454E9, 0.0, 2022-03-23 20:21:38.521
39.0, 568.8911418598145, 102.15723723964766, 1296.8832376846112, 603.2645623525605, -0.4800000227987766, 0.6720000319182873, 0.6400000303983688, 0.0, 0.0, 0.0, 0.0, 0.0, 1.6480848985368168E9, 0.0, 2022-03-23 20:21:38.536
39.0, 556.1717421105132, 100.91185055440292, 1291.3968044496141, 607.05682090763, -0.4800000227987766, 0.6720000319182873, 0.6400000303983688, 0.0, 0.0, 0.0, 0.0, 0.0, 1.6480848985368168E9, 0.0, 2022-03-23 20:21:38.536
40.0, 545.090418541804, 111.30877243122086, 1301.6553500280716, 602.9055319568142, -0.4800000227987766, 0.6720000319182873, 0.6240000296384096, 0.0, 0.0, 0.0, 0.0, 0.0, 1.6480848985375383E9, 0.0, 2022-03-23 20:21:38.537
40.0, 571.8681022245437, 111.3686108305119, 1309.8569506308995, 616.3691717972979, -0.4800000227987766, 0.6720000319182873, 0.6240000296384096, 0.0, 0.0, 0.0, 0.0, 0.0, 1.6480848985375383E9, 0.0, 2022-03-23 20:21:38.537
41.0, 572.7881176136434, 114.34183129528537, 1317.5387051398866, 621.0178674422204, -0.4800000227987766, 0.6720000319182873, 0.6240000296384096, 0.0, 0.0, 0.0, 0.0, 0.0, 1.648084898551122E9, 0.0, 2022-03-23 20:21:38.551
41.0, 551.1864554695785, 118.95312794065103, 1319.6517486148514, 613.5979059301317, -0.4800000227987766, 0.6720000319182873, 0.6240000296384096, 0.0, 0.0, 0.0, 0.0, 0.0, 1.648084898551122E9, 0.0, 2022-03-23 20:21:38.551
42.0, 575.6902799792588, 136.04073083819821, 1337.3040764057077, 634.7732194792479, -0.4800000227987766, 0.6720000319182873, 0.6240000296384096, 0.0, 0.0, 0.0, 0.0, 0.0, 1.6480848985668323E9, 0.0, 2022-03-23 20:21:38.566
42.0, 574.6655473913997, 120.55006522173062, 1318.7429529256187, 622.6409840229899, -0.4800000227987766, 0.6720000319182873, 0.6240000296384096, 0.0, 0.0, 0.0, 0.0, 0.0, 1.6480848985668323E9, 0.0, 2022-03-23 20:21:38.566
43.0, 560.9475943539292, 120.38550962368026, 1322.961560075637, 614.6263784179464, -0.4800000227987766, 0.6720000319182873, 0.6240000296384096, 0.0, 0.0, 0.0, 0.0, 0.0, 1.6480848985675783E9, 0.0, 2022-03-23 20:21:38.567
43.0, 541.9563823789358, 117.98449385212734, 1314.7524796728976, 604.4014919390902, -0.4800000227987766, 0.6720000319182873, 0.6240000296384096, 0.0, 0.0, 0.0, 0.0, 0.0, 1.6480848985675783E9, 0.0, 2022-03-23 20:21:38.567
44.0, 571.4679329292849, 121.31674471264705, 1319.6367890150286, 617.7080559814349, -0.4800000227987766, 0.6720000319182873, 0.6240000296384096, 0.0, 0.0, 0.0, 0.0, 0.0, 1.64808489859741E9, 0.0, 2022-03-23 20:21:38.597
44.0, 557.9070556899533, 119.37573663564399, 1316.169901756104, 612.2515419460833, -0.4800000227987766, 0.6720000319182873, 0.6240000296384096, 0.0, 0.0, 0.0, 0.0, 0.0, 1.64808489859741E9, 0.0, 2022-03-23 20:21:38.597
45.0, 548.4937275014818, 128.9685800219886, 1331.2080394779332, 617.0086946897209, -0.4800000227987766, 0.6720000319182873, 0.6240000296384096, 0.0, 0.0, 0.0, 0.0, 0.0, 1.6480848985981848E9, 0.0, 2022-03-23 20:21:38.598
45.0, 565.3868556013331, 125.707387260627, 1323.6571814673953, 627.3569978671148, -0.4800000227987766, 0.6720000319182873, 0.6240000296384096, 0.0, 0.0, 0.0, 0.0, 0.0, 1.6480848985981848E9, 0.0, 2022-03-23 20:21:38.598
46.0, 565.7197066973895, 119.95916102873161, 1319.3450768184848, 615.9129040027037, -0.4800000227987766, 0.6720000319182873, 0.6240000296384096, 0.0, 0.0, 0.0, 0.0, 0.0, 1.6480848985989816E9, 0.0, 2022-03-23 20:21:38.598
46.0, 546.8032927215099, 121.22698711371049, 1317.66586173838, 599.868733192794, -0.4800000227987766, 0.6720000319182873, 0.6240000296384096, 0.0, 0.0, 0.0, 0.0, 0.0, 1.6480848985989816E9, 0.0, 2022-03-23 20:21:38.598
47.0, 555.981007212773, 121.84407060639933, 1323.0363580747508, 614.0803530244157, -0.4800000227987766, 0.6720000319182873, 0.6240000296384096, 0.0, 0.0, 0.0, 0.0, 0.0, 1.6480848986110277E9, 0.0, 2022-03-23 20:21:38.611
47.0, 578.678460043855, 132.71969967754558, 1328.9454000047408, 630.1581829339266, -0.4800000227987766, 0.6720000319182873, 0.6240000296384096, 0.0, 0.0, 0.0, 0.0, 0.0, 1.6480848986110277E9, 0.0, 2022-03-23 20:21:38.611
48.0, 554.4326886311173, 127.98124643368647, 1333.6165350493975, 625.232734692283, -0.4800000227987766, 0.6720000319182873, 0.6240000296384096, 0.0, 0.0, 0.0, 0.0, 0.0, 1.648084898626716E9, 0.0, 2022-03-23 20:21:38.626
48.0, 544.9408225435764, 123.63922258513048, 1324.9287474523298, 610.8602991625667, -0.4800000227987766, 0.6720000319182873, 0.6240000296384096, 0.0, 0.0, 0.0, 0.0, 0.0, 1.648084898626716E9, 0.0, 2022-03-23 20:21:38.626
49.0, 587.8337351353839, 139.18972660088912, 1334.9404596337117, 636.0784445637837, -0.4800000227987766, 0.6720000319182873, 0.6240000296384096, 0.0, 0.0, 0.0, 0.0, 0.0, 1.6480848986274261E9, 0.0, 2022-03-23 20:21:38.627
49.0, 563.4795066239312, 143.90948034496978, 1343.9498786269687, 625.4907877892256, -0.4800000227987766, 0.6720000319182873, 0.6240000296384096, 0.0, 0.0, 0.0, 0.0, 0.0, 1.6480848986274261E9, 0.0, 2022-03-23 20:21:38.627
50.0, 544.0956051535904, 134.81778355268762, 1331.380074875895, 616.3542121974751, -0.4800000227987766, 0.6720000319182873, 0.6240000296384096, 0.0, 0.0, 0.0, 0.0, 0.0, 1.6480848986411471E9, 0.0, 2022-03-23 20:21:38.641
50.0, 565.0951434047893, 134.59338955534622, 1328.9229606050067, 621.4554357370362, -0.4800000227987766, 0.6720000319182873, 0.6240000296384096, 0.0, 0.0, 0.0, 0.0, 0.0, 1.6480848986411471E9, 0.0, 2022-03-23 20:21:38.641
51.0, 568.2329194676131, 133.28068467089906, 1333.4931183508597, 625.7638004859909, -0.4800000227987766, 0.6720000319182873, 0.6240000296384096, 0.0, 0.0, 0.0, 0.0, 0.0, 1.6480848986568122E9, 0.0, 2022-03-23 20:21:38.656
51.0, 550.6703492756933, 145.72333182347938, 1341.2870698585175, 616.9413764905185, -0.4800000227987766, 0.6720000319182873, 0.6240000296384096, 0.0, 0.0, 0.0, 0.0, 0.0, 1.6480848986568122E9, 0.0, 2022-03-23 20:21:38.656
52.0, 558.0529117882252, 133.0862098732032, 1340.688685865607, 624.1893026046455, -0.4800000227987766, 0.6720000319182873, 0.6240000296384096, 0.0, 0.0, 0.0, 0.0, 0.0, 1.648084898657516E9, 0.0, 2022-03-23 20:21:38.657
52.0, 575.0320575870574, 130.77869160054252, 1340.6101479665376, 629.7131348391995, -0.4800000227987766, 0.6720000319182873, 0.6240000296384096, 0.0, 0.0, 0.0, 0.0, 0.0, 1.648084898657516E9, 0.0, 2022-03-23 20:21:38.657
53.0, 562.095743640326, 143.58410904882476, 1345.3673007101752, 620.7560744453222, -0.4800000227987766, 0.6720000319182873, 0.6240000296384096, 0.0, 0.0, 0.0, 0.0, 0.0, 1.64808489867106E9, 0.0, 2022-03-23 20:21:38.671
53.0, 560.7531195562333, 145.82056922232732, 1354.728270299267, 623.568479212001, -0.4800000227987766, 0.6720000319182873, 0.6240000296384096, 0.0, 0.0, 0.0, 0.0, 0.0, 1.64808489867106E9, 0.0, 2022-03-23 20:21:38.671
54.0, 596.8207147289068, 169.81950723798946, 1368.117112140637, 640.3157512135804, -0.4800000227987766, 0.6720000319182873, 0.6240000296384096, 0.0, 0.0, 0.0, 0.0, 0.0, 1.648084898686836E9, 0.0, 2022-03-23 20:21:38.686
54.0, 588.6976520251483, 173.61176579305902, 1382.5381663697772, 637.1143968515098, -0.4800000227987766, 0.6720000319182873, 0.6240000296384096, 0.0, 0.0, 0.0, 0.0, 0.0, 1.648084898686836E9, 0.0, 2022-03-23 20:21:38.686
55.0, 582.4407993992791, 193.01436676317826, 1398.642175578978, 639.1713418271393, -0.4800000227987766, 0.6720000319182873, 0.6240000296384096, 0.0, 0.0, 0.0, 0.0, 0.0, 1.6480848986874955E9, 0.0, 2022-03-23 20:21:38.687
55.0, 614.4281637202948, 209.95237366249785, 1424.7466772696935, 659.3855010876432, -0.4800000227987766, 0.6720000319182873, 0.6240000296384096, 0.0, 0.0, 0.0, 0.0, 0.0, 1.6480848986874955E9, 0.0, 2022-03-23 20:21:38.687
56.0, 616.7618612926453, 222.13696771813557, 1433.146492570173, 651.2138196844608, -0.4800000227987766, 0.6720000319182873, 0.6240000296384096, 0.0, 0.0, 0.0, 0.0, 0.0, 1.648084898701203E9, 0.0, 2022-03-23 20:21:38.701
56.0, 610.9126577619463, 247.75154251465574, 1454.157250521239, 658.2485715011135, -0.4800000227987766, 0.6720000319182873, 0.6240000296384096, 0.0, 0.0, 0.0, 0.0, 0.0, 1.648084898701203E9, 0.0, 2022-03-23 20:21:38.701
57.0, 639.8108647195622, 269.5439395564608, 1489.7087395000271, 683.5789139010012, -0.4800000227987766, 0.6720000319182873, 0.6240000296384096, 0.0, 0.0, 0.0, 0.0, 0.0, 1.6480848987167673E9, 0.0, 2022-03-23 20:21:38.716
57.0, 660.2606376772746, 271.4886875334196, 1502.2710634511895, 692.3788984967396, -0.4800000227987766, 0.6720000319182873, 0.6240000296384096, 0.0, 0.0, 0.0, 0.0, 0.0, 1.6480848987167673E9, 0.0, 2022-03-23 20:21:38.716
58.0, 646.95407363493, 271.4363289340399, 1505.3377814148553, 688.9344506375492, -0.4800000227987766, 0.6720000319182873, 0.6240000296384096, 0.0, 0.0, 0.0, 0.0, 0.0, 1.6480848987175183E9, 0.0, 2022-03-23 20:21:38.717
58.0, 618.9310032669455, 269.5888183559291, 1495.9132335265167, 666.1397604076192, -0.4800000227987766, 0.6720000319182873, 0.6240000296384096, 0.0, 0.0, 0.0, 0.0, 0.0, 1.6480848987175183E9, 0.0, 2022-03-23 20:21:38.717
59.0, 664.1613533310592, 288.6735278298147, 1517.896365466062, 699.2790139149874, -0.4800000227987766, 0.6720000319182873, 0.6240000296384096, 0.0, 0.0, 0.0, 0.0, 0.0, 1.6480848987310286E9, 0.0, 2022-03-23 20:21:38.731
59.0, 648.5360513161868, 286.54552475502715, 1512.1256998344325, 694.2825075741857, -0.4800000227987766, 0.6720000319182873, 0.6240000296384096, 0.0, 0.0, 0.0, 0.0, 0.0, 1.6480848987310286E9, 0.0, 2022-03-23 20:21:38.731
60.0, 632.5554588055238, 282.71960710035637, 1512.9110788251273, 690.4603298194706, -0.4800000227987766, 0.6720000319182873, 0.6240000296384096, 0.0, 0.0, 0.0, 0.0, 0.0, 1.6480848987468028E9, 0.0, 2022-03-23 20:21:38.746
60.0, 651.2138196844608, 272.72285451879725, 1502.1962654520757, 690.4939889190719, -0.4800000227987766, 0.6720000319182873, 0.6240000296384096, 0.0, 0.0, 0.0, 0.0, 0.0, 1.6480848987468028E9, 0.0, 2022-03-23 20:21:38.746
61.0, 635.8615303663537, 251.73827586742118, 1483.1526948777027, 675.5306491963565, -0.4800000227987766, 0.6560000311583281, 0.6240000296384096, 0.0, 0.0, 0.0, 0.0, 0.0, 1.6480848987474866E9, 0.0, 2022-03-23 20:21:38.747
61.0, 615.3706185091287, 237.48551713628694, 1480.351509810891, 661.921153257601, -0.4800000227987766, 0.6560000311583281, 0.6240000296384096, 0.0, 0.0, 0.0, 0.0, 0.0, 1.6480848987474866E9, 0.0, 2022-03-23 20:21:38.747
62.0, 614.8171133156866, 219.10764875402674, 1447.111279004719, 655.6044622324407, -0.4800000227987766, 0.6560000311583281, 0.6240000296384096, 0.0, 0.0, 0.0, 0.0, 0.0, 1.6480848987610972E9, 0.0, 2022-03-23 20:21:38.761
62.0, 620.3559051500633, 214.84416280454025, 1439.0143956006505, 665.3356819171458, -0.4800000227987766, 0.6560000311583281, 0.6240000296384096, 0.0, 0.0, 0.0, 0.0, 0.0, 1.6480848987610972E9, 0.0, 2022-03-23 20:21:38.761
63.0, 594.5692949555814, 202.71940714819357, 1426.549309048336, 654.8265630416572, -0.4800000227987766, 0.6560000311583281, 0.6240000296384096, 0.0, 0.0, 0.0, 0.0, 0.0, 1.6480848987767673E9, 0.0, 2022-03-23 20:21:38.776
63.0, 592.6731656780466, 206.84451679931954, 1429.9563579079695, 657.1378212142736, -0.4800000227987766, 0.6560000311583281, 0.6240000296384096, 0.0, 0.0, 0.0, 0.0, 0.0, 1.6480848987767673E9, 0.0, 2022-03-23 20:21:38.776
64.0, 611.4100644560531, 190.4749746932648, 1408.134041666519, 659.2957434887066, -0.4800000227987766, 0.6560000311583281, 0.6240000296384096, 0.0, 0.0, 0.0, 0.0, 0.0, 1.6480848987774696E9, 0.0, 2022-03-23 20:21:38.777
64.0, 585.6197143616155, 178.1033856398426, 1394.273972430732, 641.3404838014394, -0.4800000227987766, 0.6560000311583281, 0.6240000296384096, 0.0, 0.0, 0.0, 0.0, 0.0, 1.6480848987774696E9, 0.0, 2022-03-23 20:21:38.777
65.0, 567.3877020776272, 173.74266229150817, 1382.2726334729232, 620.2586677512154, -0.4800000227987766, 0.6560000311583281, 0.6240000296384096, 0.0, 0.0, 0.0, 0.0, 0.0, 1.648084898791155E9, 0.0, 2022-03-23 20:21:38.791
65.0, 594.9058859515935, 167.33621366741136, 1381.6742494800128, 642.9449008824304, -0.4800000227987766, 0.6560000311583281, 0.6240000296384096, 0.0, 0.0, 0.0, 0.0, 0.0, 1.648084898791155E9, 0.0, 2022-03-23 20:21:38.791
66.0, 581.1280945148319, 153.50980353122577, 1373.8840378723107, 641.430241400376, -0.4800000227987766, 0.6560000311583281, 0.6240000296384096, 0.0, 0.0, 0.0, 0.0, 0.0, 1.6480848988068929E9, 0.0, 2022-03-23 20:21:38.806
66.0, 558.2773057855666, 151.52765655471012, 1369.2540417271666, 624.2603607038036, -0.4800000227987766, 0.6560000311583281, 0.6240000296384096, 0.0, 0.0, 0.0, 0.0, 0.0, 1.6480848988068929E9, 0.0, 2022-03-23 20:21:38.806
67.0, 577.3320960598066, 154.61681391810998, 1378.693549215328, 648.6557281147689, -0.4800000227987766, 0.6560000311583281, 0.6240000296384096, 0.0, 0.0, 0.0, 0.0, 0.0, 1.648084898807508E9, 0.0, 2022-03-23 20:21:38.807
67.0, 587.6803992372006, 146.09732181904837, 1367.5112483478151, 645.8582829479128, -0.4800000227987766, 0.6560000311583281, 0.6240000296384096, 0.0, 0.0, 0.0, 0.0, 0.0, 1.648084898807508E9, 0.0, 2022-03-23 20:21:38.807
68.0, 569.4446470532566, 141.72911867080256, 1358.9431375493295, 626.3696642788127, -0.4800000227987766, 0.6560000311583281, 0.6240000296384096, 0.0, 0.0, 0.0, 0.0, 0.0, 1.6480848988210917E9, 0.0, 2022-03-23 20:21:38.821
68.0, 566.3704492896795, 141.95725256809965, 1358.0867004594766, 625.6815226869658, -0.4800000227987766, 0.6560000311583281, 0.6240000296384096, 0.0, 0.0, 0.0, 0.0, 0.0, 1.6480848988210917E9, 0.0, 2022-03-23 20:21:38.821
69.0, 596.6636389307678, 142.29758346406743, 1353.0378355192952, 637.6417227452621, -0.4800000227987766, 0.6560000311583281, 0.6240000296384096, 0.0, 0.0, 0.0, 0.0, 0.0, 1.6480848988368652E9, 0.0, 2022-03-23 20:21:38.836
69.0, 583.9404992815107, 147.92239299742505, 1355.8951190854423, 635.9587677652016, -0.4800000227987766, 0.6560000311583281, 0.6240000296384096, 0.0, 0.0, 0.0, 0.0, 0.0, 1.6480848988368652E9, 0.0, 2022-03-23 20:21:38.836
70.0, 559.7134273685515, 137.8658020165749, 1349.107200665865, 617.2330886870623, -0.4800000227987766, 0.6560000311583281, 0.6240000296384096, 0.0, 0.0, 0.0, 0.0, 0.0, 1.6480848988375351E9, 0.0, 2022-03-23 20:21:38.837
70.0, 587.6841391371563, 144.76591743482277, 1353.871833209414, 635.0948508754373, -0.4800000227987766, 0.6560000311583281, 0.6240000296384096, 0.0, 0.0, 0.0, 0.0, 0.0, 1.6480848988375351E9, 0.0, 2022-03-23 20:21:38.837
71.0, 588.0356897329912, 145.824309122283, 1356.2691090810113, 644.7176134614274, -0.4800000227987766, 0.6720000319182873, 0.6240000296384096, 0.0, 0.0, 0.0, 0.0, 0.0, 1.648084898851126E9, 0.0, 2022-03-23 20:21:38.851
71.0, 570.1140891453251, 138.21361271245405, 1354.3243611040525, 639.2199605265632, -0.4800000227987766, 0.6720000319182873, 0.6240000296384096, 0.0, 0.0, 0.0, 0.0, 0.0, 1.648084898851126E9, 0.0, 2022-03-23 20:21:38.851
72.0, 580.282877124846, 134.6719274544157, 1348.5312560726888, 640.6598220095038, -0.4800000227987766, 0.6720000319182873, 0.6240000296384096, 0.0, 0.0, 0.0, 0.0, 0.0, 1.6480848988667357E9, 0.0, 2022-03-23 20:21:38.866
72.0, 588.3498413292691, 131.231219495181, 1347.9665311793797, 642.612049786374, -0.4800000227987766, 0.6720000319182873, 0.6240000296384096, 0.0, 0.0, 0.0, 0.0, 0.0, 1.6480848988667357E9, 0.0, 2022-03-23 20:21:38.866
73.0, 573.2406455082819, 140.1994995889254, 1350.6293399478309, 639.1937812268734, -0.4800000227987766, 0.6720000319182873, 0.6240000296384096, 0.0, 0.0, 0.0, 0.0, 0.0, 1.6480848988675044E9, 0.0, 2022-03-23 20:21:38.867
73.0, 566.3180906902999, 136.2314657359384, 1347.3083087871782, 633.120183698833, -0.4800000227987766, 0.6720000319182873, 0.6240000296384096, 0.0, 0.0, 0.0, 0.0, 0.0, 1.6480848988675044E9, 0.0, 2022-03-23 20:21:38.867
74.0, 607.8122806986794, 151.58749495400116, 1367.4177508489229, 663.3759743403643, -0.4800000227987766, 0.6720000319182873, 0.6240000296384096, 0.0, 0.0, 0.0, 0.0, 0.0, 1.648084898881133E9, 0.0, 2022-03-23 20:21:38.881
74.0, 588.5181368272752, 156.5054633957334, 1369.6429913225584, 648.1321421209723, -0.4800000227987766, 0.6720000319182873, 0.6240000296384096, 0.0, 0.0, 0.0, 0.0, 0.0, 1.648084898881133E9, 0.0, 2022-03-23 20:21:38.881
75.0, 575.5481637809426, 162.78101552138105, 1365.4281240724958, 641.2058474030346, -0.4800000227987766, 0.6720000319182873, 0.6240000296384096, 0.0, 0.0, 0.0, 0.0, 0.0, 1.648084898896757E9, 0.0, 2022-03-23 20:21:38.896
75.0, 604.9288178328425, 157.6124737826176, 1361.27683512168, 656.6104953205213, -0.4800000227987766, 0.6720000319182873, 0.6240000296384096, 0.0, 0.0, 0.0, 0.0, 0.0, 1.648084898896757E9, 0.0, 2022-03-23 20:21:38.896
76.0, 591.8690871875733, 154.01095012528822, 1361.856519614812, 654.1870401492342, -0.4800000227987766, 0.6720000319182873, 0.6240000296384096, 0.0, 0.0, 0.0, 0.0, 0.0, 1.6480848988975148E9, 0.0, 2022-03-23 20:21:38.897
76.0, 567.6644546743482, 149.77738337544724, 1358.516788954381, 635.7829924672842, -0.4800000227987766, 0.6720000319182873, 0.6240000296384096, 0.0, 0.0, 0.0, 0.0, 0.0, 1.6480848988975148E9, 0.0, 2022-03-23 20:21:38.897
77.0, 575.9969517756253, 153.72671772865579, 1359.2909482452087, 646.5576442396268, -0.4800000227987766, 0.6720000319182873, 0.6240000296384096, 0.0, 0.0, 0.0, 0.0, 0.0, 1.6480848989111304E9, 0.0, 2022-03-23 20:21:38.911
77.0, 604.6558051360771, 165.58968038810417, 1374.676896662917, 665.2833233177662, -0.4800000227987766, 0.6720000319182873, 0.6240000296384096, 0.0, 0.0, 0.0, 0.0, 0.0, 1.6480848989111304E9, 0.0, 2022-03-23 20:21:38.911
78.0, 592.5759282791987, 171.49498241813853, 1384.8643841422163, 668.2079250831157, -0.4800000227987766, 0.6720000319182873, 0.6240000296384096, 0.0, 0.0, 0.0, 0.0, 0.0, 1.6480848989267943E9, 0.0, 2022-03-23 20:21:38.926
78.0, 583.7123653842136, 166.09082698216662, 1375.739028250333, 660.5486099738628, -0.4800000227987766, 0.6720000319182873, 0.6240000296384096, 0.0, 0.0, 0.0, 0.0, 0.0, 1.6480848989267943E9, 0.0, 2022-03-23 20:21:38.926
79.0, 602.2248701648787, 154.4672179198824, 1366.4304172606207, 654.6021690443158, -0.4800000227987766, 0.6720000319182873, 0.6240000296384096, 0.0, 0.0, 0.0, 0.0, 0.0, 1.6480848989275532E9, 0.0, 2022-03-23 20:21:38.927
79.0, 588.8509879233316, 155.89211980300024, 1366.4565965603106, 656.7563514187932, -0.4800000227987766, 0.6720000319182873, 0.6240000296384096, 0.0, 0.0, 0.0, 0.0, 0.0, 1.6480848989275532E9, 0.0, 2022-03-23 20:21:38.927
80.0, 566.5836235871539, 151.07886856002733, 1363.2702017980628, 641.381622700952, -0.4800000227987766, 0.6720000319182873, 0.6240000296384096, 0.0, 0.0, 0.0, 0.0, 0.0, 1.6480848989410524E9, 0.0, 2022-03-23 20:21:38.941
80.0, 588.6677328255028, 140.9325199802406, 1352.6638455237262, 646.4005684414878, -0.4800000227987766, 0.6720000319182873, 0.6240000296384096, 0.0, 0.0, 0.0, 0.0, 0.0, 1.6480848989410524E9, 0.0, 2022-03-23 20:21:38.941
81.0, 586.4537120517343, 142.57433606078848, 1356.0858539831825, 642.5522113870829, -0.4800000227987766, 0.6720000319182873, 0.6240000296384096, 0.0, 0.0, 0.0, 0.0, 0.0, 1.6480848989567416E9, 0.0, 2022-03-23 20:21:38.956
81.0, 568.9173211595044, 149.70258537633345, 1352.9368582204916, 633.7073479918763, -0.4800000227987766, 0.6720000319182873, 0.6240000296384096, 0.0, 0.0, 0.0, 0.0, 0.0, 1.6480848989567416E9, 0.0, 2022-03-23 20:21:38.956
82.0, 576.7823307663202, 139.98632529145107, 1349.481190661434, 639.5154126230627, -0.4800000227987766, 0.6720000319182873, 0.6240000296384096, 0.0, 0.0, 0.0, 0.0, 0.0, 1.6480848989574647E9, 0.0, 2022-03-23 20:21:38.957
82.0, 598.9337582038715, 150.6861790646799, 1362.290348009672, 658.7945968946442, -0.4800000227987766, 0.6720000319182873, 0.6240000296384096, 0.0, 0.0, 0.0, 0.0, 0.0, 1.6480848989574647E9, 0.0, 2022-03-23 20:21:38.957
83.0, 579.9313265290111, 152.85158113902435, 1364.594126382377, 642.395135588944, -0.4800000227987766, 0.6720000319182873, 0.6240000296384096, 0.0, 0.0, 0.0, 0.0, 0.0, 1.6480848989710796E9, 0.0, 2022-03-23 20:21:38.971
83.0, 566.6247624866664, 158.19589817570522, 1362.3427066090517, 638.2588062379509, -0.4800000227987766, 0.6720000319182873, 0.6240000296384096, 0.0, 0.0, 0.0, 0.0, 0.0, 1.6480848989710796E9, 0.0, 2022-03-23 20:21:38.971
84.0, 592.4113726811484, 148.89476698590443, 1352.2711560283788, 647.8927885238081, -0.4800000227987766, 0.6720000319182873, 0.6240000296384096, 0.0, 0.0, 0.0, 0.0, 0.0, 1.6480848989869194E9, 0.0, 2022-03-23 20:21:38.986
84.0, 580.5633696215227, 146.84530181018636, 1355.5884472890757, 648.8315034126863, -0.4800000227987766, 0.6720000319182873, 0.6240000296384096, 0.0, 0.0, 0.0, 0.0, 0.0, 1.6480848989869194E9, 0.0, 2022-03-23 20:21:38.986
85.0, 565.689787497744, 144.29095014045015, 1356.1344726826064, 642.6008300865069, -0.4800000227987766, 0.6720000319182873, 0.6240000296384096, 0.0, 0.0, 0.0, 0.0, 0.0, 1.6480848989874773E9, 0.0, 2022-03-23 20:21:38.987
85.0, 587.0894950442016, 146.0561829195358, 1351.1791052413173, 645.1963206557557, -0.4800000227987766, 0.6720000319182873, 0.6240000296384096, 0.0, 0.0, 0.0, 0.0, 0.0, 1.6480848989874773E9, 0.0, 2022-03-23 20:21:38.987
86.0, 586.2367978543043, 144.66120023606345, 1355.5398285896517, 645.566570751369, -0.4800000227987766, 0.6720000319182873, 0.6240000296384096, 0.0, 0.0, 0.0, 0.0, 0.0, 1.6480848990010743E9, 0.0, 2022-03-23 20:21:39.001
86.0, 570.839629736729, 144.25729104084894, 1357.8361271624453, 645.2785984547809, -0.4800000227987766, 0.6720000319182873, 0.6240000296384096, 0.0, 0.0, 0.0, 0.0, 0.0, 1.6480848990010743E9, 0.0, 2022-03-23 20:21:39.001
87.0, 571.7783446256071, 135.8200767408125, 1347.843114480842, 637.3425307488069, -0.4800000227987766, 0.6720000319182873, 0.6240000296384096, 0.0, 0.0, 0.0, 0.0, 0.0, 1.6480848990167284E9, 0.0, 2022-03-23 20:21:39.016
87.0, 580.0622230274603, 134.11094246106222, 1339.4320794804953, 637.1181367514655, -0.4800000227987766, 0.6720000319182873, 0.6240000296384096, 0.0, 0.0, 0.0, 0.0, 0.0, 1.6480848990167284E9, 0.0, 2022-03-23 20:21:39.016
88.0, 557.0917574996129, 128.27295863023028, 1337.277897106018, 627.2111417688429, -0.4800000227987766, 0.6720000319182873, 0.6240000296384096, 0.0, 0.0, 0.0, 0.0, 0.0, 1.6480848990175097E9, 0.0, 2022-03-23 20:21:39.017
88.0, 556.6953281043097, 129.27899171831086, 1344.0022372263484, 623.3403453147039, -0.4800000227987766, 0.6720000319182873, 0.6240000296384096, 0.0, 0.0, 0.0, 0.0, 0.0, 1.6480848990175097E9, 0.0, 2022-03-23 20:21:39.017
89.0, 592.2131579834968, 137.23749882401899, 1348.4003595742397, 644.9607069585472, -0.4800000227987766, 0.6720000319182873, 0.6240000296384096, 0.0, 0.0, 0.0, 0.0, 0.0, 1.6480848990311031E9, 0.0, 2022-03-23 20:21:39.031
89.0, 582.5567362979054, 153.04605593672022, 1354.088747406844, 641.5274787992239, -0.4800000227987766, 0.6720000319182873, 0.6240000296384096, 0.0, 0.0, 0.0, 0.0, 0.0, 1.6480848990311031E9, 0.0, 2022-03-23 20:21:39.031
90.0, 566.0787370931357, 154.19420522311702, 1352.1739186295308, 635.5698181698099, -0.4800000227987766, 0.6720000319182873, 0.6400000303983688, 0.0, 0.0, 0.0, 0.0, 0.0, 1.6480848990469253E9, 0.0, 2022-03-23 20:21:39.046
90.0, 591.9775442862883, 153.96607132581994, 1350.5882010483183, 649.6842006025836, -0.4800000227987766, 0.6720000319182873, 0.6400000303983688, 0.0, 0.0, 0.0, 0.0, 0.0, 1.6480848990469253E9, 0.0, 2022-03-23 20:21:39.046
91.0, 573.2406455082819, 135.66674084262922, 1334.1812599427067, 632.4245623070747, -0.4800000227987766, 0.6720000319182873, 0.6400000303983688, 0.0, 0.0, 0.0, 0.0, 0.0, 1.6480848990475912E9, 0.0, 2022-03-23 20:21:39.047
91.0, 566.4527270887047, 147.48482470260933, 1341.4553653565235, 635.3678635722026, -0.4800000227987766, 0.6720000319182873, 0.6400000303983688, 0.0, 0.0, 0.0, 0.0, 0.0, 1.6480848990475912E9, 0.0, 2022-03-23 20:21:39.047
92.0, 564.1601684158668, 132.4541667806916, 1323.3093707715161, 621.5264938361943, -0.4800000227987766, 0.6720000319182873, 0.6400000303983688, 0.0, 0.0, 0.0, 0.0, 0.0, 1.6480848990610728E9, 0.0, 2022-03-23 20:21:39.061
92.0, 573.7791911019012, 135.62934184307232, 1325.5607905448414, 630.0048470357433, -0.4800000227987766, 0.6720000319182873, 0.6400000303983688, 0.0, 0.0, 0.0, 0.0, 0.0, 1.6480848990610728E9, 0.0, 2022-03-23 20:21:39.061
93.0, 567.4512803768739, 138.17995361285284, 1330.5647766855545, 631.0557589232922, -0.4800000227987766, 0.6720000319182873, 0.6400000303983688, 0.0, 0.0, 0.0, 0.0, 0.0, 1.6480848990768013E9, 0.0, 2022-03-23 20:21:39.076
93.0, 569.7587986495346, 153.22931103454903, 1348.2694630757906, 639.6500490214676, -0.4800000227987766, 0.6720000319182873, 0.6400000303983688, 0.0, 0.0, 0.0, 0.0, 0.0, 1.6480848990768013E9, 0.0, 2022-03-23 20:21:39.076
94.0, 598.7392834061757, 160.57073464756832, 1353.991510007996, 654.7480251425877, -0.4800000227987766, 0.6720000319182873, 0.6400000303983688, 0.0, 0.0, 0.0, 0.0, 0.0, 1.6480848990775287E9, 0.0, 2022-03-23 20:21:39.077
94.0, 579.0187909398228, 144.7210386353545, 1344.5407828199677, 642.3016380900517, -0.4800000227987766, 0.6720000319182873, 0.6400000303983688, 0.0, 0.0, 0.0, 0.0, 0.0, 1.6480848990775287E9, 0.0, 2022-03-23 20:21:39.077
95.0, 561.6993142450228, 150.84699476277456, 1346.4705711971037, 629.3653241433203, -0.4800000227987766, 0.6720000319182873, 0.6400000303983688, 0.0, 0.0, 0.0, 0.0, 0.0, 1.6480848990910833E9, 0.0, 2022-03-23 20:21:39.091
95.0, 596.5738813318312, 160.02844915399328, 1353.0602749190293, 647.1261090328917, -0.4800000227987766, 0.6720000319182873, 0.6400000303983688, 0.0, 0.0, 0.0, 0.0, 0.0, 1.6480848990910833E9, 0.0, 2022-03-23 20:21:39.091
96.0, 586.2068786546588, 156.54286239529029, 1349.5971275600605, 642.78034528438, -0.4800000227987766, 0.6720000319182873, 0.6400000303983688, 0.0, 0.0, 0.0, 0.0, 0.0, 1.6480848991068325E9, 0.0, 2022-03-23 20:21:39.106
96.0, 564.0030926177278, 158.44647147273645, 1343.9685781267472, 633.4343352951109, -0.4800000227987766, 0.6720000319182873, 0.6400000303983688, 0.0, 0.0, 0.0, 0.0, 0.0, 1.6480848991068325E9, 0.0, 2022-03-23 20:21:39.106
97.0, 573.1508879093453, 158.78680236870423, 1341.9378124508075, 630.3863168312237, -0.4800000227987766, 0.6720000319182873, 0.6400000303983688, 0.0, 0.0, 0.0, 0.0, 0.0, 1.6480848991075225E9, 0.0, 2022-03-23 20:21:39.107
97.0, 589.5466093150899, 158.19589817570522, 1341.739597753156, 644.287524966523, -0.4800000227987766, 0.6720000319182873, 0.6400000303983688, 0.0, 0.0, 0.0, 0.0, 0.0, 1.6480848991075225E9, 0.0, 2022-03-23 20:21:39.107
98.0, 570.2150664441288, 150.69739876454696, 1338.8785742870532, 631.2913726205006, -0.4800000227987766, 0.6720000319182873, 0.6400000303983688, 0.0, 0.0, 0.0, 0.0, 0.0, 1.648084899121102E9, 0.0, 2022-03-23 20:21:39.121
98.0, 559.1225231755525, 146.25439761718735, 1352.1327797300182, 628.7220613509417, -0.4800000227987766, 0.6720000319182873, 0.6400000303983688, 0.0, 0.0, 0.0, 0.0, 0.0, 1.648084899121102E9, 0.0, 2022-03-23 20:21:39.121
99.0, 598.9225385040045, 157.63491318235174, 1363.4571967958473, 656.3636619234458, -0.4800000227987766, 0.6720000319182873, 0.6400000303983688, 0.0, 0.0, 0.0, 0.0, 0.0, 1.6480848991365247E9, 0.0, 2022-03-23 20:21:39.136
99.0, 576.9805454639718, 148.48711789073423, 1362.9597901017405, 647.1672479324043, -0.4800000227987766, 0.6720000319182873, 0.6400000303983688, 0.0, 0.0, 0.0, 0.0, 0.0, 1.6480848991365247E9, 0.0, 2022-03-23 20:21:39.136
100.0, 567.1670479802415, 152.18587894691154, 1365.6936569693498, 642.3801759891212, -0.4800000227987766, 0.6720000319182873, 0.6400000303983688, 0.0, 0.0, 0.0, 0.0, 0.0, 1.6480848991524665E9, 0.0, 2022-03-23 20:21:39.152
100.0, 596.7683561295271, 157.26092318678275, 1372.2983202910982, 660.0362436799332, -0.4800000227987766, 0.6720000319182873, 0.6400000303983688, 0.0, 0.0, 0.0, 0.0, 0.0, 1.6480848991524665E9, 0.0, 2022-03-23 20:21:39.152
0.0, 598.578467708081, 161.79368193307891, 1379.1479470599443, 667.1233540959656, -0.4800000227987766, 0.6720000319182873, 0.6400000303983688, 0.0, 0.0, 0.0, 0.0, 0.0, 1.6480848991532807E9, 0.0, 2022-03-23 20:21:39.153
1.0, 577.339575859718, 162.19011132838205, 1377.8315022755414, 655.8961744289845, -0.4800000227987766, 0.6720000319182873, 0.6400000303983688, 0.0, 0.0, 0.0, 0.0, 0.0, 1.6480848991539693E9, 0.0, 2022-03-23 20:21:39.153
1.0, 579.9949048282579, 155.37601360911503, 1369.562583473511, 648.6819074144587, -0.4800000227987766, 0.6720000319182873, 0.6400000303983688, 0.0, 0.0, 0.0, 0.0, 0.0, 1.6480848991539693E9, 0.0, 2022-03-23 20:21:39.153
2.0, 588.86968742311, 151.91660615010187, 1364.8503095293418, 647.8628693241626, -0.4800000227987766, 0.6720000319182873, 0.6400000303983688, 0.0, 0.0, 0.0, 0.0, 0.0, 1.6480848991661415E9, 0.0, 2022-03-23 20:21:39.166
2.0, 576.8309494657442, 151.1237473594956, 1363.8741956409067, 642.7766053844243, -0.4800000227987766, 0.6720000319182873, 0.6400000303983688, 0.0, 0.0, 0.0, 0.0, 0.0, 1.6480848991661415E9, 0.0, 2022-03-23 20:21:39.166
3.0, 556.9010226018727, 140.68942648312077, 1352.2169274790213, 622.8765977201983, -0.4800000227987766, 0.6720000319182873, 0.6400000303983688, 0.0, 0.0, 0.0, 0.0, 0.0, 1.6480848991818032E9, 0.0, 2022-03-23 20:21:39.181
3.0, 582.9456858932972, 134.7542052534409, 1341.5170737057924, 636.8002452552319, -0.4800000227987766, 0.6720000319182873, 0.6400000303983688, 0.0, 0.0, 0.0, 0.0, 0.0, 1.6480848991818032E9, 0.0, 2022-03-23 20:21:39.181
4.0, 565.3494566017762, 128.98353962181136, 1338.5475931409746, 635.3641236722469, -0.4800000227987766, 0.6720000319182873, 0.6400000303983688, 0.0, 0.0, 0.0, 0.0, 0.0, 1.6480848991824937E9, 0.0, 2022-03-23 20:21:39.182
4.0, 553.845524338074, 135.4199074455537, 1352.9162887707353, 629.2082483451813, -0.4800000227987766, 0.6720000319182873, 0.6400000303983688, 0.0, 0.0, 0.0, 0.0, 0.0, 1.6480848991824937E9, 0.0, 2022-03-23 20:21:39.182
5.0, 571.4567132294178, 120.16859542625025, 1332.6909098103642, 621.3656781380996, -0.4800000227987766, 0.6720000319182873, 0.6400000303983688, 0.0, 0.0, 0.0, 0.0, 0.0, 1.6480848991961231E9, 0.0, 2022-03-23 20:21:39.196
5.0, 566.9875327823684, 121.75057310750708, 1335.5743726762012, 626.5043006772175, -0.4800000227987766, 0.6720000319182873, 0.6400000303983688, 0.0, 0.0, 0.0, 0.0, 0.0, 1.6480848991961231E9, 0.0, 2022-03-23 20:21:39.196
6.0, 554.7692796271294, 130.4121814048849, 1339.5723257288337, 621.7060090340674, -0.4800000227987766, 0.6720000319182873, 0.6400000303983688, 0.0, 0.0, 0.0, 0.0, 0.0, 1.6480848992118418E9, 0.0, 2022-03-23 20:21:39.211
6.0, 569.4371672533453, 132.2634318829514, 1342.7475007912144, 632.2487870091572, -0.4800000227987766, 0.6720000319182873, 0.6400000303983688, 0.0, 0.0, 0.0, 0.0, 0.0, 1.6480848992118418E9, 0.0, 2022-03-23 20:21:39.211
7.0, 582.597875197418, 135.58446304360405, 1349.5578586105257, 641.3255242016166, -0.4800000227987766, 0.6720000319182873, 0.6400000303983688, 0.0, 0.0, 0.0, 0.0, 0.0, 1.6480848992125208E9, 0.0, 2022-03-23 20:21:39.212
7.0, 563.5356051232666, 136.66903403075412, 1343.7871929788962, 630.5172133296728, -0.4800000227987766, 0.6720000319182873, 0.6400000303983688, 0.0, 0.0, 0.0, 0.0, 0.0, 1.6480848992125208E9, 0.0, 2022-03-23 20:21:39.212
8.0, 564.9118883069605, 142.50701786158606, 1350.930401894264, 638.7150740325451, -0.4800000227987766, 0.6720000319182873, 0.6400000303983688, 0.0, 0.0, 0.0, 0.0, 0.0, 1.6480848992261157E9, 0.0, 2022-03-23 20:21:39.226
8.0, 579.6807532319799, 116.89618296502158, 1326.8791052792221, 624.6904491987079, -0.4800000227987766, 0.6720000319182873, 0.6400000303983688, 0.0, 0.0, 0.0, 0.0, 0.0, 1.6480848992261157E9, 0.0, 2022-03-23 20:21:39.226
9.0, 566.7930579846725, 118.55295864539221, 1332.7993669090793, 620.1015919530764, -0.4800000227987766, 0.6720000319182873, 0.6400000303983688, 0.0, 0.0, 0.0, 0.0, 0.0, 1.6480848992418551E9, 0.0, 2022-03-23 20:21:39.241
9.0, 554.5261861300096, 128.97979972185567, 1340.8401518138126, 620.3222460504621, -0.4800000227987766, 0.6720000319182873, 0.6400000303983688, 0.0, 0.0, 0.0, 0.0, 0.0, 1.6480848992418551E9, 0.0, 2022-03-23 20:21:39.241
10.0, 587.4485254399478, 132.28213138272986, 1347.624330333434, 641.3591833012179, -0.4800000227987766, 0.6720000319182873, 0.6400000303983688, 0.0, 0.0, 0.0, 0.0, 0.0, 1.648084899242562E9, 0.0, 2022-03-23 20:21:39.242
10.0, 571.2809379315004, 120.16859542625025, 1332.500174912624, 622.8840775201097, -0.4800000227987766, 0.6720000319182873, 0.6400000303983688, 0.0, 0.0, 0.0, 0.0, 0.0, 1.648084899242562E9, 0.0, 2022-03-23 20:21:39.242
11.0, 556.4896336067468, 130.4495804044418, 1331.0715331295505, 620.1988293519244, -0.4800000227987766, 0.6720000319182873, 0.6400000303983688, 0.0, 0.0, 0.0, 0.0, 0.0, 1.6480848992561233E9, 0.0, 2022-03-23 20:21:39.256
11.0, 558.3147047851235, 113.8855635006912, 1319.1711714705452, 617.936189878732, -0.4800000227987766, 0.6720000319182873, 0.6400000303983688, 0.0, 0.0, 0.0, 0.0, 0.0, 1.6480848992561233E9, 0.0, 2022-03-23 20:21:39.256
12.0, 575.3125500837341, 118.2949055484496, 1324.1153192119673, 629.1484099458903, -0.5120000243186951, 0.6720000319182873, 0.6400000303983688, 0.0, 0.0, 0.0, 0.0, 0.0, 1.648084899271777E9, 0.0, 2022-03-23 20:21:39.271
12.0, 557.1291564991698, 127.97376663377509, 1332.283260715194, 630.3750971313566, -0.5120000243186951, 0.6720000319182873, 0.6400000303983688, 0.0, 0.0, 0.0, 0.0, 0.0, 1.648084899271777E9, 0.0, 2022-03-23 20:21:39.271
13.0, 556.0483254119754, 129.4173680166714, 1338.024007147178, 631.5905646169558, -0.5120000243186951, 0.6720000319182873, 0.6400000303983688, 0.0, 0.0, 0.0, 0.0, 0.0, 1.6480848992724795E9, 0.0, 2022-03-23 20:21:39.272
13.0, 578.1548740500584, 128.1495419316925, 1331.995288418606, 639.186301426962, -0.5120000243186951, 0.6720000319182873, 0.6400000303983688, 0.0, 0.0, 0.0, 0.0, 0.0, 1.6480848992724795E9, 0.0, 2022-03-23 20:21:39.272
14.0, 573.479999105446, 135.50592514453456, 1344.1574430745095, 635.8540505664423, -0.5120000243186951, 0.6720000319182873, 0.6400000303983688, 0.0, 0.0, 0.0, 0.0, 0.0, 1.6480848992860742E9, 0.0, 2022-03-23 20:21:39.286
14.0, 565.5962899988517, 149.5006307787262, 1355.0629913453013, 634.4927269825712, -0.5120000243186951, 0.6720000319182873, 0.6400000303983688, 0.0, 0.0, 0.0, 0.0, 0.0, 1.6480848992860742E9, 0.0, 2022-03-23 20:21:39.286
15.0, 583.0242237923667, 138.1163753136061, 1345.1185973631218, 635.3940428718925, -0.5120000243186951, 0.6720000319182873, 0.6400000303983688, 0.0, 0.0, 0.0, 0.0, 0.0, 1.648084899301833E9, 0.0, 2022-03-23 20:21:39.301
15.0, 590.0851549087092, 145.5699959252961, 1346.49114064686, 646.0677173454314, -0.5120000243186951, 0.6720000319182873, 0.6400000303983688, 0.0, 0.0, 0.0, 0.0, 0.0, 1.648084899301833E9, 0.0, 2022-03-23 20:21:39.301
16.0, 562.1892411392182, 134.84022295242175, 1334.684276486747, 633.7858858909458, -0.5120000243186951, 0.6720000319182873, 0.6400000303983688, 0.0, 0.0, 0.0, 0.0, 0.0, 1.6480848993024898E9, 0.0, 2022-03-23 20:21:39.302
16.0, 579.3815612355247, 138.4866254092194, 1341.5208136057481, 648.2256396198645, -0.5120000243186951, 0.6720000319182873, 0.6400000303983688, 0.0, 0.0, 0.0, 0.0, 0.0, 1.6480848993024898E9, 0.0, 2022-03-23 20:21:39.302
17.0, 598.795381905511, 144.750957835, 1344.6772891683504, 655.5932425325736, -0.5120000243186951, 0.6720000319182873, 0.6400000303983688, 0.0, 0.0, 0.0, 0.0, 0.0, 1.648084899316085E9, 0.0, 2022-03-23 20:21:39.316
17.0, 582.1827463023365, 149.59412827761844, 1340.7653538146988, 642.612049786374, -0.5120000243186951, 0.6720000319182873, 0.6400000303983688, 0.0, 0.0, 0.0, 0.0, 0.0, 1.648084899316085E9, 0.0, 2022-03-23 20:21:39.316
18.0, 566.6397220864892, 149.40713327983394, 1335.2789205797017, 640.2970517138019, -0.5120000243186951, 0.6720000319182873, 0.6400000303983688, 0.0, 0.0, 0.0, 0.0, 0.0, 1.648084899331714E9, 0.0, 2022-03-23 20:21:39.331
18.0, 592.7928424766287, 140.80536338174716, 1323.0120487250388, 641.1908878032118, -0.5120000243186951, 0.6720000319182873, 0.6400000303983688, 0.0, 0.0, 0.0, 0.0, 0.0, 1.648084899331714E9, 0.0, 2022-03-23 20:21:39.331
19.0, 581.84989520628, 146.6396073126234, 1333.3827913021669, 634.1374364867806, -0.5120000243186951, 0.6720000319182873, 0.6400000303983688, 0.0, 0.0, 0.0, 0.0, 0.0, 1.6480848993324692E9, 0.0, 2022-03-23 20:21:39.332
19.0, 563.6253627222031, 134.2680182592012, 1319.631179165095, 628.187255657278, -0.5120000243186951, 0.6720000319182873, 0.6400000303983688, 0.0, 0.0, 0.0, 0.0, 0.0, 1.6480848993324692E9, 0.0, 2022-03-23 20:21:39.332
20.0, 586.7005454488099, 142.68653305945918, 1327.7318024691194, 642.4175749886781, -0.5120000243186951, 0.6720000319182873, 0.6400000303983688, 0.0, 0.0, 0.0, 0.0, 0.0, 1.6480848993460822E9, 0.0, 2022-03-23 20:21:39.346
20.0, 580.4960514223203, 138.98403210332617, 1321.9499171376228, 633.4530347948894, -0.5120000243186951, 0.6720000319182873, 0.6400000303983688, 0.0, 0.0, 0.0, 0.0, 0.0, 1.6480848993460822E9, 0.0, 2022-03-23 20:21:39.346
21.0, 570.8882484361529, 146.83782201027498, 1335.9109636722133, 638.4757204353809, -0.5120000243186951, 0.6560000311583281, 0.6400000303983688, 0.0, 0.0, 0.0, 0.0, 0.0, 1.648084899361799E9, 0.0, 2022-03-23 20:21:39.361
21.0, 585.3392218649387, 145.31568272830918, 1339.2095554331318, 633.662469192408, -0.5120000243186951, 0.6560000311583281, 0.6400000303983688, 0.0, 0.0, 0.0, 0.0, 0.0, 1.648084899361799E9, 0.0, 2022-03-23 20:21:39.361
22.0, 598.144639313221, 144.14883394213393, 1336.8608982609585, 647.2981444308534, -0.49600002355873585, 0.6560000311583281, 0.6400000303983688, 0.0, 0.0, 0.0, 0.0, 0.0, 1.6480848993626328E9, 0.0, 2022-03-23 20:21:39.362
22.0, 580.3127963244915, 152.1671794471331, 1342.6764426920563, 639.2423999262974, -0.49600002355873585, 0.6560000311583281, 0.6400000303983688, 0.0, 0.0, 0.0, 0.0, 0.0, 1.6480848993626328E9, 0.0, 2022-03-23 20:21:39.362
23.0, 564.410741712898, 137.27489782357588, 1324.4706097077578, 625.6254241876304, -0.49600002355873585, 0.6560000311583281, 0.6400000303983688, 0.0, 0.0, 0.0, 0.0, 0.0, 1.6480848993760617E9, 0.0, 2022-03-23 20:21:39.376
23.0, 586.4163130521774, 131.88196208747104, 1320.8167274510488, 629.8702106373385, -0.49600002355873585, 0.6560000311583281, 0.6400000303983688, 0.0, 0.0, 0.0, 0.0, 0.0, 1.6480848993760617E9, 0.0, 2022-03-23 20:21:39.376
24.0, 570.6451549390331, 132.65238147834316, 1323.902144914493, 627.3008993677795, -0.49600002355873585, 0.6560000311583281, 0.6400000303983688, 0.0, 0.0, 0.0, 0.0, 0.0, 1.648084899391866E9, 0.0, 2022-03-23 20:21:39.391
24.0, 543.9273096555844, 132.21855308348313, 1314.9600441204384, 614.7460552165285, -0.49600002355873585, 0.6560000311583281, 0.6400000303983688, 0.0, 0.0, 0.0, 0.0, 0.0, 1.648084899391866E9, 0.0, 2022-03-23 20:21:39.391
25.0, 584.0751356799155, 151.2808231576346, 1341.303899408318, 641.6022767983377, -0.49600002355873585, 0.6560000311583281, 0.6400000303983688, 0.0, 0.0, 0.0, 0.0, 0.0, 1.6480848993924992E9, 0.0, 2022-03-23 20:21:39.392
25.0, 569.9121345477179, 136.81863002898172, 1331.6998363221064, 626.0330732828006, -0.49600002355873585, 0.6560000311583281, 0.6400000303983688, 0.0, 0.0, 0.0, 0.0, 0.0, 1.6480848993924992E9, 0.0, 2022-03-23 20:21:39.392
26.0, 560.4015689603984, 138.83069620514289, 1331.5651999237016, 615.3818382089958, -0.49600002355873585, 0.6560000311583281, 0.6400000303983688, 0.0, 0.0, 0.0, 0.0, 0.0, 1.6480848994060607E9, 0.0, 2022-03-23 20:21:39.406
26.0, 570.3758821422234, 135.5321044442244, 1328.0422141654417, 616.3953510969877, -0.49600002355873585, 0.6560000311583281, 0.6400000303983688, 0.0, 0.0, 0.0, 0.0, 0.0, 1.6480848994060607E9, 0.0, 2022-03-23 20:21:39.406
27.0, 586.3639544527978, 134.95989975100383, 1319.066454271786, 627.0428462708369, -0.49600002355873585, 0.6560000311583281, 0.6400000303983688, 0.0, 0.0, 0.0, 0.0, 0.0, 1.6480848994218512E9, 0.0, 2022-03-23 20:21:39.421
27.0, 571.4866324290633, 129.36126951733604, 1321.452510443516, 617.6369978822768, -0.49600002355873585, 0.6560000311583281, 0.6400000303983688, 0.0, 0.0, 0.0, 0.0, 0.0, 1.6480848994218512E9, 0.0, 2022-03-23 20:21:39.421
28.0, 553.0302261477336, 134.77664465317503, 1315.6481857122853, 610.3965515680611, -0.49600002355873585, 0.6560000311583281, 0.6400000303983688, 0.0, 0.0, 0.0, 0.0, 0.0, 1.648084899422516E9, 0.0, 2022-03-23 20:21:39.422
28.0, 585.0736889680848, 136.0818697377108, 1321.6282857414335, 634.7806992791593, -0.49600002355873585, 0.6560000311583281, 0.6400000303983688, 0.0, 0.0, 0.0, 0.0, 0.0, 1.648084899422516E9, 0.0, 2022-03-23 20:21:39.422
29.0, 565.4466940006241, 125.27729876572266, 1317.2974815927446, 618.68416986987, -0.49600002355873585, 0.6560000311583281, 0.6400000303983688, 0.0, 0.0, 0.0, 0.0, 0.0, 1.6480848994361095E9, 0.0, 2022-03-23 20:21:39.436
29.0, 557.1328963991255, 130.77869160054252, 1316.70283749979, 614.9667093139142, -0.49600002355873585, 0.6560000311583281, 0.6400000303983688, 0.0, 0.0, 0.0, 0.0, 0.0, 1.6480848994361095E9, 0.0, 2022-03-23 20:21:39.436
30.0, 588.447078728117, 144.87811443349347, 1328.52092135977, 634.4141890835017, -0.49600002355873585, 0.6560000311583281, 0.6400000303983688, 0.0, 0.0, 0.0, 0.0, 0.0, 1.648084899451774E9, 0.0, 2022-03-23 20:21:39.451
30.0, 594.6253934549168, 152.4588916436769, 1339.9650152241811, 642.7429462848231, -0.49600002355873585, 0.6560000311583281, 0.6400000303983688, 0.0, 0.0, 0.0, 0.0, 0.0, 1.648084899451774E9, 0.0, 2022-03-23 20:21:39.451
31.0, 567.3802222777158, 147.43246610322967, 1334.6431375872344, 632.155289510265, -0.49600002355873585, 0.6560000311583281, 0.6400000303983688, 0.0, 0.0, 0.0, 0.0, 0.0, 1.6480848994525447E9, 0.0, 2022-03-23 20:21:39.452
31.0, 580.3501953240484, 145.13616753043607, 1334.4935415890068, 627.8880636608228, -0.49600002355873585, 0.6560000311583281, 0.6400000303983688, 0.0, 0.0, 0.0, 0.0, 0.0, 1.6480848994525447E9, 0.0, 2022-03-23 20:21:39.452
32.0, 588.7051318250597, 141.85253536934033, 1331.7185358218849, 631.8785369135439, -0.49600002355873585, 0.6560000311583281, 0.6400000303983688, 0.0, 0.0, 0.0, 0.0, 0.0, 1.6480848994661689E9, 0.0, 2022-03-23 20:21:39.466
32.0, 566.8154973844066, 138.99151190323755, 1329.3063003504649, 621.7321883337572, -0.49600002355873585, 0.6560000311583281, 0.6400000303983688, 0.0, 0.0, 0.0, 0.0, 0.0, 1.6480848994661689E9, 0.0, 2022-03-23 20:21:39.466
33.0, 564.0479714171961, 150.50292396685109, 1335.5855923760682, 621.7060090340674, -0.49600002355873585, 0.6560000311583281, 0.6400000303983688, 0.0, 0.0, 0.0, 0.0, 0.0, 1.6480848994818473E9, 0.0, 2022-03-23 20:21:39.481
33.0, 599.4536042977124, 150.29348956933245, 1338.3119794437662, 633.3931963955984, -0.49600002355873585, 0.6560000311583281, 0.6400000303983688, 0.0, 0.0, 0.0, 0.0, 0.0, 1.6480848994818473E9, 0.0, 2022-03-23 20:21:39.481
34.0, 587.6430002376437, 150.8731740624644, 1346.973587741144, 632.1926885098219, -0.49600002355873585, 0.6560000311583281, 0.6400000303983688, 0.0, 0.0, 0.0, 0.0, 0.0, 1.648084899482548E9, 0.0, 2022-03-23 20:21:39.482
34.0, 561.9050087425858, 143.2362983529456, 1336.5916254641488, 614.2561283223331, -0.49600002355873585, 0.6560000311583281, 0.6400000303983688, 0.0, 0.0, 0.0, 0.0, 0.0, 1.648084899482548E9, 0.0, 2022-03-23 20:21:39.482
35.0, 587.0408763447776, 143.1988993533887, 1334.370124890469, 626.6950355749577, -0.49600002355873585, 0.6560000311583281, 0.6400000303983688, 0.0, 0.0, 0.0, 0.0, 0.0, 1.6480848994960983E9, 0.0, 2022-03-23 20:21:39.496
35.0, 578.4877251461148, 143.9356596446596, 1327.7355423690751, 622.771880521439, -0.49600002355873585, 0.6560000311583281, 0.6400000303983688, 0.0, 0.0, 0.0, 0.0, 0.0, 1.6480848994960983E9, 0.0, 2022-03-23 20:21:39.496
36.0, 569.4259475534782, 138.24727181205526, 1330.7087628338486, 623.6657166108489, -0.49600002355873585, 0.6560000311583281, 0.6400000303983688, 0.0, 0.0, 0.0, 0.0, 0.0, 1.6480848995118237E9, 0.0, 2022-03-23 20:21:39.511
36.0, 572.4702261174098, 138.95037300372496, 1319.73963626381, 618.8674249676988, -0.49600002355873585, 0.6560000311583281, 0.6400000303983688, 0.0, 0.0, 0.0, 0.0, 0.0, 1.6480848995118237E9, 0.0, 2022-03-23 20:21:39.511
37.0, 592.7143045775592, 128.43377432832494, 1310.98453046754, 616.5823460947722, -0.49600002355873585, 0.6560000311583281, 0.6400000303983688, 0.0, 0.0, 0.0, 0.0, 0.0, 1.64808489951253E9, 0.0, 2022-03-23 20:21:39.512
37.0, 569.8560360483825, 119.79834533063695, 1308.669532394968, 612.6965900408104, -0.49600002355873585, 0.6560000311583281, 0.6400000303983688, 0.0, 0.0, 0.0, 0.0, 0.0, 1.64808489951253E9, 0.0, 2022-03-23 20:21:39.512
38.0, 580.2305185254663, 131.9380605868064, 1323.733849416487, 626.5603991765529, -0.49600002355873585, 0.6560000311583281, 0.6400000303983688, 0.0, 0.0, 0.0, 0.0, 0.0, 1.6480848995260668E9, 0.0, 2022-03-23 20:21:39.526
38.0, 605.1345123304054, 129.21167351910844, 1319.8892322620377, 636.5272325584665, -0.49600002355873585, 0.6560000311583281, 0.6400000303983688, 0.0, 0.0, 0.0, 0.0, 0.0, 1.6480848995260668E9, 0.0, 2022-03-23 20:21:39.526
39.0, 581.5058244103566, 126.4852864514105, 1321.3365735448897, 628.5986446524039, -0.49600002355873585, 0.6560000311583281, 0.6400000303983688, 0.0, 0.0, 0.0, 0.0, 0.0, 1.6480848995417984E9, 0.0, 2022-03-23 20:21:39.541
39.0, 577.4031541589648, 138.91297400416806, 1333.2444150038064, 629.092311446555, -0.49600002355873585, 0.6560000311583281, 0.6400000303983688, 0.0, 0.0, 0.0, 0.0, 0.0, 1.6480848995417984E9, 0.0, 2022-03-23 20:21:39.541
40.0, 611.4549432555214, 144.78087703464553, 1337.784653550014, 649.0334580102935, -0.49600002355873585, 0.6560000311583281, 0.6080000288784504, 0.0, 0.0, 0.0, 0.0, 0.0, 1.6480848995424712E9, 0.0, 2022-03-23 20:21:39.542
40.0, 594.5244161561131, 131.73984588915482, 1320.0089090606198, 632.6489563044161, -0.49600002355873585, 0.6560000311583281, 0.6080000288784504, 0.0, 0.0, 0.0, 0.0, 0.0, 1.6480848995424712E9, 0.0, 2022-03-23 20:21:39.542
41.0, 578.0127578517422, 139.9040474924259, 1332.5712330117822, 633.4679943947122, -0.49600002355873585, 0.7040000334382057, 0.6080000288784504, 0.0, 0.0, 0.0, 0.0, 0.0, 1.648084899572187E9, 0.0, 2022-03-23 20:21:39.572
41.0, 577.6911264555529, 125.76348575996235, 1321.7816216396168, 628.0713187586516, -0.49600002355873585, 0.7040000334382057, 0.6080000288784504, 0.0, 0.0, 0.0, 0.0, 0.0, 1.648084899572187E9, 0.0, 2022-03-23 20:21:39.572
42.0, 606.8660860098898, 132.64490167843178, 1334.6169582875445, 648.2106800200418, -0.49600002355873585, 0.7040000334382057, 0.6080000288784504, 0.0, 0.0, 0.0, 0.0, 0.0, 1.648084899572934E9, 0.0, 2022-03-23 20:21:39.572
42.0, 595.3845931459218, 143.56166964909062, 1342.740020991303, 652.6050624679774, -0.49600002355873585, 0.7040000334382057, 0.6080000288784504, 0.0, 0.0, 0.0, 0.0, 0.0, 1.648084899572934E9, 0.0, 2022-03-23 20:21:39.572
43.0, 586.2218382544816, 146.6844861120917, 1330.8396593322977, 643.2253933791071, -0.49600002355873585, 0.7040000334382057, 0.6080000288784504, 0.0, 0.0, 0.0, 0.0, 0.0, 1.6480848995868568E9, 0.0, 2022-03-23 20:21:39.586
43.0, 613.3622922329232, 137.9032010161318, 1334.6618370870128, 644.0257319696248, -0.49600002355873585, 0.7040000334382057, 0.6080000288784504, 0.0, 0.0, 0.0, 0.0, 0.0, 1.6480848995868568E9, 0.0, 2022-03-23 20:21:39.586
44.0, 601.8134811697528, 135.34884934639558, 1335.226561980322, 643.2291332790628, -0.49600002355873585, 0.7040000334382057, 0.6080000288784504, 0.0, 0.0, 0.0, 0.0, 0.0, 1.6480848995874991E9, 0.0, 2022-03-23 20:21:39.587
44.0, 583.1551202908158, 127.88026913488284, 1323.3187205214053, 630.442415330559, -0.49600002355873585, 0.7040000334382057, 0.6080000288784504, 0.0, 0.0, 0.0, 0.0, 0.0, 1.6480848995874991E9, 0.0, 2022-03-23 20:21:39.587
45.0, 592.729264177382, 108.2570140673779, 1306.7771430173889, 630.0497258352116, -0.49600002355873585, 0.7040000334382057, 0.6080000288784504, 0.0, 0.0, 0.0, 0.0, 0.0, 1.6480848996018069E9, 0.0, 2022-03-23 20:21:39.601
45.0, 596.8992526279762, 115.41892248252407, 1311.5118563612923, 633.5390524938703, -0.49600002355873585, 0.7040000334382057, 0.6080000288784504, 0.0, 0.0, 0.0, 0.0, 0.0, 1.6480848996018069E9, 0.0, 2022-03-23 20:21:39.601
46.0, 587.1605531433597, 141.51220447337255, 1341.1169044105336, 645.880722347647, -0.49600002355873585, 0.7040000334382057, 0.6080000288784504, 0.0, 0.0, 0.0, 0.0, 0.0, 1.6480848996025317E9, 0.0, 2022-03-23 20:21:39.602
46.0, 600.0893872901797, 142.7912502582185, 1337.1974892569706, 656.7974903183058, -0.49600002355873585, 0.7040000334382057, 0.6080000288784504, 0.0, 0.0, 0.0, 0.0, 0.0, 1.6480848996025317E9, 0.0, 2022-03-23 20:21:39.602
47.0, 608.0291948961094, 139.01769120292738, 1330.1664773402736, 655.2678712364286, -0.49600002355873585, 0.7040000334382057, 0.6080000288784504, 0.0, 0.0, 0.0, 0.0, 0.0, 1.6480848996160362E9, 0.0, 2022-03-23 20:21:39.616
47.0, 601.6788447713479, 141.73659847071394, 1340.3427451197058, 658.2635311009362, -0.49600002355873585, 0.7040000334382057, 0.6080000288784504, 0.0, 0.0, 0.0, 0.0, 0.0, 1.6480848996160362E9, 0.0, 2022-03-23 20:21:39.616
48.0, 587.2615304421633, 138.63248150749132, 1337.5041610533372, 650.9856857871637, -0.49600002355873585, 0.7040000334382057, 0.6080000288784504, 0.0, 0.0, 0.0, 0.0, 0.0, 1.6480848996318011E9, 0.0, 2022-03-23 20:21:39.631
48.0, 618.3288793740794, 136.64659463101998, 1338.1885627452284, 668.5407761791721, -0.49600002355873585, 0.7040000334382057, 0.6080000288784504, 0.0, 0.0, 0.0, 0.0, 0.0, 1.6480848996318011E9, 0.0, 2022-03-23 20:21:39.631
49.0, 598.7392834061757, 143.87582124536857, 1343.7086550798267, 652.9005145644769, -0.49600002355873585, 0.7040000334382057, 0.6080000288784504, 0.0, 0.0, 0.0, 0.0, 0.0, 1.6480848996325035E9, 0.0, 2022-03-23 20:21:39.632
49.0, 570.1888871444389, 131.231219495181, 1330.4918486364186, 628.247094056569, -0.49600002355873585, 0.7040000334382057, 0.6080000288784504, 0.0, 0.0, 0.0, 0.0, 0.0, 1.6480848996325035E9, 0.0, 2022-03-23 20:21:39.632
50.0, 598.2867555115372, 134.28297785902396, 1339.1048382343724, 644.32492396608, -0.49600002355873585, 0.7040000334382057, 0.5920000281184912, 0.0, 0.0, 0.0, 0.0, 0.0, 1.6480848996460693E9, 0.0, 2022-03-23 20:21:39.646
50.0, 582.1939660022035, 119.97412062855437, 1319.0066158724949, 634.45906788297, -0.49600002355873585, 0.7040000334382057, 0.5920000281184912, 0.0, 0.0, 0.0, 0.0, 0.0, 1.6480848996460693E9, 0.0, 2022-03-23 20:21:39.646
51.0, 571.6549279270694, 126.41796825220808, 1322.2341495342553, 630.2554203327745, -0.49600002355873585, 0.7040000334382057, 0.5920000281184912, 0.0, 0.0, 0.0, 0.0, 0.0, 1.648084899661876E9, 0.0, 2022-03-23 20:21:39.661
51.0, 593.5782214673236, 136.20902633620426, 1335.7015292746946, 641.923908194527, -0.49600002355873585, 0.7040000334382057, 0.5920000281184912, 0.0, 0.0, 0.0, 0.0, 0.0, 1.648084899661876E9, 0.0, 2022-03-23 20:21:39.661
52.0, 617.0049547897652, 132.53270467976108, 1333.8839378962293, 647.0101721342653, -0.49600002355873585, 0.7040000334382057, 0.5920000281184912, 0.0, 0.0, 0.0, 0.0, 0.0, 1.6480848996625698E9, 0.0, 2022-03-23 20:21:39.662
52.0, 582.6352741969749, 125.29225836554542, 1318.8570198742673, 619.974435354583, -0.49600002355873585, 0.7040000334382057, 0.5920000281184912, 0.0, 0.0, 0.0, 0.0, 0.0, 1.6480848996625698E9, 0.0, 2022-03-23 20:21:39.662
53.0, 576.9319267645478, 133.31808367045596, 1325.480382695794, 623.8527116086334, -0.49600002355873585, 0.7040000334382057, 0.5920000281184912, 0.0, 0.0, 0.0, 0.0, 0.0, 1.648084899676116E9, 0.0, 2022-03-23 20:21:39.676
53.0, 607.4981291024014, 138.04157731449232, 1334.0858924938366, 632.3086254084483, -0.49600002355873585, 0.7040000334382057, 0.5920000281184912, 0.0, 0.0, 0.0, 0.0, 0.0, 1.648084899676116E9, 0.0, 2022-03-23 20:21:39.676
54.0, 587.9010533345863, 143.460692350287, 1341.7302480032668, 627.7085484629497, -0.49600002355873585, 0.7040000334382057, 0.5920000281184912, 0.0, 0.0, 0.0, 0.0, 0.0, 1.648084899708129E9, 0.0, 2022-03-23 20:21:39.708
54.0, 567.4176212772727, 129.24159271875396, 1324.0629606125876, 609.577513477765, -0.49600002355873585, 0.7040000334382057, 0.5920000281184912, 0.0, 0.0, 0.0, 0.0, 0.0, 1.648084899708129E9, 0.0, 2022-03-23 20:21:39.708
55.0, 586.1059013558552, 125.51291246293113, 1322.092033335939, 614.1813303232193, -0.49600002355873585, 0.7040000334382057, 0.5920000281184912, 0.0, 0.0, 0.0, 0.0, 0.0, 1.648084899708867E9, 0.0, 2022-03-23 20:21:39.708
55.0, 583.3271556887776, 136.81115022907034, 1336.7000825628638, 615.5688332067803, -0.49600002355873585, 0.7040000334382057, 0.5920000281184912, 0.0, 0.0, 0.0, 0.0, 0.0, 1.648084899708867E9, 0.0, 2022-03-23 20:21:39.708
56.0, 572.032657822594, 127.86904943501577, 1326.9239840786904, 619.6715034581721, -0.49600002355873585, 0.7040000334382057, 0.5920000281184912, 0.0, 0.0, 0.0, 0.0, 0.0, 1.6480848997096899E9, 0.0, 2022-03-23 20:21:39.709
56.0, 586.9772980455309, 137.1589609249495, 1334.8862310843542, 623.3216458149254, -0.49600002355873585, 0.7040000334382057, 0.5920000281184912, 0.0, 0.0, 0.0, 0.0, 0.0, 1.6480848997096899E9, 0.0, 2022-03-23 20:21:39.709
57.0, 593.6305800667033, 126.20853385468945, 1335.5407135766, 623.0149740185589, -0.49600002355873585, 0.7040000334382057, 0.5920000281184912, 0.0, 0.0, 0.0, 0.0, 0.0, 1.6480848997104175E9, 0.0, 2022-03-23 20:21:39.710
57.0, 572.2084331205115, 116.88122336519882, 1326.3555192854255, 607.5991064012051, -0.49600002355873585, 0.7040000334382057, 0.5920000281184912, 0.0, 0.0, 0.0, 0.0, 0.0, 1.6480848997104175E9, 0.0, 2022-03-23 20:21:39.710
58.0, 565.3905955012888, 120.87169661791995, 1328.3376662619412, 610.2843545693904, -0.49600002355873585, 0.7040000334382057, 0.5920000281184912, 0.0, 0.0, 0.0, 0.0, 0.0, 1.648084899721124E9, 0.0, 2022-03-23 20:21:39.721
58.0, 590.642400002107, 116.372596971225, 1330.5329875359312, 619.503207960166, -0.49600002355873585, 0.7040000334382057, 0.5920000281184912, 0.0, 0.0, 0.0, 0.0, 0.0, 1.648084899721124E9, 0.0, 2022-03-23 20:21:39.721
59.0, 572.0476174224168, 110.61689093941823, 1321.4338109437376, 607.9469170970842, -0.49600002355873585, 0.7040000334382057, 0.5920000281184912, 0.0, 0.0, 0.0, 0.0, 0.0, 1.648084899736072E9, 0.0, 2022-03-23 20:21:39.736
59.0, 556.0632850117981, 105.0668794051744, 1311.938204956241, 591.655912890099, -0.49600002355873585, 0.7040000334382057, 0.5920000281184912, 0.0, 0.0, 0.0, 0.0, 0.0, 1.648084899736072E9, 0.0, 2022-03-23 20:21:39.736
60.0, 576.737451966852, 103.74669472081587, 1316.2465697051957, 605.6506185242906, -0.49600002355873585, 0.7040000334382057, 0.6080000288784504, 0.0, 0.0, 0.0, 0.0, 0.0, 1.6480848997518451E9, 0.0, 2022-03-23 20:21:39.751
60.0, 570.8321499368176, 109.1097112572752, 1314.784268822521, 598.7280637063086, -0.49600002355873585, 0.7040000334382057, 0.6080000288784504, 0.0, 0.0, 0.0, 0.0, 0.0, 1.6480848997518451E9, 0.0, 2022-03-23 20:21:39.751
61.0, 558.18754818663, 115.83031147764996, 1324.298574309796, 603.56001444906, -0.49600002355873585, 0.6560000311583281, 0.6080000288784504, 0.0, 0.0, 0.0, 0.0, 0.0, 1.648084899752552E9, 0.0, 2022-03-23 20:21:39.752
61.0, 563.0082792295143, 109.32288555474952, 1319.8593130623922, 601.1515188775957, -0.49600002355873585, 0.6560000311583281, 0.6080000288784504, 0.0, 0.0, 0.0, 0.0, 0.0, 1.648084899752552E9, 0.0, 2022-03-23 20:21:39.752
62.0, 571.7484254259616, 107.71098867384717, 1316.4784435024485, 602.6100798603147, -0.5120000243186951, 0.6560000311583281, 0.6080000288784504, 0.0, 0.0, 0.0, 0.0, 0.0, 1.6480848997660956E9, 0.0, 2022-03-23 20:21:39.766
62.0, 550.3412380795926, 100.74729495635256, 1308.0075701028109, 580.7129656197503, -0.5120000243186951, 0.6560000311583281, 0.6080000288784504, 0.0, 0.0, 0.0, 0.0, 0.0, 1.6480848997660956E9, 0.0, 2022-03-23 20:21:39.766
63.0, 552.6113573526964, 113.76214680215344, 1323.1953038228676, 588.2152049308643, -0.5120000243186951, 0.6560000311583281, 0.6080000288784504, 0.0, 0.0, 0.0, 0.0, 0.0, 1.6480848997817988E9, 0.0, 2022-03-23 20:21:39.781
63.0, 571.8718421244994, 107.25846077920869, 1315.8800595095381, 599.4648239975795, -0.5120000243186951, 0.6560000311583281, 0.6080000288784504, 0.0, 0.0, 0.0, 0.0, 0.0, 1.6480848997817988E9, 0.0, 2022-03-23 20:21:39.781
64.0, 566.2358128912747, 108.46644846489653, 1324.4145112084225, 596.6748586306348, -0.5120000243186951, 0.6560000311583281, 0.6080000288784504, 0.0, 0.0, 0.0, 0.0, 0.0, 1.648084899782638E9, 0.0, 2022-03-23 20:21:39.782
64.0, 550.3786370791495, 108.20465546799824, 1322.4286243319511, 596.8581137284636, -0.5120000243186951, 0.6560000311583281, 0.6080000288784504, 0.0, 0.0, 0.0, 0.0, 0.0, 1.648084899782638E9, 0.0, 2022-03-23 20:21:39.782
65.0, 582.6539736967534, 109.93996904743835, 1322.0621141362935, 611.7541352519765, -0.5120000243186951, 0.6560000311583281, 0.6080000288784504, 0.0, 0.0, 0.0, 0.0, 0.0, 1.6480848997961144E9, 0.0, 2022-03-23 20:21:39.796
65.0, 580.4923115223646, 119.60013063298538, 1333.4688090011477, 625.4533887896687, -0.5120000243186951, 0.6560000311583281, 0.6080000288784504, 0.0, 0.0, 0.0, 0.0, 0.0, 1.6480848997961144E9, 0.0, 2022-03-23 20:21:39.796
66.0, 539.0766594130546, 95.01402832427993, 1304.593041443266, 586.2143584545702, -0.5120000243186951, 0.6560000311583281, 0.6080000288784504, 0.0, 0.0, 0.0, 0.0, 0.0, 1.6480848998117118E9, 0.0, 2022-03-23 20:21:39.811
66.0, 552.398183055222, 93.3235935443081, 1304.8024758407846, 595.9119190396741, -0.5120000243186951, 0.6560000311583281, 0.6080000288784504, 0.0, 0.0, 0.0, 0.0, 0.0, 1.6480848998117118E9, 0.0, 2022-03-23 20:21:39.811
67.0, 571.8232234250754, 98.86238537868485, 1317.993102984503, 614.7610148163512, -0.5120000243186951, 0.6560000311583281, 0.6080000288784504, 0.0, 0.0, 0.0, 0.0, 0.0, 1.6480848998124228E9, 0.0, 2022-03-23 20:21:39.812
67.0, 541.881584379822, 89.84548658551648, 1302.3678009696305, 602.6811379594728, -0.5120000243186951, 0.6560000311583281, 0.6080000288784504, 0.0, 0.0, 0.0, 0.0, 0.0, 1.6480848998124228E9, 0.0, 2022-03-23 20:21:39.812
68.0, 539.1776367118582, 93.8770987377502, 1306.9491784153506, 589.5241699153557, -0.5120000243186951, 0.6560000311583281, 0.6080000288784504, 0.0, 0.0, 0.0, 0.0, 0.0, 1.6480848998261037E9, 0.0, 2022-03-23 20:21:39.826
68.0, 567.137128780596, 100.8071333556436, 1308.3254615990445, 604.3528732396662, -0.5120000243186951, 0.6560000311583281, 0.6080000288784504, 0.0, 0.0, 0.0, 0.0, 0.0, 1.6480848998261037E9, 0.0, 2022-03-23 20:21:39.826
69.0, 544.5668325480074, 94.01547503611073, 1299.215065306984, 590.7097182013094, -0.5120000243186951, 0.6560000311583281, 0.6080000288784504, 0.0, 0.0, 0.0, 0.0, 0.0, 1.64808489984177E9, 0.0, 2022-03-23 20:21:39.841
69.0, 527.554027649574, 86.78624842176214, 1298.4596055159345, 590.3544277055189, -0.5120000243186951, 0.6560000311583281, 0.6080000288784504, 0.0, 0.0, 0.0, 0.0, 0.0, 1.64808489984177E9, 0.0, 2022-03-23 20:21:39.841
70.0, 550.6703492756933, 91.30404756823555, 1304.1442534485832, 598.3428540108725, -0.5120000243186951, 0.6560000311583281, 0.6080000288784504, 0.0, 0.0, 0.0, 0.0, 0.0, 1.6480848998424938E9, 0.0, 2022-03-23 20:21:39.842
70.0, 546.3171057272702, 84.5049094487913, 1296.137127643451, 584.8829540703446, -0.5120000243186951, 0.6560000311583281, 0.6080000288784504, 0.0, 0.0, 0.0, 0.0, 0.0, 1.6480848998424938E9, 0.0, 2022-03-23 20:21:39.842
71.0, 528.9490103330463, 80.64533269451931, 1291.989578592591, 578.6148817446083, -0.5120000243186951, 0.6880000326782465, 0.6080000288784504, 0.0, 0.0, 0.0, 0.0, 0.0, 1.648084899856047E9, 0.0, 2022-03-23 20:21:39.856
71.0, 539.951796002686, 82.72845696983859, 1296.4176201401278, 588.0768286325037, -0.5120000243186951, 0.6880000326782465, 0.6080000288784504, 0.0, 0.0, 0.0, 0.0, 0.0, 1.648084899856047E9, 0.0, 2022-03-23 20:21:39.856
72.0, 557.5592449940741, 81.27363588707522, 1293.01431118045, 593.4922037683427, -0.49600002355873585, 0.6880000326782465, 0.6080000288784504, 0.0, 0.0, 0.0, 0.0, 0.0, 1.6480848998718057E9, 0.0, 2022-03-23 20:21:39.871
72.0, 543.7103954581544, 77.5748748308979, 1296.4101403402165, 589.3670941172168, -0.49600002355873585, 0.6880000326782465, 0.6080000288784504, 0.0, 0.0, 0.0, 0.0, 0.0, 1.6480848998718057E9, 0.0, 2022-03-23 20:21:39.871
73.0, 543.4710418609902, 82.81821456877515, 1298.467085315846, 593.9933503624052, -0.49600002355873585, 0.6880000326782465, 0.6080000288784504, 0.0, 0.0, 0.0, 0.0, 0.0, 1.6480848998724954E9, 0.0, 2022-03-23 20:21:39.872
73.0, 572.7581984139979, 84.19449775246903, 1307.1174739133567, 609.9103645738214, -0.49600002355873585, 0.6880000326782465, 0.6080000288784504, 0.0, 0.0, 0.0, 0.0, 0.0, 1.6480848998724954E9, 0.0, 2022-03-23 20:21:39.872
