%OpenBCI Raw EEG Data
%Number of channels = 4
%Sample Rate = 200 Hz
%Board = OpenBCI_GUI$BoardGanglionBLE
Sample Index, EXG Channel 0, EXG Channel 1, EXG Channel 2, EXG Channel 3, Accel Channel 0, Accel Channel 1, Accel Channel 2, Other, Other, Other, Other, Other, Timestamp, Other, Timestamp (Formatted)
2.0, -8.07444400433451, 3.825917654670775, 1.4398614829406142, -13.29908424243331, -0.4480000212788582, 0.0, 0.0, 0.0, 0.0, 0.0, 0.0, 0.0, 1.6480852426711352E9, 0.0, 2022-03-23 20:27:22.671
2.0, 0.11593689862638712, -3.6464024567976594, -6.084817227907479, -13.826410136185586, -0.4480000212788582, 0.0, 0.0, 0.0, 0.0, 0.0, 0.0, 0.0, 1.6480852426711352E9, 0.0, 2022-03-23 20:27:22.671
3.0, -3.014359364286065, -2.124263174831867, -9.046817992813885, -20.659207355231047, -0.4480000212788582, 0.0, 0.0, 0.0, 0.0, 0.0, 0.0, 0.0, 1.6480852426856966E9, 0.0, 2022-03-23 20:27:22.685
3.0, -13.901208135299385, 1.690434779971838, 0.003739899955689907, -18.243231983855367, -0.4480000212788582, 0.0, 0.0, 0.0, 0.0, 0.0, 0.0, 0.0, 1.6480852426856966E9, 0.0, 2022-03-23 20:27:22.685
4.0, -12.745579048991203, 5.363016536459327, -2.1429626746103168, -16.94174679927528, -0.4480000212788582, 0.0, 0.0, 0.0, 0.0, 0.0, 0.0, 0.0, 1.648085242686448E9, 0.0, 2022-03-23 20:27:22.686
4.0, 7.311504413373768, 5.909041929990053, 3.7922585550695658, -6.713120420463383, -0.4480000212788582, 0.0, 0.0, 0.0, 0.0, 0.0, 0.0, 0.0, 1.648085242686448E9, 0.0, 2022-03-23 20:27:22.686
5.0, -8.362416300922632, 4.588857245631516, -2.00458637624979, -21.504424745216966, -0.4480000212788582, 0.0, 0.0, 0.0, 0.0, 0.0, 0.0, 0.0, 1.6480852427000616E9, 0.0, 2022-03-23 20:27:22.700
5.0, -6.155875327065587, 5.950180829502642, 5.325617536902428, -15.333589818328619, -0.4480000212788582, 0.0, 0.0, 0.0, 0.0, 0.0, 0.0, 0.0, 1.6480852427000616E9, 0.0, 2022-03-23 20:27:22.700
6.0, 4.712273944169283, 6.2568526258692145, -4.297145049087703, -8.766325496137142, -0.4480000212788582, 0.0, 0.0, 0.0, 0.0, 0.0, 0.0, 0.0, 1.648085242715736E9, 0.0, 2022-03-23 20:27:22.715
6.0, -9.712520184926689, 5.295698337256908, 1.4024624833837152, -18.018837986513972, -0.4480000212788582, 0.0, 0.0, 0.0, 0.0, 0.0, 0.0, 0.0, 1.648085242715736E9, 0.0, 2022-03-23 20:27:22.715
7.0, -11.171081167645752, 10.385702176950872, 5.2246402380988, -18.89023467618972, -0.4480000212788582, 0.0, 0.0, 0.0, 0.0, 0.0, 0.0, 0.0, 1.6480852427164E9, 0.0, 2022-03-23 20:27:22.716
7.0, 3.541685258038342, 10.221146578900516, 4.775852243416011, -9.577883786521852, -0.4480000212788582, 0.0, 0.0, 0.0, 0.0, 0.0, 0.0, 0.0, 1.6480852427164E9, 0.0, 2022-03-23 20:27:22.716
8.0, -4.072751051746309, 9.009418993256986, 3.7623393554240465, -7.999646005220711, -0.4480000212788582, 0.0, 0.0, 0.0, 0.0, 0.0, 0.0, 0.0, 1.648085242730007E9, 0.0, 2022-03-23 20:27:22.730
8.0, -15.610342415049672, 12.543624451383948, 3.9156752536073327, -13.459899940527976, -0.4480000212788582, 0.0, 0.0, 0.0, 0.0, 0.0, 0.0, 0.0, 1.648085242730007E9, 0.0, 2022-03-23 20:27:22.730
9.0, -10.03041168116033, 4.1662485506385565, -1.3501038840040565, -15.011958422139287, -0.4480000212788582, 0.0, 0.0, 0.0, 0.0, 0.0, 0.0, 0.0, 1.648085242745674E9, 0.0, 2022-03-23 20:27:22.745
9.0, 1.21172758564353, 5.146102339029312, 8.268918802030385, -4.981546740978956, -0.4480000212788582, 0.0, 0.0, 0.0, 0.0, 0.0, 0.0, 0.0, 1.648085242745674E9, 0.0, 2022-03-23 20:27:22.745
10.0, -11.313197365961969, 8.515752199105918, 11.922801058739424, -9.327310489490628, -0.4480000212788582, 0.0, 0.5120000243186951, 0.0, 0.0, 0.0, 0.0, 0.0, 1.6480852427463555E9, 0.0, 2022-03-23 20:27:22.746
10.0, -9.910734882578254, 15.524324716068804, 13.011111945845187, -18.92763367574662, -0.4480000212788582, 0.0, 0.5120000243186951, 0.0, 0.0, 0.0, 0.0, 0.0, 1.6480852427463555E9, 0.0, 2022-03-23 20:27:22.746
11.0, 12.925094246864319, 17.36809539422393, 12.89891494717449, 5.101223539561033, -0.4480000212788582, 0.800000037997961, 0.5120000243186951, 0.0, 0.0, 0.0, 0.0, 0.0, 1.648085242759992E9, 0.0, 2022-03-23 20:27:22.759
11.0, -7.075890716165304, 16.1189688090235, 15.823516712523997, -1.6455559805035591, -0.4480000212788582, 0.800000037997961, 0.5120000243186951, 0.0, 0.0, 0.0, 0.0, 0.0, 1.648085242759992E9, 0.0, 2022-03-23 20:27:22.759
12.0, -8.919661394320428, 18.609742179512978, 15.423347417265177, -10.239846078678966, -0.4480000212788582, 0.800000037997961, 0.5120000243186951, 0.0, 0.0, 0.0, 0.0, 0.0, 1.6480852427756617E9, 0.0, 2022-03-23 20:27:22.775
12.0, 9.697560585103929, 17.080123097635806, 11.081323568709195, 4.065271251834929, -0.4480000212788582, 0.800000037997961, 0.5120000243186951, 0.0, 0.0, 0.0, 0.0, 0.0, 1.6480852427756617E9, 0.0, 2022-03-23 20:27:22.775
13.0, -2.5468718698248267, 4.577637545764446, -3.384609459899366, -12.47630625218153, -0.4480000212788582, 0.800000037997961, 0.5120000243186951, 0.0, 0.0, 0.0, 0.0, 0.0, 1.648085242776376E9, 0.0, 2022-03-23 20:27:22.776
13.0, -21.39970754645765, -3.1153366630896926, -5.707087332382798, -22.712412430904806, -0.4480000212788582, 0.800000037997961, 0.5120000243186951, 0.0, 0.0, 0.0, 0.0, 0.0, 1.648085242776376E9, 0.0, 2022-03-23 20:27:22.776
14.0, -6.7804386196658015, -0.40390919521450996, -1.854990378022194, -13.863809135742486, -0.4480000212788582, 0.800000037997961, 0.5120000243186951, 0.0, 0.0, 0.0, 0.0, 0.0, 1.6480852427900229E9, 0.0, 2022-03-23 20:27:22.790
14.0, 10.183747579343617, 2.1915813740342855, 3.698761056177318, -1.6268564807251096, -0.4480000212788582, 0.800000037997961, 0.5120000243186951, 0.0, 0.0, 0.0, 0.0, 0.0, 1.6480852427900229E9, 0.0, 2022-03-23 20:27:22.790
15.0, -11.3019776660949, -1.4249018831178546, 0.28049249667674303, -19.402600970119238, -0.4480000212788582, 0.800000037997961, 0.5120000243186951, 0.0, 0.0, 0.0, 0.0, 0.0, 1.648085242805647E9, 0.0, 2022-03-23 20:27:22.805
15.0, -8.706487096846104, 2.1953212739899755, -5.176021538674831, -15.782377813011408, -0.4480000212788582, 0.800000037997961, 0.5120000243186951, 0.0, 0.0, 0.0, 0.0, 0.0, 1.648085242805647E9, 0.0, 2022-03-23 20:27:22.805
16.0, 8.05948440451175, 6.069857628084719, 2.449634470976889, -3.22005386184901, -0.4480000212788582, 0.800000037997961, 0.5120000243186951, 0.0, 0.0, 0.0, 0.0, 0.0, 1.648085242806393E9, 0.0, 2022-03-23 20:27:22.806
16.0, -6.2979915253818035, 13.833889936096966, 6.0960369277745485, -16.365802206099033, -0.4480000212788582, 0.800000037997961, 0.5120000243186951, 0.0, 0.0, 0.0, 0.0, 0.0, 1.648085242806393E9, 0.0, 2022-03-23 20:27:22.806
17.0, -8.298838001675904, 12.947533646598458, 8.03704500477761, -12.345409753732383, -0.4480000212788582, 0.800000037997961, 0.5120000243186951, 0.0, 0.0, 0.0, 0.0, 0.0, 1.6480852428199563E9, 0.0, 2022-03-23 20:27:22.819
17.0, -2.2738591730594635, 7.771512107923627, 4.41682184766978, -4.349503648467362, -0.4480000212788582, 0.800000037997961, 0.5120000243186951, 0.0, 0.0, 0.0, 0.0, 0.0, 1.6480852428199563E9, 0.0, 2022-03-23 20:27:22.819
18.0, -3.545425157994032, 4.196167750284076, 1.892389377579093, -13.27664484269917, -0.4480000212788582, 0.800000037997961, 0.5120000243186951, 0.0, 0.0, 0.0, 0.0, 0.0, 1.6480852428356953E9, 0.0, 2022-03-23 20:27:22.835
18.0, -9.581623686477542, 9.824717183597386, 16.799630600959063, -9.409588288515806, -0.4480000212788582, 0.800000037997961, 0.5120000243186951, 0.0, 0.0, 0.0, 0.0, 0.0, 1.6480852428356953E9, 0.0, 2022-03-23 20:27:22.835
19.0, 2.576791069470346, 12.730619449168444, 23.168680225498974, -0.8639168897643685, -0.4480000212788582, 0.800000037997961, 0.5120000243186951, 0.0, 0.0, 0.0, 0.0, 0.0, 1.6480852428363857E9, 0.0, 2022-03-23 20:27:22.836
19.0, 8.160461703315377, 11.043924569152296, 10.729772972874343, -1.6268564807251096, -0.4480000212788582, 0.800000037997961, 0.5120000243186951, 0.0, 0.0, 0.0, 0.0, 0.0, 1.6480852428363857E9, 0.0, 2022-03-23 20:27:22.836
20.0, -1.5146594820544124, 19.099669073708355, 22.835829129442573, -3.496806458570063, -0.4480000212788582, 0.800000037997961, 0.5120000243186951, 0.0, 0.0, 0.0, 0.0, 0.0, 1.6480852428500934E9, 0.0, 2022-03-23 20:27:22.850
20.0, -2.932081565260887, 15.172774120233953, 21.36604844685644, -14.959599822759628, -0.4480000212788582, 0.800000037997961, 0.5120000243186951, 0.0, 0.0, 0.0, 0.0, 0.0, 1.6480852428500934E9, 0.0, 2022-03-23 20:27:22.850
21.0, 13.190627143718302, 15.872135411947966, 12.03873795736581, 5.486433234997094, -0.4480000212788582, 0.800000037997961, 0.5120000243186951, 0.0, 0.0, 0.0, 0.0, 0.0, 1.6480852428656623E9, 0.0, 2022-03-23 20:27:22.865
21.0, 5.396675636060536, 15.27749131899327, 22.428180034272373, -1.892389377579093, -0.4480000212788582, 0.800000037997961, 0.5120000243186951, 0.0, 0.0, 0.0, 0.0, 0.0, 1.6480852428656623E9, 0.0, 2022-03-23 20:27:22.865
22.0, 5.751966131851077, 21.040677150711417, 39.06699493713677, 0.35155059583485126, -0.4480000212788582, 0.800000037997961, 0.5120000243186951, 0.0, 0.0, 0.0, 0.0, 0.0, 1.648085242866474E9, 0.0, 2022-03-23 20:27:22.866
22.0, 17.386794894002378, 16.53783760406077, 26.048403191380203, 6.488726423121989, -0.4480000212788582, 0.800000037997961, 0.5120000243186951, 0.0, 0.0, 0.0, 0.0, 0.0, 1.648085242866474E9, 0.0, 2022-03-23 20:27:22.866
23.0, 9.2637321902439, 14.361215829849243, 28.901946857571602, -2.056944975629449, -0.4480000212788582, 0.800000037997961, 0.5120000243186951, 0.0, 0.0, 0.0, 0.0, 0.0, 1.6480852428799367E9, 0.0, 2022-03-23 20:27:22.879
23.0, 8.01834550499916, 19.133328173309565, 30.21839164197445, 1.567018081434071, -0.4480000212788582, 0.800000037997961, 0.5120000243186951, 0.0, 0.0, 0.0, 0.0, 0.0, 1.6480852428799367E9, 0.0, 2022-03-23 20:27:22.879
24.0, 16.47051940485835, 22.89192762877792, 32.802662511356175, 7.550858010537922, -0.4480000212788582, 0.800000037997961, 0.5120000243186951, 0.0, 0.0, 0.0, 0.0, 0.0, 1.6480852428956494E9, 0.0, 2022-03-23 20:27:22.895
24.0, 25.670673295855522, 22.398260834626853, 28.51673716213554, 0.5310657937079668, -0.4480000212788582, 0.800000037997961, 0.5120000243186951, 0.0, 0.0, 0.0, 0.0, 0.0, 1.6480852428956494E9, 0.0, 2022-03-23 20:27:22.895
25.0, 0.6806617919355631, 20.371235058642924, 25.539776797406375, -3.788518655113876, -0.4480000212788582, 0.800000037997961, 0.5120000243186951, 0.0, 0.0, 0.0, 0.0, 0.0, 1.648085242896391E9, 0.0, 2022-03-23 20:27:22.896
25.0, -5.512612534686923, 16.582716403529048, 12.85403614770621, -15.789857612922788, -0.4480000212788582, 0.800000037997961, 0.5120000243186951, 0.0, 0.0, 0.0, 0.0, 0.0, 1.648085242896391E9, 0.0, 2022-03-23 20:27:22.896
26.0, 14.667887626215816, 16.86694880016148, 11.765725260600448, -8.998199293389916, -0.4480000212788582, 0.800000037997961, 0.5120000243186951, 0.0, 0.0, 0.0, 0.0, 0.0, 1.6480852429099903E9, 0.0, 2022-03-23 20:27:22.909
26.0, 2.9507810650393367, 10.804570971988142, 26.800123082473874, -5.404155435971916, -0.4480000212788582, 0.800000037997961, 0.5120000243186951, 0.0, 0.0, 0.0, 0.0, 0.0, 1.6480852429099903E9, 0.0, 2022-03-23 20:27:22.909
27.0, -9.566664086654782, 9.67886108532548, 21.941993040032685, -10.46050017606467, -0.4480000212788582, 0.800000037997961, 0.5120000243186951, 0.0, 0.0, 0.0, 0.0, 0.0, 1.6480852429256763E9, 0.0, 2022-03-23 20:27:22.925
27.0, 8.197860702872276, -1.7053943797945976, 5.037645240314305, 0.80407849047333, -0.4480000212788582, 0.800000037997961, 0.5120000243186951, 0.0, 0.0, 0.0, 0.0, 0.0, 1.6480852429256763E9, 0.0, 2022-03-23 20:27:22.925
28.0, 5.280738737434149, 3.025579064153135, 26.95345898065716, 0.8526971898972988, -0.4480000212788582, 0.800000037997961, 0.5120000243186951, 0.0, 0.0, 0.0, 0.0, 0.0, 1.6480852429263945E9, 0.0, 2022-03-23 20:27:22.926
28.0, -0.05983839929103851, 1.8213312784209847, 36.11621387209743, -3.6090034572407603, -0.4480000212788582, 0.800000037997961, 0.5120000243186951, 0.0, 0.0, 0.0, 0.0, 0.0, 1.6480852429263945E9, 0.0, 2022-03-23 20:27:22.926
29.0, 8.669088097289205, -1.4323816830292344, 37.05118886101991, 4.671135044656694, -0.4480000212788582, 0.800000037997961, 0.5120000243186951, 0.0, 0.0, 0.0, 0.0, 0.0, 1.6480852429563887E9, 0.0, 2022-03-23 20:27:22.956
29.0, 7.453620611689985, -6.8215775191783905, 38.37511344533414, -3.2312735617160797, -0.4480000212788582, 0.800000037997961, 0.5120000243186951, 0.0, 0.0, 0.0, 0.0, 0.0, 1.6480852429563887E9, 0.0, 2022-03-23 20:27:22.956
30.0, 5.2096806382760406, -11.451573664322495, 37.70941125322133, -0.011219699867069721, -0.4480000212788582, 0.800000037997961, 0.5120000243186951, 0.0, 0.0, 0.0, 0.0, 0.0, 1.648085242957049E9, 0.0, 2022-03-23 20:27:22.957
30.0, -11.64230856206268, -23.28087722416967, 26.815082682296634, -8.785024995915592, -0.4480000212788582, 0.800000037997961, 0.5120000243186951, 0.0, 0.0, 0.0, 0.0, 0.0, 1.648085242957049E9, 0.0, 2022-03-23 20:27:22.957
31.0, 19.825209665112197, -17.33069639466703, 39.94961132667959, 0.8526971898972988, -0.4480000212788582, 0.7840000372380018, 0.5120000243186951, 0.0, 0.0, 0.0, 0.0, 0.0, 1.648085242957842E9, 0.0, 2022-03-23 20:27:22.957
31.0, 12.91013464704156, -10.86066947132349, 38.98471713811159, 4.371943048201501, -0.4480000212788582, 0.7840000372380018, 0.5120000243186951, 0.0, 0.0, 0.0, 0.0, 0.0, 1.648085242957842E9, 0.0, 2022-03-23 20:27:22.957
32.0, -4.199907650239766, -15.389688317663968, 37.48127735592425, 10.684894173406065, -0.4480000212788582, 0.7840000372380018, 0.5120000243186951, 0.0, 0.0, 0.0, 0.0, 0.0, 1.6480852429699152E9, 0.0, 2022-03-23 20:27:22.969
32.0, 7.715413608588278, -21.818576341494918, 34.26122349407524, 6.892635618336499, -0.4480000212788582, 0.7840000372380018, 0.5120000243186951, 0.0, 0.0, 0.0, 0.0, 0.0, 1.6480852429699152E9, 0.0, 2022-03-23 20:27:22.969
33.0, 8.777545196004212, -20.030904162675142, 33.14299340732396, 0.9349749889224768, -0.4480000212788582, 0.7840000372380018, 0.5120000243186951, 0.0, 0.0, 0.0, 0.0, 0.0, 1.6480852429856732E9, 0.0, 2022-03-23 20:27:22.985
33.0, 1.6642554802820086, -19.608295467682183, 36.13865327183157, 8.280138501897454, -0.4480000212788582, 0.7840000372380018, 0.5120000243186951, 0.0, 0.0, 0.0, 0.0, 0.0, 1.6480852429856732E9, 0.0, 2022-03-23 20:27:22.985
34.0, 10.004232381470501, -14.353736029937863, 44.31033467501402, 5.759445931762457, -0.4480000212788582, 0.7840000372380018, 0.5120000243186951, 0.0, 0.0, 0.0, 0.0, 0.0, 1.6480852429864395E9, 0.0, 2022-03-23 20:27:22.986
34.0, 19.963585963472724, -7.812651007436216, 39.72521732933819, 14.05080413352698, -0.4480000212788582, 0.7840000372380018, 0.5120000243186951, 0.0, 0.0, 0.0, 0.0, 0.0, 1.6480852429864395E9, 0.0, 2022-03-23 20:27:22.986
35.0, 13.070950345136225, 1.8213312784209847, 49.254482416436076, 7.109549815766513, -0.4480000212788582, 0.7840000372380018, 0.5120000243186951, 0.0, 0.0, 0.0, 0.0, 0.0, 1.6480852429999535E9, 0.0, 2022-03-23 20:27:22.999
35.0, 6.264332425780594, -0.4712273944169283, 46.36727965064347, 6.088557127863169, -0.4480000212788582, 0.7840000372380018, 0.5120000243186951, 0.0, 0.0, 0.0, 0.0, 0.0, 1.6480852429999535E9, 0.0, 2022-03-23 20:27:22.999
36.0, 23.81194301787764, -8.47835319954902, 42.53014229610562, 14.46593302860856, -0.4480000212788582, 0.7840000372380018, 0.5120000243186951, 0.0, 0.0, 0.0, 0.0, 0.0, 1.6480852430156944E9, 0.0, 2022-03-23 20:27:23.015
36.0, 21.164093849249184, -2.4384147711098194, 48.71593682281673, 15.045617521740496, -0.4480000212788582, 0.7840000372380018, 0.5120000243186951, 0.0, 0.0, 0.0, 0.0, 0.0, 1.6480852430156944E9, 0.0, 2022-03-23 20:27:23.015
37.0, 7.823870707303286, -6.354090024717152, 51.77891488652676, 10.520338575355709, -0.4480000212788582, 0.7840000372380018, 0.5120000243186951, 0.0, 0.0, 0.0, 0.0, 0.0, 1.6480852430164144E9, 0.0, 2022-03-23 20:27:23.016
37.0, 10.744732572697103, -14.817483624443412, 41.18751821201295, 10.640015373937786, -0.4480000212788582, 0.7840000372380018, 0.5120000243186951, 0.0, 0.0, 0.0, 0.0, 0.0, 1.6480852430164144E9, 0.0, 2022-03-23 20:27:23.016
38.0, 4.0054328525438905, -21.28003074787557, 32.15939971897751, -2.617929968982935, -0.4480000212788582, 0.7840000372380018, 0.5120000243186951, 0.0, 0.0, 0.0, 0.0, 0.0, 1.6480852430300193E9, 0.0, 2022-03-23 20:27:23.030
38.0, -15.29993071872741, -30.6447402369231, 21.822316241450608, -5.729526732116938, -0.4480000212788582, 0.7840000372380018, 0.5120000243186951, 0.0, 0.0, 0.0, 0.0, 0.0, 1.6480852430300193E9, 0.0, 2022-03-23 20:27:23.030
39.0, -5.725786832161248, -28.789749858900905, 19.840169264934957, -5.882862630300224, -0.4480000212788582, 0.7840000372380018, 0.5120000243186951, 0.0, 0.0, 0.0, 0.0, 0.0, 1.64808524304564E9, 0.0, 2022-03-23 20:27:23.045
39.0, 5.2246402380988, -29.492851050570607, 16.91182759962976, 2.1953212739899755, -0.4480000212788582, 0.7840000372380018, 0.5120000243186951, 0.0, 0.0, 0.0, 0.0, 0.0, 1.64808524304564E9, 0.0, 2022-03-23 20:27:23.045
40.0, -11.085063468664885, -28.797229658812284, 16.803370500914752, -17.28955749515444, -0.4480000212788582, 0.7840000372380018, 0.5120000243186951, 0.0, 0.0, 0.0, 0.0, 0.0, 1.6480852430464153E9, 0.0, 2022-03-23 20:27:23.046
40.0, -6.556044622324407, -29.75090414751321, 26.837522082030773, -13.048510945402086, -0.4480000212788582, 0.7840000372380018, 0.5120000243186951, 0.0, 0.0, 0.0, 0.0, 0.0, 1.6480852430464153E9, 0.0, 2022-03-23 20:27:23.046
41.0, 8.583070398308337, -30.11367444321513, 19.238045372068882, 8.781285095959902, -0.4480000212788582, 0.800000037997961, 0.5120000243186951, 0.0, 0.0, 0.0, 0.0, 0.0, 1.6480852430599802E9, 0.0, 2022-03-23 20:27:23.059
41.0, 0.5871642930433154, -19.608295467682183, 30.394166939891875, 4.248526349663734, -0.4480000212788582, 0.800000037997961, 0.5120000243186951, 0.0, 0.0, 0.0, 0.0, 0.0, 1.6480852430599802E9, 0.0, 2022-03-23 20:27:23.059
42.0, -1.6642554802820086, -9.360969589091837, 32.26037701778114, 6.301731425337493, -0.4480000212788582, 0.800000037997961, 0.5120000243186951, 0.0, 0.0, 0.0, 0.0, 0.0, 1.6480852430756907E9, 0.0, 2022-03-23 20:27:23.075
42.0, 6.163355126976967, -15.464486316777766, 23.81568291783333, 4.349503648467362, -0.4480000212788582, 0.800000037997961, 0.5120000243186951, 0.0, 0.0, 0.0, 0.0, 0.0, 1.6480852430756907E9, 0.0, 2022-03-23 20:27:23.075
43.0, 10.722293172962964, -11.496452463790774, 24.731958406977355, 9.293651389889419, -0.4480000212788582, 0.800000037997961, 0.5120000243186951, 0.0, 0.0, 0.0, 0.0, 0.0, 1.648085243076452E9, 0.0, 2022-03-23 20:27:23.076
43.0, 0.2730126967653632, -5.183501338586211, 37.02500956133008, 14.985779122449458, -0.4480000212788582, 0.800000037997961, 0.5120000243186951, 0.0, 0.0, 0.0, 0.0, 0.0, 1.648085243076452E9, 0.0, 2022-03-23 20:27:23.076
44.0, 4.278445549309254, -10.426841076463461, 23.015344327315688, -1.1219699867069721, -0.4480000212788582, 0.800000037997961, 0.5120000243186951, 0.0, 0.0, 0.0, 0.0, 0.0, 1.6480852430900764E9, 0.0, 2022-03-23 20:27:23.090
44.0, 20.397414358332753, -3.2798922611400485, 25.36026159953326, 10.658714873716235, -0.4480000212788582, 0.800000037997961, 0.5120000243186951, 0.0, 0.0, 0.0, 0.0, 0.0, 1.6480852430900764E9, 0.0, 2022-03-23 20:27:23.090
45.0, -1.488480182364583, -5.916521729901433, 34.16772599518299, -4.233566749840975, -0.4480000212788582, 0.800000037997961, 0.5120000243186951, 0.0, 0.0, 0.0, 0.0, 0.0, 1.6480852431056745E9, 0.0, 2022-03-23 20:27:23.105
45.0, -5.23212003801018, -2.9470411650836468, 25.577175796963274, -2.086864175274968, -0.4480000212788582, 0.800000037997961, 0.5120000243186951, 0.0, 0.0, 0.0, 0.0, 0.0, 1.6480852431056745E9, 0.0, 2022-03-23 20:27:23.105
46.0, 14.91098112333566, -6.193274326622486, 23.954059216193855, 10.03415158111602, -0.4480000212788582, 0.800000037997961, 0.5120000243186951, 0.0, 0.0, 0.0, 0.0, 0.0, 1.6480852431064775E9, 0.0, 2022-03-23 20:27:23.106
46.0, -1.7914120787754655, -6.2979915253818035, 34.13032699562609, 4.461700647138059, -0.4480000212788582, 0.800000037997961, 0.5120000243186951, 0.0, 0.0, 0.0, 0.0, 0.0, 1.6480852431064775E9, 0.0, 2022-03-23 20:27:23.106
47.0, -2.1205232748761773, -7.9884263053536415, 30.753197335638106, 6.294251625426114, -0.4480000212788582, 0.800000037997961, 0.5120000243186951, 0.0, 0.0, 0.0, 0.0, 0.0, 1.6480852431199725E9, 0.0, 2022-03-23 20:27:23.119
47.0, 15.097976121120155, 1.9971065763384104, 34.53797609079629, 16.86694880016148, -0.4480000212788582, 0.800000037997961, 0.5120000243186951, 0.0, 0.0, 0.0, 0.0, 0.0, 1.6480852431199725E9, 0.0, 2022-03-23 20:27:23.119
48.0, 8.583070398308337, 5.688387832604349, 35.03538278490305, 18.426487081684172, -0.4480000212788582, 0.800000037997961, 0.5120000243186951, 0.0, 0.0, 0.0, 0.0, 0.0, 1.6480852431357827E9, 0.0, 2022-03-23 20:27:23.135
48.0, -2.333697572350502, -2.4832935705780983, 35.85816077515483, 4.693574444390833, -0.4480000212788582, 0.800000037997961, 0.5120000243186951, 0.0, 0.0, 0.0, 0.0, 0.0, 1.6480852431357827E9, 0.0, 2022-03-23 20:27:23.135
49.0, -1.3613235838711262, -5.665948432870209, 32.387533616274595, 12.4875259520486, -0.4480000212788582, 0.800000037997961, 0.5120000243186951, 0.0, 0.0, 0.0, 0.0, 0.0, 1.6480852431363404E9, 0.0, 2022-03-23 20:27:23.136
49.0, 9.375929188914597, -11.369295865297318, 19.67935356684029, 1.929788377135992, -0.4480000212788582, 0.800000037997961, 0.5120000243186951, 0.0, 0.0, 0.0, 0.0, 0.0, 1.6480852431363404E9, 0.0, 2022-03-23 20:27:23.136
50.0, -4.102670251391828, -3.0068795643746853, 19.76537126582116, -6.668241620995104, -0.4480000212788582, 0.800000037997961, 0.5120000243186951, 0.0, 0.0, 0.0, 0.0, 0.0, 1.6480852431499965E9, 0.0, 2022-03-23 20:27:23.149
50.0, -7.053451316431165, -2.4346748711541295, 17.37557519413531, -8.332497101277113, -0.4480000212788582, 0.800000037997961, 0.5120000243186951, 0.0, 0.0, 0.0, 0.0, 0.0, 1.6480852431499965E9, 0.0, 2022-03-23 20:27:23.149
51.0, 9.869595983065665, -1.533358981832862, 26.98711808025837, -4.162508650682867, -0.4480000212788582, 0.800000037997961, 0.5120000243186951, 0.0, 0.0, 0.0, 0.0, 0.0, 1.6480852431656525E9, 0.0, 2022-03-23 20:27:23.165
51.0, 5.22838013805449, -4.43552134744823, 32.57452861405909, 3.302331660874188, -0.4480000212788582, 0.800000037997961, 0.5120000243186951, 0.0, 0.0, 0.0, 0.0, 0.0, 1.6480852431656525E9, 0.0, 2022-03-23 20:27:23.165
52.0, -6.638322421349585, -8.325017301365733, 20.726525554433465, -2.9657406648620963, -0.4640000220388174, 0.800000037997961, 0.5120000243186951, 0.0, 0.0, 0.0, 0.0, 0.0, 1.6480852431664193E9, 0.0, 2022-03-23 20:27:23.166
52.0, -0.9536744887009263, -12.8577760476619, 13.729172737337649, -7.027272016741335, -0.4640000220388174, 0.800000037997961, 0.5120000243186951, 0.0, 0.0, 0.0, 0.0, 0.0, 1.6480852431664193E9, 0.0, 2022-03-23 20:27:23.166
53.0, 5.811804531142116, 4.0428318521007895, 23.419253522530198, 2.7937052669003606, -0.4640000220388174, 0.800000037997961, 0.5120000243186951, 0.0, 0.0, 0.0, 0.0, 0.0, 1.648085243180029E9, 0.0, 2022-03-23 20:27:23.180
53.0, 13.646894938312471, 8.504532499238849, 36.15361287165433, 7.24044631421566, -0.4640000220388174, 0.800000037997961, 0.5120000243186951, 0.0, 0.0, 0.0, 0.0, 0.0, 1.648085243180029E9, 0.0, 2022-03-23 20:27:23.180
54.0, 13.901208135299385, 4.390642547979951, 31.647033425047994, 7.550858010537922, -0.4640000220388174, 0.800000037997961, 0.5120000243186951, 0.0, 0.0, 0.0, 0.0, 0.0, 1.6480852431956768E9, 0.0, 2022-03-23 20:27:23.195
54.0, 13.422500940971076, -0.40016929525882006, 28.258684065192938, 4.03535205218941, -0.4640000220388174, 0.800000037997961, 0.5120000243186951, 0.0, 0.0, 0.0, 0.0, 0.0, 1.6480852431956768E9, 0.0, 2022-03-23 20:27:23.195
55.0, 4.757152743637562, 6.331650624983013, 29.73594454769045, 4.592597145587206, -0.4640000220388174, 0.800000037997961, 0.5120000243186951, 0.0, 0.0, 0.0, 0.0, 0.0, 1.648085243196452E9, 0.0, 2022-03-23 20:27:23.196
55.0, -7.63687570951879, -0.29545209649950266, 31.74427082389593, 1.7128741797059774, -0.4640000220388174, 0.800000037997961, 0.5120000243186951, 0.0, 0.0, 0.0, 0.0, 0.0, 1.648085243196452E9, 0.0, 2022-03-23 20:27:23.196
56.0, 8.339976901188493, -11.485232763923705, 23.490311621688306, 0.7068410916253924, -0.4640000220388174, 0.800000037997961, 0.5120000243186951, 0.0, 0.0, 0.0, 0.0, 0.0, 1.648085243210014E9, 0.0, 2022-03-23 20:27:23.210
56.0, -9.547964586876333, -8.291358201764524, 25.917506692931056, 1.8213312784209847, -0.4640000220388174, 0.800000037997961, 0.5120000243186951, 0.0, 0.0, 0.0, 0.0, 0.0, 1.648085243210014E9, 0.0, 2022-03-23 20:27:23.210
57.0, -11.934020758606493, -9.832196983508766, 29.03284335602075, -7.606956509873271, -0.4640000220388174, 0.800000037997961, 0.5120000243186951, 0.0, 0.0, 0.0, 0.0, 0.0, 1.6480852432257009E9, 0.0, 2022-03-23 20:27:23.225
57.0, -4.974066941067576, -17.169880696572363, 13.100869544781744, -5.321877636946738, -0.4640000220388174, 0.800000037997961, 0.5120000243186951, 0.0, 0.0, 0.0, 0.0, 0.0, 1.6480852432257009E9, 0.0, 2022-03-23 20:27:23.225
58.0, 0.2767525967210531, -6.784178519621491, 22.820869529619813, -1.249126585200429, -0.4640000220388174, 0.800000037997961, 0.5120000243186951, 0.0, 0.0, 0.0, 0.0, 0.0, 1.6480852432264032E9, 0.0, 2022-03-23 20:27:23.226
58.0, -13.882508635520935, -7.603216609917581, 17.173620596528053, -6.125956127420068, -0.4640000220388174, 0.800000037997961, 0.5120000243186951, 0.0, 0.0, 0.0, 0.0, 0.0, 1.6480852432264032E9, 0.0, 2022-03-23 20:27:23.226
59.0, 5.142362439073622, 0.2131742974743247, 30.756937235593796, 10.654974973760545, -0.4640000220388174, 0.800000037997961, 0.5120000243186951, 0.0, 0.0, 0.0, 0.0, 0.0, 1.6480852432400029E9, 0.0, 2022-03-23 20:27:23.240
59.0, 7.25914581399411, -2.621669868938625, 27.38728737551719, -3.3958291597664356, -0.4640000220388174, 0.800000037997961, 0.5120000243186951, 0.0, 0.0, 0.0, 0.0, 0.0, 1.6480852432400029E9, 0.0, 2022-03-23 20:27:23.240
60.0, -2.4010157715529203, -0.8414774900302291, 28.296083064749837, -11.788164660334587, -0.4640000220388174, 0.800000037997961, 0.5120000243186951, 0.0, 0.0, 0.0, 0.0, 0.0, 1.648085243255685E9, 0.0, 2022-03-23 20:27:23.255
60.0, -4.383162748068571, 5.8566833306103945, 31.153366630896926, 4.248526349663734, -0.4640000220388174, 0.800000037997961, 0.5120000243186951, 0.0, 0.0, 0.0, 0.0, 0.0, 1.648085243255685E9, 0.0, 2022-03-23 20:27:23.255
61.0, 8.325017301365733, -11.522631763480604, 17.36435549426824, 2.905902265571058, -0.4640000220388174, 0.800000037997961, 0.5120000243186951, 0.0, 0.0, 0.0, 0.0, 0.0, 1.648085243256358E9, 0.0, 2022-03-23 20:27:23.256
61.0, -11.589949962683022, -13.239245843142271, 13.224286243319511, -8.713966896757483, -0.4640000220388174, 0.800000037997961, 0.5120000243186951, 0.0, 0.0, 0.0, 0.0, 0.0, 1.648085243256358E9, 0.0, 2022-03-23 20:27:23.256
62.0, -18.763078077696264, -15.471966116689146, 14.679107326082885, -15.000738722272217, -0.4480000212788582, 0.800000037997961, 0.5120000243186951, 0.0, 0.0, 0.0, 0.0, 0.0, 1.6480852432699678E9, 0.0, 2022-03-23 20:27:23.269
62.0, 3.508026158437133, -5.149842238985002, 26.706625583581626, -2.9470411650836468, -0.4480000212788582, 0.800000037997961, 0.5120000243186951, 0.0, 0.0, 0.0, 0.0, 0.0, 1.6480852432699678E9, 0.0, 2022-03-23 20:27:23.269
63.0, -3.2499730614945292, 0.8900961894541979, 29.081462055444717, 1.7091342797502875, -0.4480000212788582, 0.800000037997961, 0.5120000243186951, 0.0, 0.0, 0.0, 0.0, 0.0, 1.6480852432856236E9, 0.0, 2022-03-23 20:27:23.285
63.0, -10.677414373494685, -4.132589451037347, 35.177498983219266, -5.063824540004134, -0.4480000212788582, 0.800000037997961, 0.5120000243186951, 0.0, 0.0, 0.0, 0.0, 0.0, 1.6480852432856236E9, 0.0, 2022-03-23 20:27:23.285
64.0, 5.707087332382798, 2.2028010739013553, 49.18342431727797, 7.891188906505704, -0.4480000212788582, 0.800000037997961, 0.5120000243186951, 0.0, 0.0, 0.0, 0.0, 0.0, 1.6480852432864048E9, 0.0, 2022-03-23 20:27:23.286
64.0, 10.509118875488639, -9.043078092858195, 40.087987625040114, 8.05200460460037, -0.4480000212788582, 0.800000037997961, 0.5120000243186951, 0.0, 0.0, 0.0, 0.0, 0.0, 1.6480852432864048E9, 0.0, 2022-03-23 20:27:23.286
65.0, -4.667395144701004, -4.985286640934646, 54.62123885285109, 1.1780684860423207, -0.4480000212788582, 0.800000037997961, 0.5120000243186951, 0.0, 0.0, 0.0, 0.0, 0.0, 1.64808524329997E9, 0.0, 2022-03-23 20:27:23.299
65.0, 1.2640861850231886, -1.3164447844028473, 58.33869940880686, 5.015205840580165, -0.4480000212788582, 0.800000037997961, 0.5120000243186951, 0.0, 0.0, 0.0, 0.0, 0.0, 1.64808524329997E9, 0.0, 2022-03-23 20:27:23.299
66.0, 19.039830674417317, -3.900715653784573, 58.44715650752187, 20.13562136143446, -0.4480000212788582, 0.800000037997961, 0.5120000243186951, 0.0, 0.0, 0.0, 0.0, 0.0, 1.6480852433156319E9, 0.0, 2022-03-23 20:27:23.315
66.0, 10.46797997597605, -7.034751816652715, 64.27392063848674, 6.163355126976967, -0.4480000212788582, 0.800000037997961, 0.5120000243186951, 0.0, 0.0, 0.0, 0.0, 0.0, 1.6480852433156319E9, 0.0, 2022-03-23 20:27:23.315
67.0, 0.5497652934864163, -13.912427835166454, 59.56912649422884, 8.82242399547249, -0.4480000212788582, 0.800000037997961, 0.5120000243186951, 0.0, 0.0, 0.0, 0.0, 0.0, 1.6480852433164113E9, 0.0, 2022-03-23 20:27:23.316
67.0, 11.335636765696108, -18.389088082127273, 59.16521729901433, 19.241785272024572, -0.4480000212788582, 0.800000037997961, 0.5120000243186951, 0.0, 0.0, 0.0, 0.0, 0.0, 1.6480852433164113E9, 0.0, 2022-03-23 20:27:23.316
68.0, 7.65557520929724, -21.212712548673153, 63.15195065177977, 14.738945725373924, -0.4480000212788582, 0.800000037997961, 0.5120000243186951, 0.0, 0.0, 0.0, 0.0, 0.0, 1.648085243329984E9, 0.0, 2022-03-23 20:27:23.329
68.0, -9.099176592193544, -15.438307017087936, 50.27921500429511, 10.202447079122066, -0.4480000212788582, 0.800000037997961, 0.5120000243186951, 0.0, 0.0, 0.0, 0.0, 0.0, 1.648085243329984E9, 0.0, 2022-03-23 20:27:23.329
69.0, 1.7801923789083958, -16.388241605833173, 45.00969596672803, 7.23670641425997, -0.4480000212788582, 0.800000037997961, 0.5120000243186951, 0.0, 0.0, 0.0, 0.0, 0.0, 1.64808524334571E9, 0.0, 2022-03-23 20:27:23.345
69.0, 7.203047314658761, -17.914120787754655, 42.818114592693746, 5.157322038896382, -0.4480000212788582, 0.800000037997961, 0.5120000243186951, 0.0, 0.0, 0.0, 0.0, 0.0, 1.64808524334571E9, 0.0, 2022-03-23 20:27:23.345
70.0, -5.972620229236782, -16.03295111004263, 48.491542825475335, -7.980946505442262, -0.4480000212788582, 0.800000037997961, 0.5120000243186951, 0.0, 0.0, 0.0, 0.0, 0.0, 1.64808524334639E9, 0.0, 2022-03-23 20:27:23.346
70.0, 3.0816775634884834, -11.096283168531954, 57.725355816073716, 3.6389226568862796, -0.4480000212788582, 0.800000037997961, 0.5120000243186951, 0.0, 0.0, 0.0, 0.0, 0.0, 1.64808524334639E9, 0.0, 2022-03-23 20:27:23.346
71.0, 15.445786816999316, -12.263131954707205, 56.67818382848054, 17.801923789083958, -0.4480000212788582, 0.7840000372380018, 0.5120000243186951, 0.0, 0.0, 0.0, 0.0, 0.0, 1.6480852433599865E9, 0.0, 2022-03-23 20:27:23.359
71.0, -8.411035000346601, -19.552196968346834, 46.81606764532626, 6.342870324850082, -0.4480000212788582, 0.7840000372380018, 0.5120000243186951, 0.0, 0.0, 0.0, 0.0, 0.0, 1.6480852433599865E9, 0.0, 2022-03-23 20:27:23.359
72.0, -1.1593689862638712, -8.990719493478537, 58.944563201628625, 7.64809540938586, -0.4480000212788582, 0.7840000372380018, 0.5120000243186951, 0.0, 0.0, 0.0, 0.0, 0.0, 1.6480852433756192E9, 0.0, 2022-03-23 20:27:23.375
72.0, 8.594290098175406, -17.65232779085636, 49.57237391266972, 17.614928791299462, -0.4480000212788582, 0.7840000372380018, 0.5120000243186951, 0.0, 0.0, 0.0, 0.0, 0.0, 1.6480852433756192E9, 0.0, 2022-03-23 20:27:23.375
73.0, 1.686694880016148, -20.834982653148472, 45.52954206056893, -2.2701192731037736, -0.4480000212788582, 0.7840000372380018, 0.5120000243186951, 0.0, 0.0, 0.0, 0.0, 0.0, 1.6480852433764293E9, 0.0, 2022-03-23 20:27:23.376
73.0, -6.066117728129029, -12.360369353555143, 52.74006917513907, 2.932081565260887, -0.4480000212788582, 0.7840000372380018, 0.5120000243186951, 0.0, 0.0, 0.0, 0.0, 0.0, 1.6480852433764293E9, 0.0, 2022-03-23 20:27:23.376
74.0, 9.372189288958907, -4.069011151790619, 48.147472029551864, 18.389088082127273, -0.4480000212788582, 0.7840000372380018, 0.5120000243186951, 0.0, 0.0, 0.0, 0.0, 0.0, 1.648085243389999E9, 0.0, 2022-03-23 20:27:23.389
74.0, 22.708672530949116, -5.434074635617435, 55.66093104053289, 14.166741032153368, -0.4480000212788582, 0.7840000372380018, 0.5120000243186951, 0.0, 0.0, 0.0, 0.0, 0.0, 1.648085243389999E9, 0.0, 2022-03-23 20:27:23.389
75.0, -0.06731819920241833, -13.179407443851233, 47.92681793216616, 10.84944977145642, -0.4480000212788582, 0.7840000372380018, 0.5120000243186951, 0.0, 0.0, 0.0, 0.0, 0.0, 1.6480852434056828E9, 0.0, 2022-03-23 20:27:23.405
75.0, -6.6607618210837245, -14.252758731134236, 35.188718683086336, -9.884555582888424, -0.4480000212788582, 0.7840000372380018, 0.5120000243186951, 0.0, 0.0, 0.0, 0.0, 0.0, 1.6480852434056828E9, 0.0, 2022-03-23 20:27:23.405
76.0, 13.68803383782506, -11.788164660334587, 37.88518655113876, 20.255298160016537, -0.4480000212788582, 0.7840000372380018, 0.5120000243186951, 0.0, 0.0, 0.0, 0.0, 0.0, 1.6480852434063427E9, 0.0, 2022-03-23 20:27:23.406
76.0, 6.346610224805772, -5.0526048401370645, 58.81740660313517, 13.014851845800877, -0.4480000212788582, 0.7840000372380018, 0.5120000243186951, 0.0, 0.0, 0.0, 0.0, 0.0, 1.6480852434063427E9, 0.0, 2022-03-23 20:27:23.406
77.0, 0.7105809915810823, -2.9096421655267477, 51.330126891843975, 8.665348197333515, -0.4480000212788582, 0.7840000372380018, 0.5120000243186951, 0.0, 0.0, 0.0, 0.0, 0.0, 1.6480852434200428E9, 0.0, 2022-03-23 20:27:23.420
77.0, 11.26083876658231, -4.899268941953778, 44.17569827660918, 21.425886846147478, -0.4480000212788582, 0.7840000372380018, 0.5120000243186951, 0.0, 0.0, 0.0, 0.0, 0.0, 1.6480852434200428E9, 0.0, 2022-03-23 20:27:23.420
78.0, 15.131635220721364, -5.022685640491545, 43.60349358338863, 16.324663306586444, -0.4480000212788582, 0.7840000372380018, 0.5120000243186951, 0.0, 0.0, 0.0, 0.0, 0.0, 1.648085243435646E9, 0.0, 2022-03-23 20:27:23.435
78.0, -3.5117660583928227, -4.540238546207547, 45.49214306101203, 5.119923039339483, -0.4480000212788582, 0.7840000372380018, 0.5120000243186951, 0.0, 0.0, 0.0, 0.0, 0.0, 1.648085243435646E9, 0.0, 2022-03-23 20:27:23.435
79.0, 9.173974591307342, -0.6956213917583227, 48.472843325696886, 8.45217389985919, -0.4480000212788582, 0.7840000372380018, 0.5120000243186951, 0.0, 0.0, 0.0, 0.0, 0.0, 1.6480852434363472E9, 0.0, 2022-03-23 20:27:23.436
79.0, 11.488972663879395, -8.212820302695036, 36.10499417223036, 2.3636167719960213, -0.4480000212788582, 0.7840000372380018, 0.5120000243186951, 0.0, 0.0, 0.0, 0.0, 0.0, 1.6480852434363472E9, 0.0, 2022-03-23 20:27:23.436
80.0, 4.944147741422057, 0.2543131969869137, 48.26714882813394, 13.358922641724348, -0.4480000212788582, 0.7840000372380018, 0.5120000243186951, 0.0, 0.0, 0.0, 0.0, 0.0, 1.6480852434500031E9, 0.0, 2022-03-23 20:27:23.450
80.0, 2.7899653669446707, -1.6979145798832178, 46.69265094678849, 5.377976136282086, -0.4480000212788582, 0.7840000372380018, 0.5120000243186951, 0.0, 0.0, 0.0, 0.0, 0.0, 1.6480852434500031E9, 0.0, 2022-03-23 20:27:23.450
81.0, 21.29125044774264, 3.3696498600766063, 46.131665953435004, 14.312597130425274, -0.4480000212788582, 0.7840000372380018, 0.5120000243186951, 0.0, 0.0, 0.0, 0.0, 0.0, 1.6480852434656427E9, 0.0, 2022-03-23 20:27:23.465
81.0, 17.001585198566318, 8.605509798042476, 55.5075951423496, 34.021869896911085, -0.4480000212788582, 0.7840000372380018, 0.5120000243186951, 0.0, 0.0, 0.0, 0.0, 0.0, 1.6480852434656427E9, 0.0, 2022-03-23 20:27:23.465
82.0, 4.637475945055485, 3.9979530526325107, 54.40432465542108, 22.529157333076, -0.4480000212788582, 0.7840000372380018, 0.5120000243186951, 0.0, 0.0, 0.0, 0.0, 0.0, 1.6480852434664187E9, 0.0, 2022-03-23 20:27:23.466
82.0, 9.009418993256986, -4.805771443061531, 39.51204303186387, 12.91387454699725, -0.4480000212788582, 0.7840000372380018, 0.5120000243186951, 0.0, 0.0, 0.0, 0.0, 0.0, 1.6480852434664187E9, 0.0, 2022-03-23 20:27:23.466
83.0, -7.300284713506699, -9.25251249037683, 30.25205074157566, 0.6918814918026328, -0.4480000212788582, 0.7840000372380018, 0.5120000243186951, 0.0, 0.0, 0.0, 0.0, 0.0, 1.6480852434799113E9, 0.0, 2022-03-23 20:27:23.479
83.0, -12.685740649700165, -9.25251249037683, 30.99255093280226, -1.249126585200429, -0.4480000212788582, 0.7840000372380018, 0.5120000243186951, 0.0, 0.0, 0.0, 0.0, 0.0, 1.6480852434799113E9, 0.0, 2022-03-23 20:27:23.479
84.0, 7.606956509873271, 1.8662100778892636, 53.14771827030927, 14.032104633748531, -0.4480000212788582, 0.7840000372380018, 0.5120000243186951, 0.0, 0.0, 0.0, 0.0, 0.0, 1.6480852434954507E9, 0.0, 2022-03-23 20:27:23.495
84.0, 13.25420544296503, -11.788164660334587, 44.23179677594453, 2.969480564817786, -0.4480000212788582, 0.7840000372380018, 0.5120000243186951, 0.0, 0.0, 0.0, 0.0, 0.0, 1.6480852434954507E9, 0.0, 2022-03-23 20:27:23.495
85.0, 0.8938360894098878, -5.875382830388844, 44.31407457496971, -15.823516712523997, -0.4480000212788582, 0.7840000372380018, 0.5120000243186951, 0.0, 0.0, 0.0, 0.0, 0.0, 1.6480852435106378E9, 0.0, 2022-03-23 20:27:23.510
85.0, -6.133435927331448, -8.497052699327469, 45.88109265640378, -3.107856863178313, -0.4480000212788582, 0.7840000372380018, 0.5120000243186951, 0.0, 0.0, 0.0, 0.0, 0.0, 1.6480852435106378E9, 0.0, 2022-03-23 20:27:23.510
86.0, 14.664147726260126, -6.933774517849088, 46.857206544838846, 16.578976503573358, -0.4480000212788582, 0.7840000372380018, 0.5120000243186951, 0.0, 0.0, 0.0, 0.0, 0.0, 1.6480852435115583E9, 0.0, 2022-03-23 20:27:23.511
86.0, 9.402108488604426, 1.9559676768258214, 48.42422462627292, 9.25251249037683, -0.4480000212788582, 0.7840000372380018, 0.5120000243186951, 0.0, 0.0, 0.0, 0.0, 0.0, 1.6480852435115583E9, 0.0, 2022-03-23 20:27:23.511
87.0, 8.250219302251935, 6.552304722368717, 61.56997297052294, 14.90724122337997, -0.4480000212788582, 0.7840000372380018, 0.5120000243186951, 0.0, 0.0, 0.0, 0.0, 0.0, 1.6480852435256715E9, 0.0, 2022-03-23 20:27:23.525
87.0, 26.680446283891797, 3.7212004559114575, 62.957475854083896, 21.837275841273367, -0.4480000212788582, 0.7840000372380018, 0.5120000243186951, 0.0, 0.0, 0.0, 0.0, 0.0, 1.6480852435256715E9, 0.0, 2022-03-23 20:27:23.525
88.0, 16.377021905966103, 2.6067102691158652, 66.25980751495808, 24.470165410079062, -0.4480000212788582, 0.7840000372380018, 0.5120000243186951, 0.0, 0.0, 0.0, 0.0, 0.0, 1.6480852435264647E9, 0.0, 2022-03-23 20:27:23.526
88.0, 9.966833381913602, 2.460854170843959, 59.97303568944335, 21.160353949293494, -0.4480000212788582, 0.7840000372380018, 0.5120000243186951, 0.0, 0.0, 0.0, 0.0, 0.0, 1.6480852435264647E9, 0.0, 2022-03-23 20:27:23.526
89.0, 21.018237750977278, 10.924247770570219, 67.31071940250695, 28.849588258191943, -0.4480000212788582, 0.7840000372380018, 0.5120000243186951, 0.0, 0.0, 0.0, 0.0, 0.0, 1.6480852435399494E9, 0.0, 2022-03-23 20:27:23.539
89.0, 6.365309724584222, 3.3659099601209164, 55.40661784354597, 16.612635603174567, -0.4480000212788582, 0.7840000372380018, 0.5120000243186951, 0.0, 0.0, 0.0, 0.0, 0.0, 1.6480852435399494E9, 0.0, 2022-03-23 20:27:23.539
90.0, -5.3330973368138075, 4.050311652012169, 47.15265864133835, 0.6283031925559044, -0.4480000212788582, 0.7840000372380018, 0.5120000243186951, 0.0, 0.0, 0.0, 0.0, 0.0, 1.6480852435556598E9, 0.0, 2022-03-23 20:27:23.555
90.0, -3.822177754715085, 1.8437706781551242, 45.14433236513287, -1.727833779528737, -0.4480000212788582, 0.7840000372380018, 0.5120000243186951, 0.0, 0.0, 0.0, 0.0, 0.0, 1.6480852435556598E9, 0.0, 2022-03-23 20:27:23.555
91.0, 13.807710636407137, 3.4369680592790246, 35.34579448122531, 12.977452846243978, -0.4480000212788582, 0.800000037997961, 0.5120000243186951, 0.0, 0.0, 0.0, 0.0, 0.0, 1.6480852435563953E9, 0.0, 2022-03-23 20:27:23.556
91.0, -1.1855482859537005, -5.022685640491545, 28.15022696647793, -1.0920507870614529, -0.4480000212788582, 0.800000037997961, 0.5120000243186951, 0.0, 0.0, 0.0, 0.0, 0.0, 1.6480852435563953E9, 0.0, 2022-03-23 20:27:23.556
92.0, -10.266025378368795, -0.7330203913152218, 24.473905310034752, -13.055990745313466, -0.4480000212788582, 0.800000037997961, 0.5120000243186951, 0.0, 0.0, 0.0, 0.0, 0.0, 1.6480852435699692E9, 0.0, 2022-03-23 20:27:23.569
92.0, -3.5603847578167915, -8.609249697998166, 13.104609444737434, -14.731465925462544, -0.4480000212788582, 0.800000037997961, 0.5120000243186951, 0.0, 0.0, 0.0, 0.0, 0.0, 1.6480852435699692E9, 0.0, 2022-03-23 20:27:23.569
93.0, 1.529619081877172, 0.09723739884793758, 30.820515534840524, -4.772112343460321, -0.4480000212788582, 0.800000037997961, 0.5120000243186951, 0.0, 0.0, 0.0, 0.0, 0.0, 1.6480852435857065E9, 0.0, 2022-03-23 20:27:23.585
93.0, -6.309211225248873, -2.4645940707996488, 31.302962629124522, -7.520938810892403, -0.4480000212788582, 0.800000037997961, 0.5120000243186951, 0.0, 0.0, 0.0, 0.0, 0.0, 1.6480852435857065E9, 0.0, 2022-03-23 20:27:23.585
94.0, 5.030165440402925, -1.9858868764713407, 34.021869896911085, 3.306071560829878, -0.4480000212788582, 0.800000037997961, 0.5120000243186951, 0.0, 0.0, 0.0, 0.0, 0.0, 1.6480852435864942E9, 0.0, 2022-03-23 20:27:23.586
94.0, 9.043078092858195, 1.245386685244739, 29.642447048798203, 7.277845313772559, -0.4480000212788582, 0.800000037997961, 0.5120000243186951, 0.0, 0.0, 0.0, 0.0, 0.0, 1.6480852435864942E9, 0.0, 2022-03-23 20:27:23.586
95.0, -0.1047171987593174, 1.6268564807251096, 32.71664481237531, -0.6619622921571136, -0.4480000212788582, 0.800000037997961, 0.5120000243186951, 0.0, 0.0, 0.0, 0.0, 0.0, 1.6480852435999389E9, 0.0, 2022-03-23 20:27:23.599
95.0, 2.6403693687170744, 2.049465175718069, 45.19669096451253, 9.985532881692052, -0.4480000212788582, 0.800000037997961, 0.5120000243186951, 0.0, 0.0, 0.0, 0.0, 0.0, 1.6480852435999389E9, 0.0, 2022-03-23 20:27:23.599
96.0, 26.684186183847487, 7.520938810892403, 39.268949534744024, 16.743532101623714, -0.4480000212788582, 0.800000037997961, 0.5120000243186951, 0.0, 0.0, 0.0, 0.0, 0.0, 1.648085243615686E9, 0.0, 2022-03-23 20:27:23.615
96.0, 4.880569442175329, 1.331404384225607, 31.32914192881435, 2.7226471677422523, -0.4480000212788582, 0.800000037997961, 0.5120000243186951, 0.0, 0.0, 0.0, 0.0, 0.0, 1.648085243615686E9, 0.0, 2022-03-23 20:27:23.615
97.0, 7.569557510316372, 13.613235838711262, 39.426025332883, 12.88769524730742, -0.4480000212788582, 0.800000037997961, 0.5120000243186951, 0.0, 0.0, 0.0, 0.0, 0.0, 1.6480852436164055E9, 0.0, 2022-03-23 20:27:23.616
97.0, 17.76452478952706, 16.320923406630754, 36.838014563545585, 12.805417448282242, -0.4480000212788582, 0.800000037997961, 0.5120000243186951, 0.0, 0.0, 0.0, 0.0, 0.0, 1.6480852436164055E9, 0.0, 2022-03-23 20:27:23.616
98.0, 9.058037692680955, 7.853789906948805, 33.588041502051055, -1.4361215829849243, -0.4480000212788582, 0.800000037997961, 0.5120000243186951, 0.0, 0.0, 0.0, 0.0, 0.0, 1.6480852436299984E9, 0.0, 2022-03-23 20:27:23.629
98.0, -7.883709106594324, -0.39268949534744024, 32.825101911090314, -7.569557510316372, -0.4480000212788582, 0.800000037997961, 0.5120000243186951, 0.0, 0.0, 0.0, 0.0, 0.0, 1.6480852436299984E9, 0.0, 2022-03-23 20:27:23.629
99.0, 0.8975759893655777, 9.076737192459404, 37.15590605977923, -2.0644247755408287, -0.4480000212788582, 0.800000037997961, 0.5120000243186951, 0.0, 0.0, 0.0, 0.0, 0.0, 1.6480852436456828E9, 0.0, 2022-03-23 20:27:23.645
99.0, 7.419961512088776, 0.9499345887452364, 21.093035750091076, -8.684047697111964, -0.4480000212788582, 0.800000037997961, 0.5120000243186951, 0.0, 0.0, 0.0, 0.0, 0.0, 1.6480852436456828E9, 0.0, 2022-03-23 20:27:23.645
100.0, -6.82531741913408, 2.932081565260887, 22.8994074286893, -8.100623304024339, -0.4480000212788582, 0.800000037997961, 0.5120000243186951, 0.0, 0.0, 0.0, 0.0, 0.0, 1.6480852436465223E9, 0.0, 2022-03-23 20:27:23.646
100.0, 4.8169911429286, 10.640015373937786, 30.072535543702543, -1.653035780414939, -0.4480000212788582, 0.800000037997961, 0.5120000243186951, 0.0, 0.0, 0.0, 0.0, 0.0, 1.6480852436465223E9, 0.0, 2022-03-23 20:27:23.646
0.0, 835.9817070453428, 362.4131352561526, 1528.1997898439877, 782.0579595342278, -0.4480000212788582, 0.800000037997961, 0.5120000243186951, 0.0, 0.0, 0.0, 0.0, 0.0, 1.6480852436606636E9, 0.0, 2022-03-23 20:27:23.660
1.0, 819.9973746347241, 364.5897570303641, 1521.1687779272906, 780.2179287560284, -0.4480000212788582, 0.800000037997961, 0.5120000243186951, 0.0, 0.0, 0.0, 0.0, 0.0, 1.6480852436614232E9, 0.0, 2022-03-23 20:27:23.661
1.0, 801.2754354565404, 355.8982295333408, 1505.895026508253, 768.5419610943645, -0.4480000212788582, 0.800000037997961, 0.5120000243186951, 0.0, 0.0, 0.0, 0.0, 0.0, 1.6480852436614232E9, 0.0, 2022-03-23 20:27:23.661
2.0, 816.8072399725206, 355.5541587374173, 1509.732163862791, 767.5621073059738, -0.4480000212788582, 0.800000037997961, 0.5120000243186951, 0.0, 0.0, 0.0, 0.0, 0.0, 1.6480852436749249E9, 0.0, 2022-03-23 20:27:23.674
2.0, 820.62567782728, 357.0875177192502, 1534.0863923742436, 776.7921803966165, -0.4480000212788582, 0.800000037997961, 0.5120000243186951, 0.0, 0.0, 0.0, 0.0, 0.0, 1.6480852436749249E9, 0.0, 2022-03-23 20:27:23.674
3.0, 816.8259394722991, 368.4119347850792, 1540.810732494574, 786.3700641831383, -0.4480000212788582, 0.800000037997961, 0.5120000243186951, 0.0, 0.0, 0.0, 0.0, 0.0, 1.648085243690732E9, 0.0, 2022-03-23 20:27:23.690
3.0, 814.8176131960936, 357.16979551827535, 1527.9043377474882, 783.5090407170355, -0.4480000212788582, 0.800000037997961, 0.5120000243186951, 0.0, 0.0, 0.0, 0.0, 0.0, 1.648085243690732E9, 0.0, 2022-03-23 20:27:23.690
4.0, 819.2830537431873, 353.9721810561605, 1528.136211544741, 786.0409529870376, -0.4480000212788582, 0.800000037997961, 0.5120000243186951, 0.0, 0.0, 0.0, 0.0, 0.0, 1.6480852436914208E9, 0.0, 2022-03-23 20:27:23.691
4.0, 815.6740502859466, 358.40022260369733, 1528.8916713357903, 789.0216532517225, -0.4480000212788582, 0.800000037997961, 0.5120000243186951, 0.0, 0.0, 0.0, 0.0, 0.0, 1.6480852436914208E9, 0.0, 2022-03-23 20:27:23.691
5.0, 810.7336424444802, 360.2552129817195, 1520.59657323407, 780.2553277555853, -0.4480000212788582, 0.800000037997961, 0.5120000243186951, 0.0, 0.0, 0.0, 0.0, 0.0, 1.64808524370496E9, 0.0, 2022-03-23 20:27:23.704
5.0, 831.8229382946156, 359.0472252960317, 1518.4012519600801, 786.5346197811887, -0.4480000212788582, 0.800000037997961, 0.5120000243186951, 0.0, 0.0, 0.0, 0.0, 0.0, 1.64808524370496E9, 0.0, 2022-03-23 20:27:23.704
6.0, 812.3268398256041, 354.16665585385635, 1518.5396282584406, 764.8506798380986, -0.4480000212788582, 0.800000037997961, 0.5120000243186951, 0.0, 0.0, 0.0, 0.0, 0.0, 1.648085243720674E9, 0.0, 2022-03-23 20:27:23.720
6.0, 806.2569821975194, 353.0746050667949, 1519.994449341204, 772.1210453519598, -0.4480000212788582, 0.800000037997961, 0.5120000243186951, 0.0, 0.0, 0.0, 0.0, 0.0, 1.648085243720674E9, 0.0, 2022-03-23 20:27:23.720
7.0, 818.3630383540876, 351.98629417968914, 1512.1518791341223, 777.0277940938249, -0.4480000212788582, 0.800000037997961, 0.5120000243186951, 0.0, 0.0, 0.0, 0.0, 0.0, 1.648085243721403E9, 0.0, 2022-03-23 20:27:23.721
7.0, 821.8486251127906, 356.91548232128844, 1516.0077159884386, 784.1261242097244, -0.4480000212788582, 0.800000037997961, 0.5120000243186951, 0.0, 0.0, 0.0, 0.0, 0.0, 1.648085243721403E9, 0.0, 2022-03-23 20:27:23.721
8.0, 812.9514031182043, 365.76408561645076, 1533.9629756757058, 783.6324574155733, -0.4480000212788582, 0.800000037997961, 0.5120000243186951, 0.0, 0.0, 0.0, 0.0, 0.0, 1.648085243734991E9, 0.0, 2022-03-23 20:27:23.734
8.0, 824.6460702796467, 361.5940971658565, 1540.8668309939094, 782.405770230107, -0.4480000212788582, 0.800000037997961, 0.5120000243186951, 0.0, 0.0, 0.0, 0.0, 0.0, 1.648085243734991E9, 0.0, 2022-03-23 20:27:23.734
9.0, 836.1574823432602, 358.69193480024114, 1532.1603438970633, 791.1421765265986, -0.4480000212788582, 0.800000037997961, 0.5120000243186951, 0.0, 0.0, 0.0, 0.0, 0.0, 1.6480852437506464E9, 0.0, 2022-03-23 20:27:23.750
9.0, 824.0776054863818, 365.32277742167935, 1517.354079972487, 772.7979672439396, -0.4480000212788582, 0.800000037997961, 0.5120000243186951, 0.0, 0.0, 0.0, 0.0, 0.0, 1.6480852437506464E9, 0.0, 2022-03-23 20:27:23.750
10.0, 815.36737848958, 368.8569828798063, 1520.9369041300379, 770.0379210766405, -0.4480000212788582, 0.800000037997961, 0.5120000243186951, 0.0, 0.0, 0.0, 0.0, 0.0, 1.648085243751454E9, 0.0, 2022-03-23 20:27:23.751
10.0, 833.2141810781322, 365.1170829241164, 1514.3210211084224, 771.3207067614421, -0.4480000212788582, 0.800000037997961, 0.5120000243186951, 0.0, 0.0, 0.0, 0.0, 0.0, 1.648085243751454E9, 0.0, 2022-03-23 20:27:23.751
11.0, 816.8857778715901, 362.6076100538485, 1508.1127871819772, 767.606986105442, -0.4480000212788582, 0.7840000372380018, 0.5120000243186951, 0.0, 0.0, 0.0, 0.0, 0.0, 1.648085243764972E9, 0.0, 2022-03-23 20:27:23.764
11.0, 803.3697794317268, 358.58347770152614, 1494.1517406473868, 763.1116263587028, -0.4480000212788582, 0.7840000372380018, 0.5120000243186951, 0.0, 0.0, 0.0, 0.0, 0.0, 1.648085243764972E9, 0.0, 2022-03-23 20:27:23.764
12.0, 817.6561972624622, 354.327471551951, 1497.790663304273, 768.1492715990171, -0.4480000212788582, 0.7840000372380018, 0.5120000243186951, 0.0, 0.0, 0.0, 0.0, 0.0, 1.648085243780668E9, 0.0, 2022-03-23 20:27:23.780
12.0, 811.5788598344661, 348.7699802177958, 1490.168747194577, 760.5123958894983, -0.4480000212788582, 0.7840000372380018, 0.5120000243186951, 0.0, 0.0, 0.0, 0.0, 0.0, 1.648085243780668E9, 0.0, 2022-03-23 20:27:23.780
13.0, 796.2527498160489, 343.93802947504446, 1481.8736490928568, 751.3945197975263, -0.4480000212788582, 0.7840000372380018, 0.5120000243186951, 0.0, 0.0, 0.0, 0.0, 0.0, 1.6480852437813993E9, 0.0, 2022-03-23 20:27:23.781
13.0, 798.0740810944699, 345.2170752598904, 1479.2968580233864, 748.1221073362976, -0.4480000212788582, 0.7840000372380018, 0.5120000243186951, 0.0, 0.0, 0.0, 0.0, 0.0, 1.6480852437813993E9, 0.0, 2022-03-23 20:27:23.781
14.0, 798.3583134911023, 338.05516684474424, 1482.0456844908185, 752.5501488838345, -0.4480000212788582, 0.7840000372380018, 0.5120000243186951, 0.0, 0.0, 0.0, 0.0, 0.0, 1.6480852437950404E9, 0.0, 2022-03-23 20:27:23.795
14.0, 803.3660395317711, 344.2297416715883, 1486.6869003358297, 752.2023381879553, -0.4480000212788582, 0.7840000372380018, 0.5120000243186951, 0.0, 0.0, 0.0, 0.0, 0.0, 1.6480852437950404E9, 0.0, 2022-03-23 20:27:23.795
15.0, 795.0073631308042, 342.580445791129, 1487.902367821429, 739.4978980384767, -0.4480000212788582, 0.7840000372380018, 0.5120000243186951, 0.0, 0.0, 0.0, 0.0, 0.0, 1.648085243810701E9, 0.0, 2022-03-23 20:27:23.810
15.0, 813.0822996166535, 343.9305496751331, 1484.151248165872, 760.7218302870169, -0.4480000212788582, 0.7840000372380018, 0.5120000243186951, 0.0, 0.0, 0.0, 0.0, 0.0, 1.648085243810701E9, 0.0, 2022-03-23 20:27:23.810
16.0, 796.4995832131244, 350.9727812916972, 1490.217365894001, 758.9453778080642, -0.4480000212788582, 0.7840000372380018, 0.5120000243186951, 0.0, 0.0, 0.0, 0.0, 0.0, 1.648085243811384E9, 0.0, 2022-03-23 20:27:23.811
16.0, 793.7058779462241, 344.1100648730062, 1482.9769195797853, 753.3953662738204, -0.4480000212788582, 0.7840000372380018, 0.5120000243186951, 0.0, 0.0, 0.0, 0.0, 0.0, 1.648085243811384E9, 0.0, 2022-03-23 20:27:23.811
17.0, 815.9508028826676, 349.56657890835777, 1482.666507883463, 764.5477479416877, -0.4480000212788582, 0.7840000372380018, 0.5120000243186951, 0.0, 0.0, 0.0, 0.0, 0.0, 1.648085243825006E9, 0.0, 2022-03-23 20:27:23.825
17.0, 808.8449929668568, 353.8562441575341, 1482.2251996886916, 757.2699026279151, -0.4480000212788582, 0.7840000372380018, 0.5120000243186951, 0.0, 0.0, 0.0, 0.0, 0.0, 1.648085243825006E9, 0.0, 2022-03-23 20:27:23.825
18.0, 802.8424535379745, 358.23940690560266, 1485.9576198444702, 765.8193139266223, -0.4480000212788582, 0.7840000372380018, 0.5120000243186951, 0.0, 0.0, 0.0, 0.0, 0.0, 1.6480852438407767E9, 0.0, 2022-03-23 20:27:23.840
18.0, 807.6407451811247, 353.4074561628513, 1495.7224986287765, 763.8409068500623, -0.4480000212788582, 0.7840000372380018, 0.5120000243186951, 0.0, 0.0, 0.0, 0.0, 0.0, 1.6480852438407767E9, 0.0, 2022-03-23 20:27:23.840
19.0, 802.1318725463934, 346.54099984420463, 1489.626461701002, 759.1735117053613, -0.4480000212788582, 0.7840000372380018, 0.5120000243186951, 0.0, 0.0, 0.0, 0.0, 0.0, 1.6480852438414347E9, 0.0, 2022-03-23 20:27:23.841
19.0, 794.5922342357226, 344.76080746529624, 1483.7473389706574, 751.2598833991215, -0.4480000212788582, 0.7840000372380018, 0.5120000243186951, 0.0, 0.0, 0.0, 0.0, 0.0, 1.6480852438414347E9, 0.0, 2022-03-23 20:27:23.841
20.0, 798.204977592919, 349.7423542062752, 1495.4345263321884, 741.8390754107386, -0.4480000212788582, 0.7840000372380018, 0.5120000243186951, 0.0, 0.0, 0.0, 0.0, 0.0, 1.6480852438713734E9, 0.0, 2022-03-23 20:27:23.871
20.0, 812.2221226268448, 343.1825696839951, 1494.76508424012, 756.2115109404549, -0.4480000212788582, 0.7840000372380018, 0.5120000243186951, 0.0, 0.0, 0.0, 0.0, 0.0, 1.6480852438713734E9, 0.0, 2022-03-23 20:27:23.871
21.0, 794.8502873326652, 342.23263509524986, 1490.3295628926717, 749.8013224164024, -0.4480000212788582, 0.800000037997961, 0.5120000243186951, 0.0, 0.0, 0.0, 0.0, 0.0, 1.6480852438721068E9, 0.0, 2022-03-23 20:27:23.872
21.0, 791.4843773725443, 343.16013028426096, 1482.113002690021, 752.8269014805555, -0.4480000212788582, 0.800000037997961, 0.5120000243186951, 0.0, 0.0, 0.0, 0.0, 0.0, 1.6480852438721068E9, 0.0, 2022-03-23 20:27:23.872
22.0, 808.6205989695154, 348.9681949154474, 1480.3664694107138, 760.2805220922455, -0.4480000212788582, 0.800000037997961, 0.5120000243186951, 0.0, 0.0, 0.0, 0.0, 0.0, 1.6480852438728876E9, 0.0, 2022-03-23 20:27:23.872
22.0, 805.8942119018175, 351.7880794820376, 1479.483853021171, 759.4727037018165, -0.4480000212788582, 0.800000037997961, 0.5120000243186951, 0.0, 0.0, 0.0, 0.0, 0.0, 1.6480852438728876E9, 0.0, 2022-03-23 20:27:23.872
23.0, 802.8424535379745, 359.21178089408204, 1489.9854920967482, 763.7885482506827, -0.4480000212788582, 0.800000037997961, 0.5120000243186951, 0.0, 0.0, 0.0, 0.0, 0.0, 1.648085243884922E9, 0.0, 2022-03-23 20:27:23.884
23.0, 817.6674169623293, 366.80377780413255, 1510.2108710571192, 778.2731807790697, -0.4480000212788582, 0.800000037997961, 0.5120000243186951, 0.0, 0.0, 0.0, 0.0, 0.0, 1.648085243884922E9, 0.0, 2022-03-23 20:27:23.884
24.0, 819.9824150349014, 359.7465865877457, 1512.0135028357618, 779.0959587693214, -0.4480000212788582, 0.800000037997961, 0.5120000243186951, 0.0, 0.0, 0.0, 0.0, 0.0, 1.6480852439006085E9, 0.0, 2022-03-23 20:27:23.900
24.0, 810.2437155502848, 359.23796019377187, 1510.0163962594233, 774.2827075263485, -0.4480000212788582, 0.800000037997961, 0.5120000243186951, 0.0, 0.0, 0.0, 0.0, 0.0, 1.6480852439006085E9, 0.0, 2022-03-23 20:27:23.900
25.0, 817.7048159618862, 360.1617154828273, 1515.4429910951294, 773.5085482355207, -0.4480000212788582, 0.800000037997961, 0.5120000243186951, 0.0, 0.0, 0.0, 0.0, 0.0, 1.648085243901362E9, 0.0, 2022-03-23 20:27:23.901
25.0, 831.0637386036105, 366.40360850887373, 1514.844607102219, 780.9995678467676, -0.4480000212788582, 0.800000037997961, 0.5120000243186951, 0.0, 0.0, 0.0, 0.0, 0.0, 1.648085243901362E9, 0.0, 2022-03-23 20:27:23.901
26.0, 818.478975252714, 365.06098442478105, 1508.9131257724948, 777.955289282836, -0.4480000212788582, 0.800000037997961, 0.5120000243186951, 0.0, 0.0, 0.0, 0.0, 0.0, 1.6480852439149048E9, 0.0, 2022-03-23 20:27:23.914
26.0, 815.4047774891369, 374.0442241183482, 1511.467477442231, 768.5232615945861, -0.4480000212788582, 0.800000037997961, 0.5120000243186951, 0.0, 0.0, 0.0, 0.0, 0.0, 1.6480852439149048E9, 0.0, 2022-03-23 20:27:23.914
27.0, 828.0418994394131, 369.20853347564116, 1514.074187711347, 780.9920880468562, -0.4480000212788582, 0.800000037997961, 0.5120000243186951, 0.0, 0.0, 0.0, 0.0, 0.0, 1.6480852439306388E9, 0.0, 2022-03-23 20:27:23.930
27.0, 822.3086328073405, 372.7913576331921, 1517.0586278759874, 776.8744581956416, -0.4480000212788582, 0.800000037997961, 0.5120000243186951, 0.0, 0.0, 0.0, 0.0, 0.0, 1.6480852439306388E9, 0.0, 2022-03-23 20:27:23.930
28.0, 820.6406374271028, 373.32616332685575, 1522.5188818112947, 783.6735963150859, -0.4480000212788582, 0.800000037997961, 0.5120000243186951, 0.0, 0.0, 0.0, 0.0, 0.0, 1.648085243931375E9, 0.0, 2022-03-23 20:27:23.931
28.0, 836.1986212427728, 375.6112421997823, 1518.547108058352, 787.1741426736116, -0.4480000212788582, 0.800000037997961, 0.5120000243186951, 0.0, 0.0, 0.0, 0.0, 0.0, 1.648085243931375E9, 0.0, 2022-03-23 20:27:23.931
29.0, 832.6644157846458, 374.0853630178608, 1513.5281623178162, 784.0812454102561, -0.4480000212788582, 0.800000037997961, 0.5120000243186951, 0.0, 0.0, 0.0, 0.0, 0.0, 1.648085243944998E9, 0.0, 2022-03-23 20:27:23.944
29.0, 800.6508721639402, 352.95118836825714, 1504.5150034246035, 760.9050853848457, -0.4480000212788582, 0.800000037997961, 0.5120000243186951, 0.0, 0.0, 0.0, 0.0, 0.0, 1.648085243944998E9, 0.0, 2022-03-23 20:27:23.944
30.0, 801.4886097540148, 349.4843011093326, 1501.7437375574373, 759.8466936973855, -0.4480000212788582, 0.800000037997961, 0.5120000243186951, 0.0, 0.0, 0.0, 0.0, 0.0, 1.648085243960683E9, 0.0, 2022-03-23 20:27:23.960
30.0, 821.0221072225831, 349.15892981318757, 1505.8875467083417, 769.6975901806727, -0.4480000212788582, 0.800000037997961, 0.5120000243186951, 0.0, 0.0, 0.0, 0.0, 0.0, 1.648085243960683E9, 0.0, 2022-03-23 20:27:23.960
31.0, 807.1994369863532, 353.1868020654656, 1510.8803131491877, 767.9884559009224, -0.4480000212788582, 0.800000037997961, 0.5120000243186951, 0.0, 0.0, 0.0, 0.0, 0.0, 1.6480852439614086E9, 0.0, 2022-03-23 20:27:23.961
31.0, 804.5403681178577, 358.91258889762685, 1516.351786784362, 769.6639310810715, -0.4480000212788582, 0.800000037997961, 0.5120000243186951, 0.0, 0.0, 0.0, 0.0, 0.0, 1.6480852439614086E9, 0.0, 2022-03-23 20:27:23.961
32.0, 821.3025997192599, 360.1056169834919, 1508.4867771775462, 777.0277940938249, -0.4480000212788582, 0.800000037997961, 0.5120000243186951, 0.0, 0.0, 0.0, 0.0, 0.0, 1.648085243975024E9, 0.0, 2022-03-23 20:27:23.975
32.0, 816.2873938786797, 357.6036239131354, 1499.7802900807, 778.9314031712711, -0.4480000212788582, 0.800000037997961, 0.5120000243186951, 0.0, 0.0, 0.0, 0.0, 0.0, 1.648085243975024E9, 0.0, 2022-03-23 20:27:23.975
33.0, 808.9235308659263, 366.0483180130832, 1513.5356421177275, 767.4536502072588, -0.4480000212788582, 0.800000037997961, 0.5120000243186951, 0.0, 0.0, 0.0, 0.0, 0.0, 1.6480852439906757E9, 0.0, 2022-03-23 20:27:23.990
33.0, 822.2226151083596, 374.70244651054963, 1517.4438375714235, 782.3646313305944, -0.4480000212788582, 0.800000037997961, 0.5120000243186951, 0.0, 0.0, 0.0, 0.0, 0.0, 1.6480852439906757E9, 0.0, 2022-03-23 20:27:23.990
34.0, 829.5490791215561, 370.29310446279123, 1508.935565172229, 784.1710030091926, -0.4480000212788582, 0.800000037997961, 0.5120000243186951, 0.0, 0.0, 0.0, 0.0, 0.0, 1.648085243991389E9, 0.0, 2022-03-23 20:27:23.991
34.0, 814.1182519043796, 373.0082718306221, 1514.9455844010226, 787.3798371711746, -0.4480000212788582, 0.800000037997961, 0.5120000243186951, 0.0, 0.0, 0.0, 0.0, 0.0, 1.648085243991389E9, 0.0, 2022-03-23 20:27:23.991
35.0, 805.0789137114771, 370.6296954588033, 1507.0207363949157, 778.497574776411, -0.4480000212788582, 0.800000037997961, 0.5120000243186951, 0.0, 0.0, 0.0, 0.0, 0.0, 1.6480852440049956E9, 0.0, 2022-03-23 20:27:24.004
35.0, 823.3296254952438, 363.42664814414456, 1498.213271999266, 775.3485790137202, -0.4480000212788582, 0.800000037997961, 0.5120000243186951, 0.0, 0.0, 0.0, 0.0, 0.0, 1.6480852440049956E9, 0.0, 2022-03-23 20:27:24.004
36.0, 821.3287790189497, 373.83852962078527, 1510.4838837538846, 779.0660395696759, -0.4480000212788582, 0.800000037997961, 0.5120000243186951, 0.0, 0.0, 0.0, 0.0, 0.0, 1.6480852440206647E9, 0.0, 2022-03-23 20:27:24.020
36.0, 824.2533807842992, 378.6817000634037, 1517.3952188719995, 776.7286020973697, -0.4480000212788582, 0.800000037997961, 0.5120000243186951, 0.0, 0.0, 0.0, 0.0, 0.0, 1.6480852440206647E9, 0.0, 2022-03-23 20:27:24.020
37.0, 834.519406162668, 373.3860017261468, 1515.110139999073, 778.8865243718028, -0.4480000212788582, 0.800000037997961, 0.5120000243186951, 0.0, 0.0, 0.0, 0.0, 0.0, 1.6480852440214188E9, 0.0, 2022-03-23 20:27:24.021
37.0, 833.6741887726821, 386.78232336742803, 1521.9691165178083, 785.7567205904052, -0.4480000212788582, 0.800000037997961, 0.5120000243186951, 0.0, 0.0, 0.0, 0.0, 0.0, 1.6480852440214188E9, 0.0, 2022-03-23 20:27:24.021
38.0, 821.422276517842, 380.10660194652155, 1523.5959729985334, 784.3280788073316, -0.4480000212788582, 0.800000037997961, 0.5120000243186951, 0.0, 0.0, 0.0, 0.0, 0.0, 1.6480852440351512E9, 0.0, 2022-03-23 20:27:24.035
38.0, 829.9716878165491, 379.88594784913585, 1512.2790357326157, 786.8338117776439, -0.4480000212788582, 0.800000037997961, 0.5120000243186951, 0.0, 0.0, 0.0, 0.0, 0.0, 1.6480852440351512E9, 0.0, 2022-03-23 20:27:24.035
39.0, 832.2418070896529, 384.635620792862, 1519.1941107506864, 783.5688791163266, -0.4480000212788582, 0.800000037997961, 0.5120000243186951, 0.0, 0.0, 0.0, 0.0, 0.0, 1.6480852440504632E9, 0.0, 2022-03-23 20:27:24.050
39.0, 820.9660087232478, 390.2417308264412, 1527.4443300529383, 783.7596140140668, -0.4480000212788582, 0.800000037997961, 0.5120000243186951, 0.0, 0.0, 0.0, 0.0, 0.0, 1.6480852440504632E9, 0.0, 2022-03-23 20:27:24.050
40.0, 825.981214563828, 386.85338146658614, 1527.9155574473552, 787.1666628737003, -0.4480000212788582, 0.800000037997961, 0.5120000243186951, 0.0, 0.0, 0.0, 0.0, 0.0, 1.648085244065621E9, 0.0, 2022-03-23 20:27:24.065
40.0, 839.8712029992603, 384.7478177915327, 1528.7158960378729, 802.305777894333, -0.4480000212788582, 0.800000037997961, 0.5120000243186951, 0.0, 0.0, 0.0, 0.0, 0.0, 1.648085244065621E9, 0.0, 2022-03-23 20:27:24.065
41.0, 816.3135731783696, 380.9742587362416, 1524.8264000839554, 776.0180211057886, -0.4480000212788582, 0.7840000372380018, 0.5120000243186951, 0.0, 0.0, 0.0, 0.0, 0.0, 1.6480852440665748E9, 0.0, 2022-03-23 20:27:24.066
41.0, 824.485254581552, 389.0187835409306, 1531.0645532100461, 782.0841388339177, -0.4480000212788582, 0.7840000372380018, 0.5120000243186951, 0.0, 0.0, 0.0, 0.0, 0.0, 1.6480852440665748E9, 0.0, 2022-03-23 20:27:24.066
42.0, 847.5828767078929, 396.25922985514626, 1539.7336413073353, 803.1547351842746, -0.4480000212788582, 0.7840000372380018, 0.5120000243186951, 0.0, 0.0, 0.0, 0.0, 0.0, 1.648085244080742E9, 0.0, 2022-03-23 20:27:24.080
42.0, 847.3846620102413, 404.9544972521253, 1545.8483777348883, 803.5249852798879, -0.4480000212788582, 0.7840000372380018, 0.5120000243186951, 0.0, 0.0, 0.0, 0.0, 0.0, 1.648085244080742E9, 0.0, 2022-03-23 20:27:24.080
43.0, 843.5550044556148, 418.46301589207724, 1563.025738231372, 811.6143888840452, -0.4480000212788582, 0.7840000372380018, 0.5120000243186951, 0.0, 0.0, 0.0, 0.0, 0.0, 1.6480852440814106E9, 0.0, 2022-03-23 20:27:24.081
43.0, 851.0011452673934, 426.91144989198074, 1566.765638187062, 807.7772515295073, -0.4480000212788582, 0.7840000372380018, 0.5120000243186951, 0.0, 0.0, 0.0, 0.0, 0.0, 1.6480852440814106E9, 0.0, 2022-03-23 20:27:24.081
44.0, 859.0606296719052, 435.79745218669996, 1582.7200513980351, 813.8583288574591, -0.4480000212788582, 0.7840000372380018, 0.5120000243186951, 0.0, 0.0, 0.0, 0.0, 0.0, 1.6480852440949724E9, 0.0, 2022-03-23 20:27:24.094
44.0, 853.4844388379715, 457.92644022451714, 1607.3772118058987, 815.6123419366777, -0.4480000212788582, 0.7840000372380018, 0.5120000243186951, 0.0, 0.0, 0.0, 0.0, 0.0, 1.6480852440949724E9, 0.0, 2022-03-23 20:27:24.094
45.0, 854.5241310256533, 475.0589219215326, 1615.6984892073087, 811.266578188166, -0.4480000212788582, 0.7840000372380018, 0.5120000243186951, 0.0, 0.0, 0.0, 0.0, 0.0, 1.6480852441107452E9, 0.0, 2022-03-23 20:27:24.110
45.0, 891.7136961850338, 498.30614004610106, 1646.425507243257, 839.3607066553086, -0.4480000212788582, 0.7840000372380018, 0.5120000243186951, 0.0, 0.0, 0.0, 0.0, 0.0, 1.6480852441107452E9, 0.0, 2022-03-23 20:27:24.110
46.0, 879.3458470315672, 505.856998056639, 1658.0079774060287, 819.1241079950705, -0.4480000212788582, 0.7840000372380018, 0.5120000243186951, 0.0, 0.0, 0.0, 0.0, 0.0, 1.6480852441114726E9, 0.0, 2022-03-23 20:27:24.111
46.0, 876.8139347615652, 522.8249241556041, 1674.370039712172, 821.9439925616607, -0.4480000212788582, 0.7840000372380018, 0.5120000243186951, 0.0, 0.0, 0.0, 0.0, 0.0, 1.6480852441114726E9, 0.0, 2022-03-23 20:27:24.111
47.0, 903.5916184443049, 541.85727503011, 1679.9237911463715, 843.1006066109985, -0.4480000212788582, 0.7840000372380018, 0.5120000243186951, 0.0, 0.0, 0.0, 0.0, 0.0, 1.648085244124984E9, 0.0, 2022-03-23 20:27:24.124
47.0, 897.9181902115233, 543.6000684094615, 1668.6554725798778, 832.1053007412702, -0.4480000212788582, 0.7840000372380018, 0.5120000243186951, 0.0, 0.0, 0.0, 0.0, 0.0, 1.648085244124984E9, 0.0, 2022-03-23 20:27:24.124
48.0, 885.8270936547779, 554.7374904775061, 1682.6052994146012, 828.5299563836306, -0.4480000212788582, 0.7840000372380018, 0.5120000243186951, 0.0, 0.0, 0.0, 0.0, 0.0, 1.6480852441408389E9, 0.0, 2022-03-23 20:27:24.140
48.0, 902.2863933597691, 549.7110649370588, 1676.1128330915235, 848.4486635476351, -0.4480000212788582, 0.7840000372380018, 0.5120000243186951, 0.0, 0.0, 0.0, 0.0, 0.0, 1.6480852441408389E9, 0.0, 2022-03-23 20:27:24.140
49.0, 894.0174745577388, 535.1291950098239, 1667.3465075953864, 839.8768128491938, -0.4480000212788582, 0.7840000372380018, 0.5120000243186951, 0.0, 0.0, 0.0, 0.0, 0.0, 1.6480852441414964E9, 0.0, 2022-03-23 20:27:24.141
49.0, 882.7641155910678, 530.4468402653001, 1663.0157034466974, 827.0227767014876, -0.4480000212788582, 0.7840000372380018, 0.5120000243186951, 0.0, 0.0, 0.0, 0.0, 0.0, 1.6480852441414964E9, 0.0, 2022-03-23 20:27:24.141
50.0, 884.9781363648362, 518.9915267010219, 1648.3590355203487, 827.1125343004242, -0.4480000212788582, 0.7840000372380018, 0.5120000243186951, 0.0, 0.0, 0.0, 0.0, 0.0, 1.6480852441550565E9, 0.0, 2022-03-23 20:27:24.155
50.0, 891.964269482065, 504.3423385745846, 1628.3393510575406, 822.3591214567423, -0.4480000212788582, 0.7840000372380018, 0.5120000243186951, 0.0, 0.0, 0.0, 0.0, 0.0, 1.6480852441550565E9, 0.0, 2022-03-23 20:27:24.155
51.0, 867.987770866137, 484.37127281120047, 1613.0880390382372, 820.6312876772135, -0.4480000212788582, 0.7840000372380018, 0.5120000243186951, 0.0, 0.0, 0.0, 0.0, 0.0, 1.6480852441707027E9, 0.0, 2022-03-23 20:27:24.170
51.0, 855.7021995116957, 472.2764363544993, 1593.924791665282, 815.0027382439002, -0.4480000212788582, 0.7840000372380018, 0.5120000243186951, 0.0, 0.0, 0.0, 0.0, 0.0, 1.6480852441707027E9, 0.0, 2022-03-23 20:27:24.170
52.0, 865.418459596578, 459.51589770568535, 1585.8054688614793, 808.0203450266272, -0.4480000212788582, 0.7840000372380018, 0.5120000243186951, 0.0, 0.0, 0.0, 0.0, 0.0, 1.6480852441714883E9, 0.0, 2022-03-23 20:27:24.171
52.0, 858.7165588759817, 449.5191451241262, 1584.7395973741077, 803.2444927832112, -0.4480000212788582, 0.7840000372380018, 0.5120000243186951, 0.0, 0.0, 0.0, 0.0, 0.0, 1.6480852441714883E9, 0.0, 2022-03-23 20:27:24.171
53.0, 846.748879017774, 450.70095351012424, 1590.3008286082186, 810.5372976968065, -0.4480000212788582, 0.7840000372380018, 0.5120000243186951, 0.0, 0.0, 0.0, 0.0, 0.0, 1.6480852441849513E9, 0.0, 2022-03-23 20:27:24.184
53.0, 856.2781441048719, 445.7418461688794, 1585.1547262691893, 812.773757870309, -0.4480000212788582, 0.7840000372380018, 0.5120000243186951, 0.0, 0.0, 0.0, 0.0, 0.0, 1.6480852441849513E9, 0.0, 2022-03-23 20:27:24.184
54.0, 862.1834461349063, 436.47437407867983, 1574.7428447925486, 815.3767282394692, -0.4480000212788582, 0.7840000372380018, 0.5120000243186951, 0.0, 0.0, 0.0, 0.0, 0.0, 1.6480852442007043E9, 0.0, 2022-03-23 20:27:24.200
54.0, 848.5963895958848, 427.6706495829858, 1574.6306477938779, 806.9208144396544, -0.4480000212788582, 0.7840000372380018, 0.5120000243186951, 0.0, 0.0, 0.0, 0.0, 0.0, 1.6480852442007043E9, 0.0, 2022-03-23 20:27:24.200
55.0, 843.7569590532221, 420.9238700629212, 1564.7610518108122, 803.1173361847177, -0.4480000212788582, 0.7840000372380018, 0.5120000243186951, 0.0, 0.0, 0.0, 0.0, 0.0, 1.6480852442014372E9, 0.0, 2022-03-23 20:27:24.201
55.0, 846.8610760164447, 400.7358901021071, 1550.0183661854826, 806.9656932391226, -0.4480000212788582, 0.7840000372380018, 0.5120000243186951, 0.0, 0.0, 0.0, 0.0, 0.0, 1.6480852442014372E9, 0.0, 2022-03-23 20:27:24.201
56.0, 840.4022687929682, 401.22207709634677, 1547.3069387176074, 811.0197447910905, -0.4480000212788582, 0.7840000372380018, 0.5120000243186951, 0.0, 0.0, 0.0, 0.0, 0.0, 1.648085244215001E9, 0.0, 2022-03-23 20:27:24.215
56.0, 828.1166974385269, 392.14533990388736, 1536.7005824432708, 791.0449391277507, -0.4480000212788582, 0.7840000372380018, 0.5120000243186951, 0.0, 0.0, 0.0, 0.0, 0.0, 1.648085244215001E9, 0.0, 2022-03-23 20:27:24.215
57.0, 840.2190136951394, 389.2693568379618, 1535.4290164583363, 798.7827921360731, -0.4480000212788582, 0.7840000372380018, 0.5120000243186951, 0.0, 0.0, 0.0, 0.0, 0.0, 1.6480852442308273E9, 0.0, 2022-03-23 20:27:24.230
57.0, 827.4061164469458, 381.5651629292406, 1523.8241068958305, 785.2480941964313, -0.4480000212788582, 0.7840000372380018, 0.5120000243186951, 0.0, 0.0, 0.0, 0.0, 0.0, 1.6480852442308273E9, 0.0, 2022-03-23 20:27:24.230
58.0, 817.0166743700393, 380.3496954436414, 1516.7295166798867, 783.5539195165038, -0.4480000212788582, 0.7840000372380018, 0.5120000243186951, 0.0, 0.0, 0.0, 0.0, 0.0, 1.6480852442315302E9, 0.0, 2022-03-23 20:27:24.231
58.0, 825.509987169411, 377.50737147731707, 1508.9767040717416, 794.0218994924799, -0.4480000212788582, 0.7840000372380018, 0.5120000243186951, 0.0, 0.0, 0.0, 0.0, 0.0, 1.6480852442315302E9, 0.0, 2022-03-23 20:27:24.231
59.0, 839.826324199792, 370.1547281644307, 1505.5247764126398, 796.6809683609754, -0.4480000212788582, 0.7840000372380018, 0.5120000243186951, 0.0, 0.0, 0.0, 0.0, 0.0, 1.6480852442449696E9, 0.0, 2022-03-23 20:27:24.244
59.0, 822.3497717068531, 375.50652500102296, 1513.5506017175503, 785.0461395988241, -0.4480000212788582, 0.7840000372380018, 0.5120000243186951, 0.0, 0.0, 0.0, 0.0, 0.0, 1.6480852442449696E9, 0.0, 2022-03-23 20:27:24.244
60.0, 825.6932422672398, 381.7932968265377, 1514.8408672022633, 778.112365080975, -0.4480000212788582, 0.7840000372380018, 0.5120000243186951, 0.0, 0.0, 0.0, 0.0, 0.0, 1.648085244260726E9, 0.0, 2022-03-23 20:27:24.260
60.0, 833.3787366761826, 371.81150384480134, 1503.73710423382, 771.5675401585177, -0.4480000212788582, 0.7840000372380018, 0.5120000243186951, 0.0, 0.0, 0.0, 0.0, 0.0, 1.648085244260726E9, 0.0, 2022-03-23 20:27:24.260
61.0, 815.0195677937008, 365.4087951206602, 1492.7642377638258, 770.0416609765962, -0.4480000212788582, 0.7840000372380018, 0.5120000243186951, 0.0, 0.0, 0.0, 0.0, 0.0, 1.6480852442614753E9, 0.0, 2022-03-23 20:27:24.261
61.0, 812.3530191252939, 375.29709060350433, 1510.0463154590689, 785.9287559883669, -0.4480000212788582, 0.7840000372380018, 0.5120000243186951, 0.0, 0.0, 0.0, 0.0, 0.0, 1.6480852442614753E9, 0.0, 2022-03-23 20:27:24.261
62.0, 832.421322287526, 376.84166928520426, 1512.7540030269884, 789.6574362441897, -0.4480000212788582, 0.7840000372380018, 0.5120000243186951, 0.0, 0.0, 0.0, 0.0, 0.0, 1.6480852442750287E9, 0.0, 2022-03-23 20:27:24.275
62.0, 825.2743734722026, 366.8561364035122, 1506.571948400233, 786.3476247834042, -0.4480000212788582, 0.7840000372380018, 0.5120000243186951, 0.0, 0.0, 0.0, 0.0, 0.0, 1.6480852442750287E9, 0.0, 2022-03-23 20:27:24.275
63.0, 814.1519110039808, 367.54427799535915, 1510.2482700566761, 782.6750430269167, -0.4480000212788582, 0.7840000372380018, 0.5120000243186951, 0.0, 0.0, 0.0, 0.0, 0.0, 1.6480852442907891E9, 0.0, 2022-03-23 20:27:24.290
63.0, 820.8126728250645, 366.61304290639237, 1500.7040453697555, 783.9578287117183, -0.4480000212788582, 0.7840000372380018, 0.5120000243186951, 0.0, 0.0, 0.0, 0.0, 0.0, 1.6480852442907891E9, 0.0, 2022-03-23 20:27:24.290
64.0, 824.5525727807544, 363.1461556474678, 1497.4989511077292, 782.8582981247455, -0.4480000212788582, 0.7840000372380018, 0.5120000243186951, 0.0, 0.0, 0.0, 0.0, 0.0, 1.6480852442913756E9, 0.0, 2022-03-23 20:27:24.291
64.0, 813.0561203169636, 355.0829313430004, 1487.1917868298478, 772.7381288446486, -0.4480000212788582, 0.7840000372380018, 0.5120000243186951, 0.0, 0.0, 0.0, 0.0, 0.0, 1.6480852442913756E9, 0.0, 2022-03-23 20:27:24.291
65.0, 808.8487328668125, 352.8539509694092, 1494.2190588465892, 775.2102027153596, -0.4480000212788582, 0.7840000372380018, 0.5120000243186951, 0.0, 0.0, 0.0, 0.0, 0.0, 1.6480852443050852E9, 0.0, 2022-03-23 20:27:24.305
65.0, 824.7694869781844, 352.3640240752138, 1498.4526255964302, 783.8306721132249, -0.4480000212788582, 0.7840000372380018, 0.5120000243186951, 0.0, 0.0, 0.0, 0.0, 0.0, 1.6480852443050852E9, 0.0, 2022-03-23 20:27:24.305
66.0, 816.9456162708811, 359.39129609195516, 1503.6361269350164, 766.8926652139053, -0.4480000212788582, 0.7840000372380018, 0.5120000243186951, 0.0, 0.0, 0.0, 0.0, 0.0, 1.6480852443206556E9, 0.0, 2022-03-23 20:27:24.320
66.0, 815.6516108862124, 359.09958389541134, 1505.304122315254, 779.0959587693214, -0.4480000212788582, 0.7840000372380018, 0.5120000243186951, 0.0, 0.0, 0.0, 0.0, 0.0, 1.6480852443206556E9, 0.0, 2022-03-23 20:27:24.320
67.0, 818.538813652005, 349.5590991084464, 1494.7950034397654, 779.5148275643587, -0.4480000212788582, 0.7840000372380018, 0.5120000243186951, 0.0, 0.0, 0.0, 0.0, 0.0, 1.6480852443214378E9, 0.0, 2022-03-23 20:27:24.321
67.0, 813.5011684116907, 343.1900494839065, 1491.3804747802205, 773.7030230332166, -0.4480000212788582, 0.7840000372380018, 0.5120000243186951, 0.0, 0.0, 0.0, 0.0, 0.0, 1.6480852443214378E9, 0.0, 2022-03-23 20:27:24.321
68.0, 806.8441464905627, 357.0351591198705, 1500.7638837690465, 769.5928729819134, -0.4480000212788582, 0.7840000372380018, 0.5120000243186951, 0.0, 0.0, 0.0, 0.0, 0.0, 1.648085244335066E9, 0.0, 2022-03-23 20:27:24.335
68.0, 825.390310370829, 373.69267352251336, 1513.2214905214496, 788.5766051569954, -0.4480000212788582, 0.7840000372380018, 0.5120000243186951, 0.0, 0.0, 0.0, 0.0, 0.0, 1.648085244335066E9, 0.0, 2022-03-23 20:27:24.335
69.0, 830.4803142105229, 370.39782166155055, 1514.8371273023076, 792.9036694057286, -0.4480000212788582, 0.7840000372380018, 0.5120000243186951, 0.0, 0.0, 0.0, 0.0, 0.0, 1.6480852443507075E9, 0.0, 2022-03-23 20:27:24.350
69.0, 828.2999525363557, 373.25884512765333, 1519.6989972447045, 796.2546197660267, -0.4480000212788582, 0.7840000372380018, 0.5120000243186951, 0.0, 0.0, 0.0, 0.0, 0.0, 1.6480852443507075E9, 0.0, 2022-03-23 20:27:24.350
70.0, 830.5887713092379, 375.25221180403605, 1513.4122254191898, 800.7387598128989, -0.4480000212788582, 0.7840000372380018, 0.5120000243186951, 0.0, 0.0, 0.0, 0.0, 0.0, 1.648085244351446E9, 0.0, 2022-03-23 20:27:24.351
70.0, 835.3234846531413, 365.5359517191537, 1506.2727564037777, 799.9571207221597, -0.4480000212788582, 0.7840000372380018, 0.5120000243186951, 0.0, 0.0, 0.0, 0.0, 0.0, 1.648085244351446E9, 0.0, 2022-03-23 20:27:24.351
71.0, 813.5647467109375, 366.01839881343767, 1502.517896848265, 774.783854120411, -0.4480000212788582, 0.7840000372380018, 0.5120000243186951, 0.0, 0.0, 0.0, 0.0, 0.0, 1.6480852443650649E9, 0.0, 2022-03-23 20:27:24.365
71.0, 816.2537347790785, 374.54911061236635, 1520.7686086320318, 787.133003774099, -0.4480000212788582, 0.7840000372380018, 0.5120000243186951, 0.0, 0.0, 0.0, 0.0, 0.0, 1.6480852443650649E9, 0.0, 2022-03-23 20:27:24.365
72.0, 834.1229767673649, 375.1961133047007, 1522.7133566089906, 793.1804220024496, -0.4480000212788582, 0.7840000372380018, 0.5120000243186951, 0.0, 0.0, 0.0, 0.0, 0.0, 1.648085244380688E9, 0.0, 2022-03-23 20:27:24.380
72.0, 833.4198755756952, 372.8698955322616, 1528.375565141905, 797.0624381564558, -0.4480000212788582, 0.7840000372380018, 0.5120000243186951, 0.0, 0.0, 0.0, 0.0, 0.0, 1.648085244380688E9, 0.0, 2022-03-23 20:27:24.380
73.0, 818.1162049570121, 362.6038701538928, 1525.1218521804549, 794.4706874871626, -0.4480000212788582, 0.7840000372380018, 0.5120000243186951, 0.0, 0.0, 0.0, 0.0, 0.0, 1.6480852443814318E9, 0.0, 2022-03-23 20:27:24.381
73.0, 820.8276324248873, 359.49975319067016, 1514.7436298034154, 798.8014916358516, -0.4480000212788582, 0.7840000372380018, 0.5120000243186951, 0.0, 0.0, 0.0, 0.0, 0.0, 1.6480852443814318E9, 0.0, 2022-03-23 20:27:24.381
74.0, 821.3886174182408, 354.49576704995707, 1502.0653689536266, 786.916089576669, -0.4480000212788582, 0.7840000372380018, 0.5120000243186951, 0.0, 0.0, 0.0, 0.0, 0.0, 1.6480852443950677E9, 0.0, 2022-03-23 20:27:24.395
74.0, 812.73822882073, 357.2670329171233, 1516.172271586489, 783.4978210171685, -0.4480000212788582, 0.7840000372380018, 0.5120000243186951, 0.0, 0.0, 0.0, 0.0, 0.0, 1.6480852443950677E9, 0.0, 2022-03-23 20:27:24.395
75.0, 808.2802680735476, 352.73053427087143, 1512.6193666285835, 774.3275863258168, -0.4480000212788582, 0.7840000372380018, 0.5120000243186951, 0.0, 0.0, 0.0, 0.0, 0.0, 1.6480852444107337E9, 0.0, 2022-03-23 20:27:24.410
75.0, 826.0597524628974, 342.737521589268, 1512.6829449278302, 796.84178405907, -0.4480000212788582, 0.7840000372380018, 0.5120000243186951, 0.0, 0.0, 0.0, 0.0, 0.0, 1.6480852444107337E9, 0.0, 2022-03-23 20:27:24.410
76.0, 811.4928421354853, 345.6621233546175, 1519.3362269490026, 784.8591446010396, -0.4480000212788582, 0.7840000372380018, 0.5120000243186951, 0.0, 0.0, 0.0, 0.0, 0.0, 1.6480852444115272E9, 0.0, 2022-03-23 20:27:24.411
76.0, 797.9656239957549, 336.622785161715, 1505.7903093094938, 767.0123420124874, -0.4480000212788582, 0.7840000372380018, 0.5120000243186951, 0.0, 0.0, 0.0, 0.0, 0.0, 1.6480852444115272E9, 0.0, 2022-03-23 20:27:24.411
77.0, 809.2376824622042, 327.5423080692999, 1501.0144570660777, 771.1935501629487, -0.4480000212788582, 0.7840000372380018, 0.5120000243186951, 0.0, 0.0, 0.0, 0.0, 0.0, 1.648085244424978E9, 0.0, 2022-03-23 20:27:24.424
77.0, 818.9876016466878, 339.6521041258238, 1506.7065847986378, 785.9923342876136, -0.4480000212788582, 0.7840000372380018, 0.5120000243186951, 0.0, 0.0, 0.0, 0.0, 0.0, 1.648085244424978E9, 0.0, 2022-03-23 20:27:24.424
78.0, 800.665831763763, 340.0971522205509, 1509.152479369659, 782.7648006258532, -0.4480000212788582, 0.7840000372380018, 0.5120000243186951, 0.0, 0.0, 0.0, 0.0, 0.0, 1.648085244440708E9, 0.0, 2022-03-23 20:27:24.440
78.0, 821.8673246125691, 337.7821541479789, 1512.7427833271213, 796.2247005663812, -0.4480000212788582, 0.7840000372380018, 0.5120000243186951, 0.0, 0.0, 0.0, 0.0, 0.0, 1.648085244440708E9, 0.0, 2022-03-23 20:27:24.440
79.0, 821.167963320855, 329.63291214453056, 1506.2652766038664, 786.1194908861071, -0.4480000212788582, 0.7840000372380018, 0.5120000243186951, 0.0, 0.0, 0.0, 0.0, 0.0, 1.648085244441399E9, 0.0, 2022-03-23 20:27:24.441
79.0, 800.4302180665545, 324.37835270678625, 1493.4224601560272, 772.3491792492568, -0.4480000212788582, 0.7840000372380018, 0.5120000243186951, 0.0, 0.0, 0.0, 0.0, 0.0, 1.648085244441399E9, 0.0, 2022-03-23 20:27:24.441
80.0, 803.343600132037, 326.8878255770542, 1503.2845763391815, 777.7271553855389, -0.4480000212788582, 0.7840000372380018, 0.5120000243186951, 0.0, 0.0, 0.0, 0.0, 0.0, 1.6480852444550571E9, 0.0, 2022-03-23 20:27:24.455
80.0, 817.828232660424, 323.6191530157812, 1492.5248841666616, 776.7921803966165, -0.4480000212788582, 0.7840000372380018, 0.5120000243186951, 0.0, 0.0, 0.0, 0.0, 0.0, 1.6480852444550571E9, 0.0, 2022-03-23 20:27:24.455
81.0, 798.6986443870701, 320.55243505211547, 1480.8414367050864, 769.4470168836415, -0.4480000212788582, 0.7840000372380018, 0.5120000243186951, 0.0, 0.0, 0.0, 0.0, 0.0, 1.648085244470668E9, 0.0, 2022-03-23 20:27:24.470
81.0, 794.8540272326209, 328.361346159596, 1492.0910557718016, 754.6856317585334, -0.4480000212788582, 0.7840000372380018, 0.5120000243186951, 0.0, 0.0, 0.0, 0.0, 0.0, 1.648085244470668E9, 0.0, 2022-03-23 20:27:24.470
82.0, 802.2889483445324, 326.6522118798457, 1488.0856229192577, 771.5899795582518, -0.4480000212788582, 0.7840000372380018, 0.5120000243186951, 0.0, 0.0, 0.0, 0.0, 0.0, 1.6480852444714012E9, 0.0, 2022-03-23 20:27:24.471
82.0, 804.8395601143129, 326.6896108794026, 1491.4216136797331, 776.5154277998954, -0.4480000212788582, 0.7840000372380018, 0.5120000243186951, 0.0, 0.0, 0.0, 0.0, 0.0, 1.6480852444714012E9, 0.0, 2022-03-23 20:27:24.471
83.0, 799.2035308810882, 331.85441271821037, 1493.1569272591732, 773.3103335378692, -0.4480000212788582, 0.7840000372380018, 0.5120000243186951, 0.0, 0.0, 0.0, 0.0, 0.0, 1.6480852444850032E9, 0.0, 2022-03-23 20:27:24.485
83.0, 814.4735424001701, 339.9849552218802, 1505.4462385135703, 784.6833693031222, -0.4480000212788582, 0.7840000372380018, 0.5120000243186951, 0.0, 0.0, 0.0, 0.0, 0.0, 1.6480852444850032E9, 0.0, 2022-03-23 20:27:24.485
84.0, 821.9496024115942, 341.90726379910484, 1508.7074312749319, 786.3476247834042, -0.4480000212788582, 0.7840000372380018, 0.5120000243186951, 0.0, 0.0, 0.0, 0.0, 0.0, 1.64808524450065E9, 0.0, 2022-03-23 20:27:24.500
84.0, 802.5357817416079, 338.0252476450987, 1500.9920176663436, 775.5954124107957, -0.4480000212788582, 0.7840000372380018, 0.5120000243186951, 0.0, 0.0, 0.0, 0.0, 0.0, 1.64808524450065E9, 0.0, 2022-03-23 20:27:24.500
85.0, 809.4882557592355, 342.4869482922368, 1503.942798731383, 780.1655701566488, -0.4480000212788582, 0.7840000372380018, 0.5120000243186951, 0.0, 0.0, 0.0, 0.0, 0.0, 1.648085244501387E9, 0.0, 2022-03-23 20:27:24.501
85.0, 818.9202834474854, 340.3327659177594, 1496.9529257141985, 781.1790830446407, -0.4480000212788582, 0.7840000372380018, 0.5120000243186951, 0.0, 0.0, 0.0, 0.0, 0.0, 1.648085244501387E9, 0.0, 2022-03-23 20:27:24.501
86.0, 813.0897794165649, 341.26774090668187, 1498.1347341001965, 779.6494639627635, -0.4480000212788582, 0.7840000372380018, 0.5120000243186951, 0.0, 0.0, 0.0, 0.0, 0.0, 1.648085244515062E9, 0.0, 2022-03-23 20:27:24.515
86.0, 806.8142272909172, 349.61519760778174, 1505.352741014678, 780.1169514572248, -0.4480000212788582, 0.7840000372380018, 0.5120000243186951, 0.0, 0.0, 0.0, 0.0, 0.0, 1.648085244515062E9, 0.0, 2022-03-23 20:27:24.515
87.0, 823.7297947905026, 353.845024457667, 1511.1608056458645, 771.9452700540423, -0.4480000212788582, 0.7840000372380018, 0.5120000243186951, 0.0, 0.0, 0.0, 0.0, 0.0, 1.6480852445306833E9, 0.0, 2022-03-23 20:27:24.530
87.0, 821.1343042212538, 350.8979832925834, 1516.9052919778042, 779.6831230623648, -0.4480000212788582, 0.7840000372380018, 0.5120000243186951, 0.0, 0.0, 0.0, 0.0, 0.0, 1.6480852445306833E9, 0.0, 2022-03-23 20:27:24.530
88.0, 814.6343580982648, 350.4155361982994, 1526.6776505620219, 783.744654414244, -0.4480000212788582, 0.7840000372380018, 0.5120000243186951, 0.0, 0.0, 0.0, 0.0, 0.0, 1.6480852445313656E9, 0.0, 2022-03-23 20:27:24.531
88.0, 821.5344735165127, 351.50010718544945, 1517.6532719689421, 786.1830691853538, -0.4480000212788582, 0.7840000372380018, 0.5120000243186951, 0.0, 0.0, 0.0, 0.0, 0.0, 1.6480852445313656E9, 0.0, 2022-03-23 20:27:24.531
89.0, 834.3772899643518, 353.23542076488957, 1518.318974161055, 795.8095716712996, -0.4480000212788582, 0.7840000372380018, 0.5120000243186951, 0.0, 0.0, 0.0, 0.0, 0.0, 1.6480852445450144E9, 0.0, 2022-03-23 20:27:24.545
89.0, 813.0748198167421, 353.62063046032563, 1516.5350418821909, 785.2667936962098, -0.4480000212788582, 0.7840000372380018, 0.5120000243186951, 0.0, 0.0, 0.0, 0.0, 0.0, 1.6480852445450144E9, 0.0, 2022-03-23 20:27:24.545
90.0, 808.6991368685849, 346.0809921496548, 1514.6688318043016, 777.0502334935591, -0.4480000212788582, 0.7840000372380018, 0.5120000243186951, 0.0, 0.0, 0.0, 0.0, 0.0, 1.648085244560702E9, 0.0, 2022-03-23 20:27:24.560
90.0, 819.4251699415036, 339.6296647260897, 1501.54178295983, 780.4610222531483, -0.4480000212788582, 0.7840000372380018, 0.5120000243186951, 0.0, 0.0, 0.0, 0.0, 0.0, 1.648085244560702E9, 0.0, 2022-03-23 20:27:24.560
91.0, 812.4689560239203, 345.6247243550606, 1503.785722933244, 780.3937040539458, -0.4480000212788582, 0.7840000372380018, 0.5120000243186951, 0.0, 0.0, 0.0, 0.0, 0.0, 1.6480852445615687E9, 0.0, 2022-03-23 20:27:24.561
91.0, 800.6284327642061, 345.53122685616836, 1504.8553343205713, 767.4611300071701, -0.4480000212788582, 0.7840000372380018, 0.5120000243186951, 0.0, 0.0, 0.0, 0.0, 0.0, 1.6480852445615687E9, 0.0, 2022-03-23 20:27:24.561
92.0, 804.9180980133824, 329.7974677425809, 1488.227739117574, 764.6449853405356, -0.4640000220388174, 0.7840000372380018, 0.5120000243186951, 0.0, 0.0, 0.0, 0.0, 0.0, 1.6480852445750453E9, 0.0, 2022-03-23 20:27:24.575
92.0, 811.1113723400049, 337.1501110554673, 1494.2190588465892, 768.2315493980423, -0.4640000220388174, 0.7840000372380018, 0.5120000243186951, 0.0, 0.0, 0.0, 0.0, 0.0, 1.6480852445750453E9, 0.0, 2022-03-23 20:27:24.575
93.0, 805.1237925109453, 342.72630188940093, 1496.8444686154835, 769.3236001851037, -0.4640000220388174, 0.7840000372380018, 0.5120000243186951, 0.0, 0.0, 0.0, 0.0, 0.0, 1.6480852445907068E9, 0.0, 2022-03-23 20:27:24.590
93.0, 820.40876362985, 347.778906729538, 1509.5638683647849, 783.2659472199157, -0.4640000220388174, 0.7840000372380018, 0.5120000243186951, 0.0, 0.0, 0.0, 0.0, 0.0, 1.6480852445907068E9, 0.0, 2022-03-23 20:27:24.590
94.0, 818.1274246568792, 344.9253630633466, 1519.7214366444387, 785.9212761884555, -0.4640000220388174, 0.7840000372380018, 0.5120000243186951, 0.0, 0.0, 0.0, 0.0, 0.0, 1.6480852445914218E9, 0.0, 2022-03-23 20:27:24.591
94.0, 813.1870168154128, 348.0033007268794, 1521.105199628044, 773.6170053342357, -0.4640000220388174, 0.7840000372380018, 0.5120000243186951, 0.0, 0.0, 0.0, 0.0, 0.0, 1.6480852445914218E9, 0.0, 2022-03-23 20:27:24.591
95.0, 813.2917340141721, 346.57465894380584, 1514.6089934050106, 784.5599526045844, -0.4640000220388174, 0.7840000372380018, 0.5120000243186951, 0.0, 0.0, 0.0, 0.0, 0.0, 1.648085244621508E9, 0.0, 2022-03-23 20:27:24.621
95.0, 830.009086816106, 341.76140770083293, 1507.2152111926116, 793.7601064955816, -0.4640000220388174, 0.7840000372380018, 0.5120000243186951, 0.0, 0.0, 0.0, 0.0, 0.0, 1.648085244621508E9, 0.0, 2022-03-23 20:27:24.621
96.0, 804.271095321048, 332.9950822046958, 1496.4255998204462, 771.6198987578973, -0.4640000220388174, 0.7840000372380018, 0.5120000243186951, 0.0, 0.0, 0.0, 0.0, 0.0, 1.6480852446220996E9, 0.0, 2022-03-23 20:27:24.622
96.0, 799.5176824773662, 335.45219647558406, 1497.3119561099447, 769.0580672882497, -0.4640000220388174, 0.7840000372380018, 0.5120000243186951, 0.0, 0.0, 0.0, 0.0, 0.0, 1.6480852446220996E9, 0.0, 2022-03-23 20:27:24.622
97.0, 822.4133500060998, 337.83077284740284, 1503.2135182400234, 784.2944197077304, -0.4640000220388174, 0.7840000372380018, 0.5120000243186951, 0.0, 0.0, 0.0, 0.0, 0.0, 1.648085244622862E9, 0.0, 2022-03-23 20:27:24.622
97.0, 808.3625458725728, 333.08483980363235, 1489.2300323056988, 767.8351200027391, -0.4640000220388174, 0.7840000372380018, 0.5120000243186951, 0.0, 0.0, 0.0, 0.0, 0.0, 1.648085244622862E9, 0.0, 2022-03-23 20:27:24.622
98.0, 806.1036462993361, 342.38597099343315, 1493.3962808563374, 775.1541042160243, -0.4640000220388174, 0.7840000372380018, 0.5120000243186951, 0.0, 0.0, 0.0, 0.0, 0.0, 1.6480852446349792E9, 0.0, 2022-03-23 20:27:24.634
98.0, 822.7574208020233, 349.1103111137636, 1504.5374428243376, 788.8496178537607, -0.4640000220388174, 0.7840000372380018, 0.5120000243186951, 0.0, 0.0, 0.0, 0.0, 0.0, 1.6480852446349792E9, 0.0, 2022-03-23 20:27:24.634
99.0, 816.7960202726535, 334.56210028612986, 1501.0929949651472, 780.573219251819, -0.4640000220388174, 0.7840000372380018, 0.5120000243186951, 0.0, 0.0, 0.0, 0.0, 0.0, 1.6480852446507187E9, 0.0, 2022-03-23 20:27:24.650
99.0, 798.2199371927418, 331.0727736274712, 1496.3769811210223, 768.8299333909526, -0.4640000220388174, 0.7840000372380018, 0.5120000243186951, 0.0, 0.0, 0.0, 0.0, 0.0, 1.6480852446507187E9, 0.0, 2022-03-23 20:27:24.650
100.0, 799.4316647783853, 338.30574014177546, 1501.8746340558864, 773.2130961390212, -0.4640000220388174, 0.7840000372380018, 0.5120000243186951, 0.0, 0.0, 0.0, 0.0, 0.0, 1.648085244651456E9, 0.0, 2022-03-23 20:27:24.651
100.0, 817.0054546701722, 336.97433575754985, 1492.169593670871, 767.7678018035367, -0.4640000220388174, 0.7840000372380018, 0.5120000243186951, 0.0, 0.0, 0.0, 0.0, 0.0, 1.648085244651456E9, 0.0, 2022-03-23 20:27:24.651
0.0, 806.7207297920249, 346.88694059010595, 1502.1139876530506, 783.4118033181876, -0.4640000220388174, 0.7840000372380018, 0.5120000243186951, 0.0, 0.0, 0.0, 0.0, 0.0, 1.6480852446657207E9, 0.0, 2022-03-23 20:27:24.665
1.0, 801.4362511546351, 343.99225802440196, 1501.6240607588552, 777.8505720840767, -0.4640000220388174, 0.7680000364780426, 0.5120000243186951, 0.0, 0.0, 0.0, 0.0, 0.0, 1.648085244666436E9, 0.0, 2022-03-23 20:27:24.666
1.0, 809.1666243630461, 342.8590683378279, 1492.5024447669275, 782.3646313305944, -0.4640000220388174, 0.7680000364780426, 0.5120000243186951, 0.0, 0.0, 0.0, 0.0, 0.0, 1.648085244666436E9, 0.0, 2022-03-23 20:27:24.666
2.0, 807.8838386782445, 348.62225416954607, 1492.906353962142, 770.8868783665821, -0.4640000220388174, 0.7680000364780426, 0.5120000243186951, 0.0, 0.0, 0.0, 0.0, 0.0, 1.648085244679958E9, 0.0, 2022-03-23 20:27:24.679
2.0, 803.6727113281377, 357.6989913620055, 1507.2189510925673, 774.3163666259497, -0.4640000220388174, 0.7680000364780426, 0.5120000243186951, 0.0, 0.0, 0.0, 0.0, 0.0, 1.648085244679958E9, 0.0, 2022-03-23 20:27:24.679
3.0, 802.7751353387721, 347.84809487871826, 1500.8386817681603, 771.3169668614864, -0.4640000220388174, 0.7680000364780426, 0.5120000243186951, 0.0, 0.0, 0.0, 0.0, 0.0, 1.6480852446956725E9, 0.0, 2022-03-23 20:27:24.695
3.0, 801.3876324552111, 342.4588990425691, 1498.153433599975, 772.3379595493898, -0.4640000220388174, 0.7680000364780426, 0.5120000243186951, 0.0, 0.0, 0.0, 0.0, 0.0, 1.6480852446956725E9, 0.0, 2022-03-23 20:27:24.695
4.0, 792.3782134619541, 350.2079717507586, 1498.6807594937272, 771.4403835600242, -0.4640000220388174, 0.7680000364780426, 0.5120000243186951, 0.0, 0.0, 0.0, 0.0, 0.0, 1.6480852446964355E9, 0.0, 2022-03-23 20:27:24.696
4.0, 794.4164589378051, 359.5839009396732, 1505.7080315104686, 778.8229460725561, -0.4640000220388174, 0.7680000364780426, 0.5120000243186951, 0.0, 0.0, 0.0, 0.0, 0.0, 1.6480852446964355E9, 0.0, 2022-03-23 20:27:24.696
5.0, 810.5167282470502, 356.6854784740135, 1503.0227833422832, 789.4143427470699, -0.4640000220388174, 0.7680000364780426, 0.5120000243186951, 0.0, 0.0, 0.0, 0.0, 0.0, 1.6480852447100313E9, 0.0, 2022-03-23 20:27:24.710
5.0, 800.4975362657569, 349.1757593629882, 1502.0167502542026, 783.9391292119399, -0.4640000220388174, 0.7680000364780426, 0.5120000243186951, 0.0, 0.0, 0.0, 0.0, 0.0, 1.6480852447100313E9, 0.0, 2022-03-23 20:27:24.710
6.0, 788.387740209233, 346.2062787981704, 1494.0956421480514, 767.2030769102275, -0.4640000220388174, 0.7680000364780426, 0.5120000243186951, 0.0, 0.0, 0.0, 0.0, 0.0, 1.6480852447257311E9, 0.0, 2022-03-23 20:27:24.725
6.0, 812.2333423267119, 351.9432853301987, 1507.3722869907506, 791.2917725248262, -0.4640000220388174, 0.7680000364780426, 0.5120000243186951, 0.0, 0.0, 0.0, 0.0, 0.0, 1.6480852447257311E9, 0.0, 2022-03-23 20:27:24.725
7.0, 794.6034539355896, 340.0167443715036, 1489.04677720787, 775.0194678176194, -0.4640000220388174, 0.7680000364780426, 0.5120000243186951, 0.0, 0.0, 0.0, 0.0, 0.0, 1.6480852447264416E9, 0.0, 2022-03-23 20:27:24.726
7.0, 785.5940349423327, 341.84929534979165, 1505.1620061169378, 774.9783289181069, -0.4640000220388174, 0.7680000364780426, 0.5120000243186951, 0.0, 0.0, 0.0, 0.0, 0.0, 1.6480852447264416E9, 0.0, 2022-03-23 20:27:24.726
8.0, 807.7192830801941, 342.69451273977757, 1518.5695474580862, 785.7118417909369, -0.4640000220388174, 0.7680000364780426, 0.5120000243186951, 0.0, 0.0, 0.0, 0.0, 0.0, 1.648085244740004E9, 0.0, 2022-03-23 20:27:24.740
8.0, 803.1715647340752, 341.3481487557292, 1511.0860076467507, 784.0326267108321, -0.4640000220388174, 0.7680000364780426, 0.5120000243186951, 0.0, 0.0, 0.0, 0.0, 0.0, 1.648085244740004E9, 0.0, 2022-03-23 20:27:24.740
9.0, 799.80939467391, 352.2836162261665, 1523.8839452951215, 789.0179133517668, -0.4640000220388174, 0.7680000364780426, 0.5120000243186951, 0.0, 0.0, 0.0, 0.0, 0.0, 1.6480852447557733E9, 0.0, 2022-03-23 20:27:24.755
9.0, 799.9627305720933, 358.11412025708705, 1525.8399129719473, 793.9433615934104, -0.4640000220388174, 0.7680000364780426, 0.5120000243186951, 0.0, 0.0, 0.0, 0.0, 0.0, 1.6480852447557733E9, 0.0, 2022-03-23 20:27:24.755
10.0, 811.3619456370361, 357.07068816944957, 1518.4012519600801, 797.8964358465746, -0.4640000220388174, 0.7680000364780426, 0.5120000243186951, 0.0, 0.0, 0.0, 0.0, 0.0, 1.6480852447565308E9, 0.0, 2022-03-23 20:27:24.756
10.0, 798.2124573928304, 348.82046886719763, 1505.5434759124182, 787.2564204726368, -0.4640000220388174, 0.7680000364780426, 0.5120000243186951, 0.0, 0.0, 0.0, 0.0, 0.0, 1.6480852447565308E9, 0.0, 2022-03-23 20:27:24.756
11.0, 790.0145966899581, 354.48267740011215, 1509.5788279646076, 785.2144350968301, -0.4640000220388174, 0.8160000387579203, 0.5120000243186951, 0.0, 0.0, 0.0, 0.0, 0.0, 1.64808524477004E9, 0.0, 2022-03-23 20:27:24.770
11.0, 806.0737270996906, 349.6507266573608, 1509.066461670678, 791.6021842211485, -0.4640000220388174, 0.8160000387579203, 0.5120000243186951, 0.0, 0.0, 0.0, 0.0, 0.0, 1.64808524477004E9, 0.0, 2022-03-23 20:27:24.770
12.0, 803.8335270262323, 353.6972984094173, 1516.88285257807, 791.5012069223449, -0.49600002355873585, 0.8160000387579203, 0.5120000243186951, 0.0, 0.0, 0.0, 0.0, 0.0, 1.648085244785705E9, 0.0, 2022-03-23 20:27:24.785
12.0, 783.4847313673235, 350.06959545239806, 1508.4381584781222, 772.1098256520927, -0.49600002355873585, 0.8160000387579203, 0.5120000243186951, 0.0, 0.0, 0.0, 0.0, 0.0, 1.648085244785705E9, 0.0, 2022-03-23 20:27:24.785
13.0, 801.099660158623, 351.1579063395038, 1502.9928641426377, 778.0487867817283, -0.49600002355873585, 0.8160000387579203, 0.5120000243186951, 0.0, 0.0, 0.0, 0.0, 0.0, 1.648085244786432E9, 0.0, 2022-03-23 20:27:24.786
13.0, 813.5647467109375, 350.6941587449983, 1506.0820215060376, 788.7299410551786, -0.49600002355873585, 0.8160000387579203, 0.5120000243186951, 0.0, 0.0, 0.0, 0.0, 0.0, 1.648085244786432E9, 0.0, 2022-03-23 20:27:24.786
14.0, 806.2233230979182, 353.3981064129621, 1512.600667128805, 793.5581518979743, -0.49600002355873585, 0.8160000387579203, 0.5120000243186951, 0.0, 0.0, 0.0, 0.0, 0.0, 1.6480852447999969E9, 0.0, 2022-03-23 20:27:24.799
14.0, 812.1809837273322, 351.4683180358261, 1511.733010339085, 789.6312569444999, -0.49600002355873585, 0.8160000387579203, 0.5120000243186951, 0.0, 0.0, 0.0, 0.0, 0.0, 1.6480852447999969E9, 0.0, 2022-03-23 20:27:24.799
15.0, 820.2629075315781, 344.36624801997095, 1500.0907017770223, 788.1240772623569, -0.49600002355873585, 0.8160000387579203, 0.5120000243186951, 0.0, 0.0, 0.0, 0.0, 0.0, 1.6480852448156748E9, 0.0, 2022-03-23 20:27:24.815
15.0, 806.937643989455, 346.6737662926316, 1502.4169195494615, 783.1163512216881, -0.49600002355873585, 0.8160000387579203, 0.5120000243186951, 0.0, 0.0, 0.0, 0.0, 0.0, 1.6480852448156748E9, 0.0, 2022-03-23 20:27:24.815
16.0, 801.8551199496724, 347.5077639827505, 1499.7167117814533, 785.4612684939057, -0.49600002355873585, 0.8160000387579203, 0.5120000243186951, 0.0, 0.0, 0.0, 0.0, 0.0, 1.648085244816481E9, 0.0, 2022-03-23 20:27:24.816
16.0, 824.9976208754815, 343.4499725308269, 1489.4768657027744, 788.2325343610719, -0.49600002355873585, 0.8160000387579203, 0.5120000243186951, 0.0, 0.0, 0.0, 0.0, 0.0, 1.648085244816481E9, 0.0, 2022-03-23 20:27:24.816
17.0, 807.2181364861317, 334.2797378394753, 1487.5956960250624, 779.4587290650234, -0.49600002355873585, 0.8160000387579203, 0.5120000243186951, 0.0, 0.0, 0.0, 0.0, 0.0, 1.6480852448300364E9, 0.0, 2022-03-23 20:27:24.830
17.0, 802.0720341471024, 338.7264788867906, 1500.0271234777756, 782.7386213261634, -0.49600002355873585, 0.8160000387579203, 0.5120000243186951, 0.0, 0.0, 0.0, 0.0, 0.0, 1.6480852448300364E9, 0.0, 2022-03-23 20:27:24.830
18.0, 811.7434154325165, 341.89043424930423, 1494.8585817390122, 782.888217324391, -0.49600002355873585, 0.8160000387579203, 0.5120000243186951, 0.0, 0.0, 0.0, 0.0, 0.0, 1.6480852448456967E9, 0.0, 2022-03-23 20:27:24.845
18.0, 807.5659471820109, 334.017944842577, 1482.27007848816, 777.4167436892167, -0.49600002355873585, 0.8160000387579203, 0.5120000243186951, 0.0, 0.0, 0.0, 0.0, 0.0, 1.6480852448456967E9, 0.0, 2022-03-23 20:27:24.845
19.0, 797.4345582020469, 333.5392376482487, 1487.5246379259042, 759.5699411006644, -0.49600002355873585, 0.8160000387579203, 0.5120000243186951, 0.0, 0.0, 0.0, 0.0, 0.0, 1.6480852448463933E9, 0.0, 2022-03-23 20:27:24.846
19.0, 798.8482403852977, 336.3404227150604, 1499.552156183403, 784.4552354058251, -0.49600002355873585, 0.8160000387579203, 0.5120000243186951, 0.0, 0.0, 0.0, 0.0, 0.0, 1.6480852448463933E9, 0.0, 2022-03-23 20:27:24.846
20.0, 813.6657240097411, 335.9776524193585, 1488.5942493132316, 780.7639541495591, -0.49600002355873585, 0.8160000387579203, 0.49600002355873585, 0.0, 0.0, 0.0, 0.0, 0.0, 1.6480852448600054E9, 0.0, 2022-03-23 20:27:24.860
20.0, 799.3942657788284, 329.4253476969898, 1481.305184299592, 766.5298949182034, -0.49600002355873585, 0.8160000387579203, 0.49600002355873585, 0.0, 0.0, 0.0, 0.0, 0.0, 1.6480852448600054E9, 0.0, 2022-03-23 20:27:24.860
21.0, 800.02630887134, 340.7609844626859, 1491.5525101781823, 770.2024766746908, -0.49600002355873585, 0.8640000410377979, 0.49600002355873585, 0.0, 0.0, 0.0, 0.0, 0.0, 1.6480852448756833E9, 0.0, 2022-03-23 20:27:24.875
21.0, 824.062645886559, 355.2530967909843, 1502.5515559478663, 773.867578631267, -0.49600002355873585, 0.8640000410377979, 0.49600002355873585, 0.0, 0.0, 0.0, 0.0, 0.0, 1.6480852448756833E9, 0.0, 2022-03-23 20:27:24.875
22.0, 810.2549352501519, 347.11133458744735, 1505.6220138114877, 778.1011453811079, -0.5280000250786543, 0.8640000410377979, 0.49600002355873585, 0.0, 0.0, 0.0, 0.0, 0.0, 1.64808524487642E9, 0.0, 2022-03-23 20:27:24.876
22.0, 807.6706643807702, 359.60260043945163, 1512.746523227077, 781.5530730402097, -0.5280000250786543, 0.8640000410377979, 0.49600002355873585, 0.0, 0.0, 0.0, 0.0, 0.0, 1.64808524487642E9, 0.0, 2022-03-23 20:27:24.876
23.0, 820.9921880229376, 362.15695210918784, 1504.956311619375, 780.9846082469448, -0.5280000250786543, 0.8640000410377979, 0.49600002355873585, 0.0, 0.0, 0.0, 0.0, 0.0, 1.648085244889979E9, 0.0, 2022-03-23 20:27:24.889
23.0, 813.0972592164762, 357.04076896980405, 1509.440451666247, 781.3436386426911, -0.5280000250786543, 0.8640000410377979, 0.49600002355873585, 0.0, 0.0, 0.0, 0.0, 0.0, 1.648085244889979E9, 0.0, 2022-03-23 20:27:24.889
24.0, 802.3226074441336, 348.92892596591264, 1507.510663289111, 778.4452161770314, -0.5280000250786543, 0.8640000410377979, 0.49600002355873585, 0.0, 0.0, 0.0, 0.0, 0.0, 1.648085244905762E9, 0.0, 2022-03-23 20:27:24.905
24.0, 808.3588059726171, 350.64927994553, 1513.8871927135624, 783.9241696121171, -0.5280000250786543, 0.8640000410377979, 0.49600002355873585, 0.0, 0.0, 0.0, 0.0, 0.0, 1.648085244905762E9, 0.0, 2022-03-23 20:27:24.905
25.0, 821.8785443124361, 353.7683565085754, 1509.3170349677093, 798.8949891347438, -0.5280000250786543, 0.8640000410377979, 0.49600002355873585, 0.0, 0.0, 0.0, 0.0, 0.0, 1.6480852449063857E9, 0.0, 2022-03-23 20:27:24.906
25.0, 813.4899487118237, 354.2769829025492, 1512.974657124374, 792.9859472047538, -0.5280000250786543, 0.8640000410377979, 0.49600002355873585, 0.0, 0.0, 0.0, 0.0, 0.0, 1.6480852449063857E9, 0.0, 2022-03-23 20:27:24.906
26.0, 816.6539040743373, 367.8453399417922, 1519.3250072491355, 793.5544119980186, -0.5280000250786543, 0.8640000410377979, 0.49600002355873585, 0.0, 0.0, 0.0, 0.0, 0.0, 1.6480852449200106E9, 0.0, 2022-03-23 20:27:24.920
26.0, 835.3534038527869, 371.3645858000964, 1512.4735105303116, 797.0773977562785, -0.5280000250786543, 0.8640000410377979, 0.49600002355873585, 0.0, 0.0, 0.0, 0.0, 0.0, 1.6480852449200106E9, 0.0, 2022-03-23 20:27:24.920
27.0, 832.2717262892984, 382.64786396641284, 1528.9103708355688, 797.4626074517146, -0.5280000250786543, 0.8640000410377979, 0.49600002355873585, 0.0, 0.0, 0.0, 0.0, 0.0, 1.6480852449356663E9, 0.0, 2022-03-23 20:27:24.935
27.0, 831.2282942016609, 407.95950686652213, 1563.111755930353, 804.2580056712031, -0.5280000250786543, 0.8640000410377979, 0.49600002355873585, 0.0, 0.0, 0.0, 0.0, 0.0, 1.6480852449356663E9, 0.0, 2022-03-23 20:27:24.935
28.0, 848.7572052939795, 427.66129983309656, 1585.5773349641822, 800.7911184122786, -0.5280000250786543, 0.8640000410377979, 0.49600002355873585, 0.0, 0.0, 0.0, 0.0, 0.0, 1.6480852449364145E9, 0.0, 2022-03-23 20:27:24.936
28.0, 850.3391829752363, 441.12493967358023, 1595.9069386417978, 799.2839387301356, -0.5280000250786543, 0.8640000410377979, 0.49600002355873585, 0.0, 0.0, 0.0, 0.0, 0.0, 1.6480852449364145E9, 0.0, 2022-03-23 20:27:24.936
29.0, 836.8044850355946, 456.1518576955423, 1617.9686084804125, 795.4168821759522, -0.5280000250786543, 0.8640000410377979, 0.49600002355873585, 0.0, 0.0, 0.0, 0.0, 0.0, 1.6480852449500127E9, 0.0, 2022-03-23 20:27:24.950
29.0, 852.5606835489161, 477.9255552375689, 1641.5187585013919, 802.7994446884841, -0.5280000250786543, 0.8640000410377979, 0.49600002355873585, 0.0, 0.0, 0.0, 0.0, 0.0, 1.6480852449500127E9, 0.0, 2022-03-23 20:27:24.950
30.0, 881.5411683055572, 499.32526278402656, 1652.214872374665, 808.6449083192274, -0.5280000250786543, 0.8640000410377979, 0.4800000227987766, 0.0, 0.0, 0.0, 0.0, 0.0, 1.6480852449656518E9, 0.0, 2022-03-23 20:27:24.965
30.0, 883.6392521806993, 527.4268710510805, 1669.3436141717248, 818.9932114966214, -0.5280000250786543, 0.8640000410377979, 0.4800000227987766, 0.0, 0.0, 0.0, 0.0, 0.0, 1.6480852449656518E9, 0.0, 2022-03-23 20:27:24.965
31.0, 869.8315415442921, 533.5341276787221, 1659.4964575883932, 819.5130575904623, -0.5280000250786543, 0.9120000433176756, 0.4800000227987766, 0.0, 0.0, 0.0, 0.0, 0.0, 1.6480852449664276E9, 0.0, 2022-03-23 20:27:24.966
31.0, 894.2418685550801, 536.9224770385772, 1668.700351379346, 821.0688559720293, -0.5280000250786543, 0.9120000433176756, 0.4800000227987766, 0.0, 0.0, 0.0, 0.0, 0.0, 1.6480852449664276E9, 0.0, 2022-03-23 20:27:24.966
32.0, 872.1577593167312, 528.6423385366797, 1661.3888469659723, 819.5018378905952, -0.5280000250786543, 0.9120000433176756, 0.4800000227987766, 0.0, 0.0, 0.0, 0.0, 0.0, 1.648085244979973E9, 0.0, 2022-03-23 20:27:24.979
32.0, 850.0960894781165, 526.5928733609617, 1647.233325633686, 800.2226536190137, -0.5280000250786543, 0.9120000433176756, 0.4800000227987766, 0.0, 0.0, 0.0, 0.0, 0.0, 1.648085244979973E9, 0.0, 2022-03-23 20:27:24.979
33.0, 854.0529036312364, 514.6289334027097, 1625.4222290921025, 797.6047236500308, -0.5280000250786543, 0.9120000433176756, 0.4800000227987766, 0.0, 0.0, 0.0, 0.0, 0.0, 1.6480852449957027E9, 0.0, 2022-03-23 20:27:24.995
33.0, 848.6861471948214, 495.5292643290013, 1613.4582891338505, 797.1147967558354, -0.5280000250786543, 0.9120000433176756, 0.4800000227987766, 0.0, 0.0, 0.0, 0.0, 0.0, 1.6480852449957027E9, 0.0, 2022-03-23 20:27:24.995
34.0, 841.116589684505, 500.574389369227, 1618.8474849699996, 803.6633615782484, -0.5280000250786543, 0.9120000433176756, 0.4800000227987766, 0.0, 0.0, 0.0, 0.0, 0.0, 1.648085244996456E9, 0.0, 2022-03-23 20:27:24.996
34.0, 833.7863857713528, 478.72215392813087, 1592.742983279284, 786.916089576669, -0.5280000250786543, 0.9120000433176756, 0.4800000227987766, 0.0, 0.0, 0.0, 0.0, 0.0, 1.648085244996456E9, 0.0, 2022-03-23 20:27:24.996
35.0, 856.8017300986685, 465.3295721868053, 1576.6614134698175, 804.6768744662404, -0.5280000250786543, 0.9120000433176756, 0.4800000227987766, 0.0, 0.0, 0.0, 0.0, 0.0, 1.6480852450099432E9, 0.0, 2022-03-23 20:27:25.009
35.0, 828.2999525363557, 446.832027005963, 1555.5234989202581, 786.2316878847778, -0.5280000250786543, 0.9120000433176756, 0.4800000227987766, 0.0, 0.0, 0.0, 0.0, 0.0, 1.6480852450099432E9, 0.0, 2022-03-23 20:27:25.009
36.0, 810.4381903479807, 433.48806396406144, 1557.9768732911907, 767.9061781018972, -0.5280000250786543, 0.9120000433176756, 0.4800000227987766, 0.0, 0.0, 0.0, 0.0, 0.0, 1.6480852450256827E9, 0.0, 2022-03-23 20:27:25.025
36.0, 832.372703588102, 430.0510959047824, 1557.6141029954888, 765.9464705251157, -0.5280000250786543, 0.9120000433176756, 0.4800000227987766, 0.0, 0.0, 0.0, 0.0, 0.0, 1.6480852450256827E9, 0.0, 2022-03-23 20:27:25.025
37.0, 818.4340964532457, 417.7468250505626, 1546.3270849292167, 760.1645851936191, -0.5280000250786543, 0.9120000433176756, 0.4800000227987766, 0.0, 0.0, 0.0, 0.0, 0.0, 1.6480852450264258E9, 0.0, 2022-03-23 20:27:25.026
37.0, 796.0358356186189, 408.9767596544698, 1540.474141498562, 747.3329884456471, -0.5280000250786543, 0.9120000433176756, 0.4800000227987766, 0.0, 0.0, 0.0, 0.0, 0.0, 1.6480852450264258E9, 0.0, 2022-03-23 20:27:25.026
38.0, 802.161791746039, 397.1250166948885, 1527.242375455331, 753.7880557691678, -0.5280000250786543, 0.9120000433176756, 0.4800000227987766, 0.0, 0.0, 0.0, 0.0, 0.0, 1.6480852450406563E9, 0.0, 2022-03-23 20:27:25.040
38.0, 804.6114262170158, 402.25241953413934, 1528.932810235303, 762.5244620656595, -0.5280000250786543, 0.9120000433176756, 0.4800000227987766, 0.0, 0.0, 0.0, 0.0, 0.0, 1.6480852450406563E9, 0.0, 2022-03-23 20:27:25.040
39.0, 778.1291946307756, 375.1344049554318, 1504.533702924382, 742.8862473983318, -0.5280000250786543, 0.9120000433176756, 0.4800000227987766, 0.0, 0.0, 0.0, 0.0, 0.0, 1.6480852450554829E9, 0.0, 2022-03-23 20:27:25.055
39.0, 792.404392761644, 385.57620563171804, 1520.2749418378808, 758.9191985083744, -0.5280000250786543, 0.9120000433176756, 0.4800000227987766, 0.0, 0.0, 0.0, 0.0, 0.0, 1.6480852450554829E9, 0.0, 2022-03-23 20:27:25.055
40.0, 796.4360049138777, 375.8038470475003, 1505.2143647163175, 753.1896717762575, -0.5280000250786543, 0.9120000433176756, 0.49600002355873585, 0.0, 0.0, 0.0, 0.0, 0.0, 1.6480852450870407E9, 0.0, 2022-03-23 20:27:25.087
40.0, 785.1938656470738, 365.0553745748475, 1507.3835066906177, 758.7322035105899, -0.5280000250786543, 0.9120000433176756, 0.49600002355873585, 0.0, 0.0, 0.0, 0.0, 0.0, 1.6480852450870407E9, 0.0, 2022-03-23 20:27:25.087
41.0, 775.025077667553, 370.9270175052807, 1502.1962654520757, 744.6514801774174, -0.5280000250786543, 1.008000047877431, 0.49600002355873585, 0.0, 0.0, 0.0, 0.0, 0.0, 1.648085245087747E9, 0.0, 2022-03-23 20:27:25.087
41.0, 799.4054854786955, 372.7633083835244, 1501.4782046605833, 760.9724035840482, -0.5280000250786543, 1.008000047877431, 0.49600002355873585, 0.0, 0.0, 0.0, 0.0, 0.0, 1.648085245087747E9, 0.0, 2022-03-23 20:27:25.087
42.0, 791.0804681773297, 357.8785065598786, 1505.3751804144122, 760.2057240931317, -0.49600002355873585, 1.008000047877431, 0.49600002355873585, 0.0, 0.0, 0.0, 0.0, 0.0, 1.648085245088492E9, 0.0, 2022-03-23 20:27:25.088
42.0, 784.0494562606327, 350.8699340429157, 1498.6994589935057, 762.8722727615386, -0.49600002355873585, 1.008000047877431, 0.49600002355873585, 0.0, 0.0, 0.0, 0.0, 0.0, 1.648085245088492E9, 0.0, 2022-03-23 20:27:25.088
43.0, 792.4941503605805, 355.5784680871293, 1498.2693704986013, 778.1759433802217, -0.49600002355873585, 1.008000047877431, 0.49600002355873585, 0.0, 0.0, 0.0, 0.0, 0.0, 1.64808524508933E9, 0.0, 2022-03-23 20:27:25.089
43.0, 789.8276016921736, 338.32630959153175, 1481.5669772964902, 762.9171515610069, -0.49600002355873585, 1.008000047877431, 0.49600002355873585, 0.0, 0.0, 0.0, 0.0, 0.0, 1.64808524508933E9, 0.0, 2022-03-23 20:27:25.089
44.0, 783.563269266393, 335.0538971303031, 1472.2995052062906, 752.049002289772, -0.49600002355873585, 1.008000047877431, 0.49600002355873585, 0.0, 0.0, 0.0, 0.0, 0.0, 1.6480852451000955E9, 0.0, 2022-03-23 20:27:25.100
44.0, 778.5892023253255, 325.7789452401921, 1469.1280700438656, 753.3953662738204, -0.49600002355873585, 1.008000047877431, 0.49600002355873585, 0.0, 0.0, 0.0, 0.0, 0.0, 1.6480852451000955E9, 0.0, 2022-03-23 20:27:25.100
45.0, 792.1949583641253, 320.38600950408727, 1471.5403055152856, 750.4670246085152, -0.49600002355873585, 1.008000047877431, 0.49600002355873585, 0.0, 0.0, 0.0, 0.0, 0.0, 1.6480852451157491E9, 0.0, 2022-03-23 20:27:25.115
45.0, 779.1539272186346, 319.5183527143672, 1460.825492142234, 749.3487945217639, -0.49600002355873585, 1.008000047877431, 0.49600002355873585, 0.0, 0.0, 0.0, 0.0, 0.0, 1.6480852451157491E9, 0.0, 2022-03-23 20:27:25.115
46.0, 777.0072246440686, 322.20734078250825, 1468.9522947459482, 747.5461627431214, -0.49600002355873585, 1.008000047877431, 0.49600002355873585, 0.0, 0.0, 0.0, 0.0, 0.0, 1.6480852451164742E9, 0.0, 2022-03-23 20:27:25.116
46.0, 789.184338899795, 323.6733815651387, 1474.6369426785968, 753.7805759692565, -0.49600002355873585, 1.008000047877431, 0.49600002355873585, 0.0, 0.0, 0.0, 0.0, 0.0, 1.6480852451164742E9, 0.0, 2022-03-23 20:27:25.116
47.0, 788.3727806094103, 325.72284674085677, 1473.391555993352, 758.6648853113875, -0.49600002355873585, 1.008000047877431, 0.49600002355873585, 0.0, 0.0, 0.0, 0.0, 0.0, 1.6480852451299317E9, 0.0, 2022-03-23 20:27:25.129
47.0, 778.5817225254141, 329.6460017943755, 1485.3854151512496, 745.500437467359, -0.49600002355873585, 1.008000047877431, 0.49600002355873585, 0.0, 0.0, 0.0, 0.0, 0.0, 1.6480852451299317E9, 0.0, 2022-03-23 20:27:25.129
48.0, 795.467370825354, 342.6795531399548, 1489.3758884039707, 770.0005220770836, -0.49600002355873585, 1.008000047877431, 0.49600002355873585, 0.0, 0.0, 0.0, 0.0, 0.0, 1.6480852451458192E9, 0.0, 2022-03-23 20:27:25.145
48.0, 800.0973669704981, 343.62200792878866, 1498.3479083976708, 776.1563974041492, -0.49600002355873585, 1.008000047877431, 0.49600002355873585, 0.0, 0.0, 0.0, 0.0, 0.0, 1.6480852451458192E9, 0.0, 2022-03-23 20:27:25.145
49.0, 787.6734193176962, 336.7218925105408, 1490.856888786424, 757.1165667297319, -0.49600002355873585, 1.008000047877431, 0.49600002355873585, 0.0, 0.0, 0.0, 0.0, 0.0, 1.6480852451464348E9, 0.0, 2022-03-23 20:27:25.146
49.0, 787.8267552158795, 334.8631622325629, 1485.0525640551932, 740.7694640234113, -0.49600002355873585, 1.008000047877431, 0.49600002355873585, 0.0, 0.0, 0.0, 0.0, 0.0, 1.6480852451464348E9, 0.0, 2022-03-23 20:27:25.146
50.0, 791.9481249670498, 326.2726120343432, 1472.2733259066008, 744.9170130742714, -0.49600002355873585, 1.008000047877431, 0.49600002355873585, 0.0, 0.0, 0.0, 0.0, 0.0, 1.648085245159953E9, 0.0, 2022-03-23 20:27:25.159
50.0, 777.1530807423405, 323.9239548621699, 1474.35645018192, 737.0968822669238, -0.49600002355873585, 1.008000047877431, 0.49600002355873585, 0.0, 0.0, 0.0, 0.0, 0.0, 1.648085245159953E9, 0.0, 2022-03-23 20:27:25.159
51.0, 769.2207529363222, 321.14146929513663, 1472.62113660248, 733.5925960084423, -0.49600002355873585, 0.8480000402778387, 0.49600002355873585, 0.0, 0.0, 0.0, 0.0, 0.0, 1.648085245176494E9, 0.0, 2022-03-23 20:27:25.176
51.0, 775.6496409601532, 322.2746589817107, 1474.8201977764256, 735.8627152815461, -0.49600002355873585, 0.8480000402778387, 0.49600002355873585, 0.0, 0.0, 0.0, 0.0, 0.0, 1.648085245176494E9, 0.0, 2022-03-23 20:27:25.176
52.0, 759.7625459483825, 307.6666097547859, 1469.3262847415172, 720.1102566681802, -0.41600001975893974, 0.8480000402778387, 0.49600002355873585, 0.0, 0.0, 0.0, 0.0, 0.0, 1.6480852451770792E9, 0.0, 2022-03-23 20:27:25.177
52.0, 745.2779134199955, 309.1924889367074, 1470.1191435321234, 708.1425768099725, -0.41600001975893974, 0.8480000402778387, 0.49600002355873585, 0.0, 0.0, 0.0, 0.0, 0.0, 1.6480852451770792E9, 0.0, 2022-03-23 20:27:25.177
53.0, 752.5632385336794, 306.00983407441527, 1465.9192358818837, 715.1511493269354, -0.41600001975893974, 0.8480000402778387, 0.49600002355873585, 0.0, 0.0, 0.0, 0.0, 0.0, 1.6480852451900213E9, 0.0, 2022-03-23 20:27:25.190
53.0, 775.3130499641411, 305.05615958571434, 1463.9071697057225, 721.2322266548872, -0.41600001975893974, 0.8480000402778387, 0.49600002355873585, 0.0, 0.0, 0.0, 0.0, 0.0, 1.6480852451900213E9, 0.0, 2022-03-23 20:27:25.190
54.0, 771.1617610133253, 309.2523273359984, 1457.4408826823346, 720.2785521661863, -0.41600001975893974, 0.8480000402778387, 0.49600002355873585, 0.0, 0.0, 0.0, 0.0, 0.0, 1.6480852452057033E9, 0.0, 2022-03-23 20:27:25.205
54.0, 775.6122419605963, 311.1409768136218, 1470.9755806219764, 727.5376979801804, -0.41600001975893974, 0.8480000402778387, 0.49600002355873585, 0.0, 0.0, 0.0, 0.0, 0.0, 1.6480852452057033E9, 0.0, 2022-03-23 20:27:25.205
55.0, 792.6661857585423, 309.3009460354224, 1477.0416983501054, 739.9092870336026, -0.41600001975893974, 0.8480000402778387, 0.49600002355873585, 0.0, 0.0, 0.0, 0.0, 0.0, 1.6480852452064612E9, 0.0, 2022-03-23 20:27:25.206
55.0, 782.8900872743689, 315.2922657644376, 1474.2405132832937, 729.1383751612157, -0.41600001975893974, 0.8480000402778387, 0.49600002355873585, 0.0, 0.0, 0.0, 0.0, 0.0, 1.6480852452064612E9, 0.0, 2022-03-23 20:27:25.206
56.0, 780.1412608069368, 312.95108839217573, 1469.4945802395232, 732.4182674223557, -0.41600001975893974, 0.8480000402778387, 0.49600002355873585, 0.0, 0.0, 0.0, 0.0, 0.0, 1.6480852452200105E9, 0.0, 2022-03-23 20:27:25.220
56.0, 776.2293254532851, 289.3261403720826, 1452.88942443626, 705.8948969366029, -0.41600001975893974, 0.8480000402778387, 0.49600002355873585, 0.0, 0.0, 0.0, 0.0, 0.0, 1.6480852452200105E9, 0.0, 2022-03-23 20:27:25.220
57.0, 768.7682250416838, 287.48984949383885, 1450.417350565549, 698.3776980256662, -0.41600001975893974, 0.8480000402778387, 0.49600002355873585, 0.0, 0.0, 0.0, 0.0, 0.0, 1.648085245235699E9, 0.0, 2022-03-23 20:27:25.235
57.0, 763.1995140076615, 291.8692723419517, 1449.2729411791079, 699.2640543151647, -0.41600001975893974, 0.8480000402778387, 0.49600002355873585, 0.0, 0.0, 0.0, 0.0, 0.0, 1.648085245235699E9, 0.0, 2022-03-23 20:27:25.235
58.0, 769.2207529363222, 288.4809229820967, 1448.981228982564, 700.4720420008525, -0.41600001975893974, 0.8480000402778387, 0.49600002355873585, 0.0, 0.0, 0.0, 0.0, 0.0, 1.6480852452364323E9, 0.0, 2022-03-23 20:27:25.236
58.0, 769.1384751372971, 293.9972754167393, 1453.214795732405, 704.4849546533078, -0.41600001975893974, 0.8480000402778387, 0.49600002355873585, 0.0, 0.0, 0.0, 0.0, 0.0, 1.6480852452364323E9, 0.0, 2022-03-23 20:27:25.236
59.0, 772.8596755932085, 304.22964169550687, 1466.9738876693882, 711.4449084708467, -0.41600001975893974, 0.8480000402778387, 0.49600002355873585, 0.0, 0.0, 0.0, 0.0, 0.0, 1.6480852452499633E9, 0.0, 2022-03-23 20:27:25.249
59.0, 773.4991984856315, 300.12323154415935, 1460.4365425468422, 720.1027768682688, -0.41600001975893974, 0.8480000402778387, 0.49600002355873585, 0.0, 0.0, 0.0, 0.0, 0.0, 1.6480852452499633E9, 0.0, 2022-03-23 20:27:25.249
60.0, 782.972365073394, 297.8044935716316, 1463.8510712063871, 736.0123112797737, -0.41600001975893974, 0.8480000402778387, 0.5120000243186951, 0.0, 0.0, 0.0, 0.0, 0.0, 1.6480852452656803E9, 0.0, 2022-03-23 20:27:25.265
60.0, 786.8843004270457, 300.658037237823, 1475.153048872482, 737.7139657596126, -0.41600001975893974, 0.8480000402778387, 0.5120000243186951, 0.0, 0.0, 0.0, 0.0, 0.0, 1.6480852452656803E9, 0.0, 2022-03-23 20:27:25.265
61.0, 778.9257933213376, 299.3228929536417, 1461.8838838296942, 724.212926919572, -0.41600001975893974, 0.8640000410377979, 0.5120000243186951, 0.0, 0.0, 0.0, 0.0, 0.0, 1.6480852452665193E9, 0.0, 2022-03-23 20:27:25.266
61.0, 802.6105797407217, 306.97472826298326, 1468.2491935542785, 743.4584520915523, -0.41600001975893974, 0.8640000410377979, 0.5120000243186951, 0.0, 0.0, 0.0, 0.0, 0.0, 1.6480852452665193E9, 0.0, 2022-03-23 20:27:25.266
62.0, 795.1756586288102, 301.50325462780893, 1477.87943594018, 747.3666475452483, -0.41600001975893974, 0.8640000410377979, 0.5120000243186951, 0.0, 0.0, 0.0, 0.0, 0.0, 1.6480852452800484E9, 0.0, 2022-03-23 20:27:25.280
62.0, 787.8117956160568, 297.0228544808924, 1479.8167041172273, 733.7122728070244, -0.41600001975893974, 0.8640000410377979, 0.5120000243186951, 0.0, 0.0, 0.0, 0.0, 0.0, 1.6480852452800484E9, 0.0, 2022-03-23 20:27:25.280
63.0, 792.9242388554849, 292.8865251298994, 1482.0456844908185, 741.1397141190246, -0.41600001975893974, 0.8640000410377979, 0.5120000243186951, 0.0, 0.0, 0.0, 0.0, 0.0, 1.6480852452956903E9, 0.0, 2022-03-23 20:27:25.295
63.0, 791.5329960719682, 288.2191299851984, 1482.9507402800955, 735.9636925803497, -0.41600001975893974, 0.8640000410377979, 0.5120000243186951, 0.0, 0.0, 0.0, 0.0, 0.0, 1.6480852452956903E9, 0.0, 2022-03-23 20:27:25.295
64.0, 778.7836771230213, 282.9122119480744, 1487.7116329236887, 725.0955433091149, -0.41600001975893974, 0.8640000410377979, 0.5120000243186951, 0.0, 0.0, 0.0, 0.0, 0.0, 1.6480852452964602E9, 0.0, 2022-03-23 20:27:25.296
64.0, 769.8976748283021, 269.3924736082554, 1462.3588511240669, 718.6741350851953, -0.41600001975893974, 0.8640000410377979, 0.5120000243186951, 0.0, 0.0, 0.0, 0.0, 0.0, 1.6480852452964602E9, 0.0, 2022-03-23 20:27:25.296
65.0, 783.2191984704696, 279.82305458467454, 1465.2497937898152, 736.0235309796408, -0.41600001975893974, 0.8640000410377979, 0.5120000243186951, 0.0, 0.0, 0.0, 0.0, 0.0, 1.6480852453100476E9, 0.0, 2022-03-23 20:27:25.310
65.0, 778.8061165227555, 279.9838702827692, 1475.141829172615, 723.188194331713, -0.41600001975893974, 0.8640000410377979, 0.5120000243186951, 0.0, 0.0, 0.0, 0.0, 0.0, 1.6480852453100476E9, 0.0, 2022-03-23 20:27:25.310
66.0, 778.3573285280727, 285.0177756231278, 1482.4346340862103, 723.139575632289, -0.41600001975893974, 0.8640000410377979, 0.5120000243186951, 0.0, 0.0, 0.0, 0.0, 0.0, 1.648085245325702E9, 0.0, 2022-03-23 20:27:25.325
66.0, 776.6107952487655, 272.32829507347196, 1461.0947649390437, 726.5541042918339, -0.41600001975893974, 0.8640000410377979, 0.5120000243186951, 0.0, 0.0, 0.0, 0.0, 0.0, 1.648085245325702E9, 0.0, 2022-03-23 20:27:25.325
67.0, 766.232572871726, 266.007864148356, 1461.1920023378916, 717.0584983043373, -0.41600001975893974, 0.8640000410377979, 0.5120000243186951, 0.0, 0.0, 0.0, 0.0, 0.0, 1.6480852453264391E9, 0.0, 2022-03-23 20:27:25.326
67.0, 770.2903643236496, 274.0935278525576, 1468.350170853082, 730.0696102501824, -0.41600001975893974, 0.8640000410377979, 0.5120000243186951, 0.0, 0.0, 0.0, 0.0, 0.0, 1.6480852453264391E9, 0.0, 2022-03-23 20:27:25.326
68.0, 775.8366359579377, 268.5809153178707, 1463.9782278048806, 737.2502181651071, -0.41600001975893974, 0.8640000410377979, 0.5120000243186951, 0.0, 0.0, 0.0, 0.0, 0.0, 1.6480852453400612E9, 0.0, 2022-03-23 20:27:25.340
68.0, 782.0149506847374, 270.32744859717786, 1463.5817984095775, 733.3981212107465, -0.41600001975893974, 0.8640000410377979, 0.5120000243186951, 0.0, 0.0, 0.0, 0.0, 0.0, 1.6480852453400612E9, 0.0, 2022-03-23 20:27:25.340
69.0, 763.1434155083261, 268.6407537171617, 1453.3793513304554, 714.5303259342909, -0.41600001975893974, 0.8640000410377979, 0.5120000243186951, 0.0, 0.0, 0.0, 0.0, 0.0, 1.6480852453556788E9, 0.0, 2022-03-23 20:27:25.355
69.0, 764.0297717978247, 268.7641704156995, 1449.8825448718853, 708.5726653048769, -0.41600001975893974, 0.8640000410377979, 0.5120000243186951, 0.0, 0.0, 0.0, 0.0, 0.0, 1.6480852453556788E9, 0.0, 2022-03-23 20:27:25.355
70.0, 791.3347813743167, 275.04346244130284, 1466.0613520801999, 733.4616995099932, -0.41600001975893974, 0.8640000410377979, 0.49600002355873585, 0.0, 0.0, 0.0, 0.0, 0.0, 1.6480852453564332E9, 0.0, 2022-03-23 20:27:25.356
70.0, 786.4355124323629, 282.29512845538557, 1472.5874775028788, 737.1193216666579, -0.41600001975893974, 0.8640000410377979, 0.49600002355873585, 0.0, 0.0, 0.0, 0.0, 0.0, 1.6480852453564332E9, 0.0, 2022-03-23 20:27:25.356
71.0, 788.9749045022763, 287.3140741959214, 1480.0074390149675, 730.1780673488975, -0.41600001975893974, 0.8160000387579203, 0.49600002355873585, 0.0, 0.0, 0.0, 0.0, 0.0, 1.6480852453699656E9, 0.0, 2022-03-23 20:27:25.369
71.0, 797.2064243047498, 287.1794377975166, 1473.982460186351, 738.1029153550044, -0.41600001975893974, 0.8160000387579203, 0.49600002355873585, 0.0, 0.0, 0.0, 0.0, 0.0, 1.6480852453699656E9, 0.0, 2022-03-23 20:27:25.369
72.0, 784.3748275567777, 283.8845859365538, 1465.1862154905684, 738.686339748092, -0.4640000220388174, 0.8160000387579203, 0.49600002355873585, 0.0, 0.0, 0.0, 0.0, 0.0, 1.6480852454021027E9, 0.0, 2022-03-23 20:27:25.402
