%OpenBCI Raw EEG Data
%Number of channels = 4
%Sample Rate = 200 Hz
%Board = OpenBCI_GUI$BoardGanglionBLE
Sample Index, EXG Channel 0, EXG Channel 1, EXG Channel 2, EXG Channel 3, Accel Channel 0, Accel Channel 1, Accel Channel 2, Other, Other, Other, Other, Other, Timestamp, Other, Timestamp (Formatted)
0.0, 912.322414890863, 814.9410298946314, 650.4826692431234, 912.1036307434551, 0.0, 0.0, 0.0, 0.0, 0.0, 0.0, 0.0, 0.0, 1.6360757081164908E9, 0.0, 2021-11-04 20:28:28.116
1.0, 914.3344810670242, 822.0879787099548, 675.2520266496576, 930.3880016268231, 0.0, -0.03200000151991844, 0.0, 0.0, 0.0, 0.0, 0.0, 0.0, 1.636075708162178E9, 0.0, 2021-11-04 20:28:28.162
1.0, 915.2918954556808, 830.7720264070667, 696.8536887937225, 934.984338672366, 0.0, -0.03200000151991844, 0.0, 0.0, 0.0, 0.0, 0.0, 0.0, 1.636075708162178E9, 0.0, 2021-11-04 20:28:28.162
2.0, 909.5997677231207, 818.1311645568348, 689.9984521749429, 934.4270935789682, -0.03200000151991844, -0.03200000151991844, 0.0, 0.0, 0.0, 0.0, 0.0, 0.0, 1.6360757081628904E9, 0.0, 2021-11-04 20:28:28.162
2.0, 921.5861470811069, 863.2380979224108, 739.4287098892964, 948.1674860161729, -0.03200000151991844, -0.03200000151991844, 0.0, 0.0, 0.0, 0.0, 0.0, 0.0, 1.6360757081628904E9, 0.0, 2021-11-04 20:28:28.162
3.0, 914.5551351644099, 894.002514957916, 745.0834386222996, 937.0113644483499, -0.03200000151991844, -0.03200000151991844, 0.0, 0.0, 0.0, 0.0, 0.0, 0.0, 1.6360757081637027E9, 0.0, 2021-11-04 20:28:28.163
3.0, 916.5410220408812, 903.7000755430199, 789.9285789909773, 957.453657606151, -0.03200000151991844, -0.03200000151991844, 0.0, 0.0, 0.0, 0.0, 0.0, 0.0, 1.6360757081637027E9, 0.0, 2021-11-04 20:28:28.163
4.0, 913.1975514804944, 891.264908190351, 790.2950891866349, 943.1522801755928, -0.03200000151991844, -0.03200000151991844, 0.0, 0.0, 0.0, 0.0, 0.0, 0.0, 1.6360757081643753E9, 0.0, 2021-11-04 20:28:28.164
4.0, 912.1840385925025, 954.4804371413775, 816.7287020734511, 973.0789596210234, -0.03200000151991844, -0.03200000151991844, 0.0, 0.0, 0.0, 0.0, 0.0, 0.0, 1.6360757081643753E9, 0.0, 2021-11-04 20:28:28.164
5.0, 913.4668242773041, 941.050456400495, 806.1522649987601, 966.3733190004714, -0.03200000151991844, -0.03200000151991844, 0.0, 0.0, 0.0, 0.0, 0.0, 0.0, 1.6360757081919177E9, 0.0, 2021-11-04 20:28:28.191
5.0, 918.8971590129659, 921.3785826335661, 792.0266628661193, 959.2151504852809, -0.03200000151991844, -0.03200000151991844, 0.0, 0.0, 0.0, 0.0, 0.0, 0.0, 1.6360757081919177E9, 0.0, 2021-11-04 20:28:28.191
6.0, 918.0332421232015, 930.9938654196449, 807.2368359859101, 972.5628534271382, -0.03200000151991844, -0.03200000151991844, 0.0, 0.0, 0.0, 0.0, 0.0, 0.0, 1.6360757081926234E9, 0.0, 2021-11-04 20:28:28.192
6.0, 904.8538346793503, 926.9098946680315, 777.8337425342761, 969.0099484692328, -0.03200000151991844, -0.03200000151991844, 0.0, 0.0, 0.0, 0.0, 0.0, 0.0, 1.6360757081926234E9, 0.0, 2021-11-04 20:28:28.192
7.0, 921.3019146844745, 931.8428227095865, 788.447578608524, 975.1059853970073, -0.03200000151991844, -0.03200000151991844, 0.0, 0.0, 0.0, 0.0, 0.0, 0.0, 1.6360757081942344E9, 0.0, 2021-11-04 20:28:28.194
7.0, 914.2896022675559, 916.5690712905489, 798.1114800940268, 957.247963108588, -0.03200000151991844, -0.03200000151991844, 0.0, 0.0, 0.0, 0.0, 0.0, 0.0, 1.6360757081942344E9, 0.0, 2021-11-04 20:28:28.194
8.0, 910.6618993105367, 904.3545580352657, 799.0651545827277, 982.297813011799, -0.03200000151991844, -0.03200000151991844, 0.0, 0.0, 0.0, 0.0, 0.0, 0.0, 1.636075708205668E9, 0.0, 2021-11-04 20:28:28.205
8.0, 910.8638539081439, 903.4794214456342, 759.7962050479837, 974.8516722000204, -0.03200000151991844, -0.03200000151991844, 0.0, 0.0, 0.0, 0.0, 0.0, 0.0, 1.636075708205668E9, 0.0, 2021-11-04 20:28:28.205
9.0, 905.6504333699122, 906.774273306597, 747.7537271906622, 979.4854082451202, -0.03200000151991844, -0.03200000151991844, 0.0, 0.0, 0.0, 0.0, 0.0, 0.0, 1.6360757082064087E9, 0.0, 2021-11-04 20:28:28.206
9.0, 888.2337192762643, 881.0437616114505, 727.4161512316205, 986.060152367223, -0.03200000151991844, -0.03200000151991844, 0.0, 0.0, 0.0, 0.0, 0.0, 0.0, 1.6360757082064087E9, 0.0, 2021-11-04 20:28:28.206
10.0, 891.8689020331949, 879.5253622294404, 701.4612455391325, 988.5733651374467, -0.03200000151991844, -0.03200000151991844, 0.5120000243186951, 0.0, 0.0, 0.0, 0.0, 0.0, 1.6360757082071352E9, 0.0, 2021-11-04 20:28:28.207
10.0, 887.0855699898675, 817.5402603638358, 687.1299489089288, 983.2103486009873, -0.03200000151991844, -0.03200000151991844, 0.5120000243186951, 0.0, 0.0, 0.0, 0.0, 0.0, 1.6360757082071352E9, 0.0, 2021-11-04 20:28:28.207
11.0, 884.1684480244294, 824.2346812845208, 673.329718072433, 993.8204447752796, -0.03200000151991844, -0.03200000151991844, 0.5120000243186951, 0.0, 0.0, 0.0, 0.0, 0.0, 1.6360757082203991E9, 0.0, 2021-11-04 20:28:28.220
11.0, 887.332403386943, 842.347016769927, 666.6988754509948, 1001.2478860872798, -0.03200000151991844, -0.03200000151991844, 0.5120000243186951, 0.0, 0.0, 0.0, 0.0, 0.0, 1.6360757082203991E9, 0.0, 2021-11-04 20:28:28.220
12.0, 884.9276477154344, 810.8607990429737, 656.4253702727146, 992.1674089948647, -0.04800000227987766, -0.03200000151991844, 0.5120000243186951, 0.0, 0.0, 0.0, 0.0, 0.0, 1.6360757082513976E9, 0.0, 2021-11-04 20:28:28.251
12.0, 886.3413298986852, 786.8506413274445, 645.6058397009037, 999.0600446132012, -0.04800000227987766, -0.03200000151991844, 0.5120000243186951, 0.0, 0.0, 0.0, 0.0, 0.0, 1.6360757082513976E9, 0.0, 2021-11-04 20:28:28.251
13.0, 875.6152968257666, 797.4420380019583, 652.5882329181768, 1012.2693712566979, -0.04800000227987766, -0.03200000151991844, 0.5120000243186951, 0.0, 0.0, 0.0, 0.0, 0.0, 1.6360757082520776E9, 0.0, 2021-11-04 20:28:28.252
13.0, 868.3636308116838, 789.3638540976681, 641.4956896496005, 1002.4932727725245, -0.04800000227987766, -0.03200000151991844, 0.5120000243186951, 0.0, 0.0, 0.0, 0.0, 0.0, 1.6360757082520776E9, 0.0, 2021-11-04 20:28:28.252
14.0, 878.360383393243, 787.2358510228805, 622.5942352735437, 984.5267933853902, -0.04800000227987766, -0.03200000151991844, 0.5120000243186951, 0.0, 0.0, 0.0, 0.0, 0.0, 1.636075708252806E9, 0.0, 2021-11-04 20:28:28.252
14.0, 883.0950967371464, 785.8969668387435, 601.3852626248263, 1005.1673012408428, -0.04800000227987766, -0.03200000151991844, 0.5120000243186951, 0.0, 0.0, 0.0, 0.0, 0.0, 1.636075708252806E9, 0.0, 2021-11-04 20:28:28.252
15.0, 872.8402910586447, 753.8048853189684, 603.1953742033802, 1024.3455082136206, -0.04800000227987766, -0.03200000151991844, 0.5120000243186951, 0.0, 0.0, 0.0, 0.0, 0.0, 1.6360757082534933E9, 0.0, 2021-11-04 20:28:28.253
15.0, 869.0143734039739, 747.2638002964668, 580.1875096759759, 1013.0435305475257, -0.04800000227987766, -0.03200000151991844, 0.5120000243186951, 0.0, 0.0, 0.0, 0.0, 0.0, 1.6360757082534933E9, 0.0, 2021-11-04 20:28:28.253
16.0, 867.5483326213434, 758.2927652657963, 594.2644931091927, 1032.386293118354, -0.04800000227987766, -0.03200000151991844, 0.5120000243186951, 0.0, 0.0, 0.0, 0.0, 0.0, 1.6360757082642853E9, 0.0, 2021-11-04 20:28:28.264
16.0, 854.9934884700924, 744.4252162300982, 589.810272261966, 1026.5744885872118, -0.04800000227987766, -0.03200000151991844, 0.5120000243186951, 0.0, 0.0, 0.0, 0.0, 0.0, 1.6360757082642853E9, 0.0, 2021-11-04 20:28:28.264
17.0, 857.832072536461, 760.914435134735, 589.6718959636055, 1014.7003062278964, -0.04800000227987766, -0.03200000151991844, 0.5120000243186951, 0.0, 0.0, 0.0, 0.0, 0.0, 1.6360757082956443E9, 0.0, 2021-11-04 20:28:28.295
17.0, 871.8043387709185, 756.4115955880843, 560.5006763092242, 1021.7986363437958, -0.04800000227987766, -0.03200000151991844, 0.5120000243186951, 0.0, 0.0, 0.0, 0.0, 0.0, 1.6360757082956443E9, 0.0, 2021-11-04 20:28:28.295
18.0, 872.4962202627212, 752.3687637359835, 580.7297951695509, 1033.9794904994778, -0.04800000227987766, -0.03200000151991844, 0.5120000243186951, 0.0, 0.0, 0.0, 0.0, 0.0, 1.63607570829637E9, 0.0, 2021-11-04 20:28:28.296
18.0, 872.7206142600626, 742.0952585577033, 589.6083176643588, 1035.4642307818867, -0.04800000227987766, -0.03200000151991844, 0.5120000243186951, 0.0, 0.0, 0.0, 0.0, 0.0, 1.63607570829637E9, 0.0, 2021-11-04 20:28:28.296
19.0, 875.6003372259438, 756.4302950878628, 556.2184908599593, 1028.8894866597839, -0.04800000227987766, -0.03200000151991844, 0.5120000243186951, 0.0, 0.0, 0.0, 0.0, 0.0, 1.6360757082971387E9, 0.0, 2021-11-04 20:28:28.297
19.0, 880.0956969726831, 743.48650134122, 579.3609917857684, 1045.3226070650853, -0.04800000227987766, -0.03200000151991844, 0.5120000243186951, 0.0, 0.0, 0.0, 0.0, 0.0, 1.6360757082971387E9, 0.0, 2021-11-04 20:28:28.297
20.0, 877.1935346070677, 739.8812377839349, 573.5342276548035, 1050.6482246019877, -0.04800000227987766, -0.03200000151991844, 0.7680000364780426, 0.0, 0.0, 0.0, 0.0, 0.0, 1.6360757083426716E9, 0.0, 2021-11-04 20:28:28.342
20.0, 865.5549659449607, 759.418475152459, 574.5851395423524, 1020.4260930600576, -0.04800000227987766, -0.03200000151991844, 0.7680000364780426, 0.0, 0.0, 0.0, 0.0, 0.0, 1.6360757083426716E9, 0.0, 2021-11-04 20:28:28.342
21.0, 878.1771282954141, 760.6339426380582, 571.8475327747874, 1063.0160737554543, -0.04800000227987766, -0.04800000227987766, 0.7680000364780426, 0.0, 0.0, 0.0, 0.0, 0.0, 1.6360757083433676E9, 0.0, 2021-11-04 20:28:28.343
21.0, 882.9866396384314, 741.665170062799, 579.5816458831541, 1063.1245308541693, -0.04800000227987766, -0.04800000227987766, 0.7680000364780426, 0.0, 0.0, 0.0, 0.0, 0.0, 1.6360757083433676E9, 0.0, 2021-11-04 20:28:28.343
22.0, 881.5766973551363, 738.2955202027224, 583.2579675395973, 1066.5353196137585, -0.04800000227987766, -0.04800000227987766, 0.7680000364780426, 0.0, 0.0, 0.0, 0.0, 0.0, 1.6360757083441007E9, 0.0, 2021-11-04 20:28:28.344
22.0, 880.3275707699358, 743.3518649428152, 589.376443867106, 1072.5415989425965, -0.04800000227987766, -0.04800000227987766, 0.7680000364780426, 0.0, 0.0, 0.0, 0.0, 0.0, 1.6360757083441007E9, 0.0, 2021-11-04 20:28:28.344
23.0, 881.4345811568201, 752.6230769329704, 565.9871095442213, 1077.71014068136, -0.04800000227987766, -0.04800000227987766, 0.7680000364780426, 0.0, 0.0, 0.0, 0.0, 0.0, 1.6360757083448863E9, 0.0, 2021-11-04 20:28:28.344
23.0, 852.4204373005778, 753.1017841272987, 560.8447471051477, 1069.1008909833618, -0.04800000227987766, -0.04800000227987766, 0.7680000364780426, 0.0, 0.0, 0.0, 0.0, 0.0, 1.6360757083448863E9, 0.0, 2021-11-04 20:28:28.344
24.0, 872.2007681662217, 749.0664320751093, 584.8511649207212, 1072.0815912480466, -0.04800000227987766, -0.04800000227987766, 0.7680000364780426, 0.0, 0.0, 0.0, 0.0, 0.0, 1.6360757083549047E9, 0.0, 2021-11-04 20:28:28.354
24.0, 889.7745580580086, 744.017567134928, 581.283300362993, 1098.272110637743, -0.04800000227987766, -0.04800000227987766, 0.7680000364780426, 0.0, 0.0, 0.0, 0.0, 0.0, 1.6360757083549047E9, 0.0, 2021-11-04 20:28:28.354
25.0, 886.8349966928363, 741.2575209676288, 573.2986139575951, 1085.9977589831688, -0.04800000227987766, -0.04800000227987766, 0.7680000364780426, 0.0, 0.0, 0.0, 0.0, 0.0, 1.6360757083556204E9, 0.0, 2021-11-04 20:28:28.355
25.0, 888.3907950744033, 732.6594909694977, 555.7659629653208, 1081.3677628380246, -0.04800000227987766, -0.04800000227987766, 0.7680000364780426, 0.0, 0.0, 0.0, 0.0, 0.0, 1.6360757083556204E9, 0.0, 2021-11-04 20:28:28.355
26.0, 890.0961894541979, 747.4208760946058, 574.0765131483786, 1087.3852618667297, -0.04800000227987766, -0.04800000227987766, 0.7680000364780426, 0.0, 0.0, 0.0, 0.0, 0.0, 1.6360757083698988E9, 0.0, 2021-11-04 20:28:28.369
26.0, 888.5329112727195, 784.7749968520366, 573.5491872546263, 1089.5544038410299, -0.04800000227987766, -0.04800000227987766, 0.7680000364780426, 0.0, 0.0, 0.0, 0.0, 0.0, 1.6360757083698988E9, 0.0, 2021-11-04 20:28:28.369
27.0, 886.5657238960266, 770.0771900261752, 582.0425000539981, 1079.5239921598695, -0.04800000227987766, -0.04800000227987766, 0.7680000364780426, 0.0, 0.0, 0.0, 0.0, 0.0, 1.6360757083706944E9, 0.0, 2021-11-04 20:28:28.370
27.0, 902.3181825093925, 752.9596679289825, 586.7173749986105, 1079.5277320598252, -0.04800000227987766, -0.04800000227987766, 0.7680000364780426, 0.0, 0.0, 0.0, 0.0, 0.0, 1.6360757083706944E9, 0.0, 2021-11-04 20:28:28.370
28.0, 891.9661394320428, 773.9666859800927, 583.0821922416799, 1099.539936722722, -0.04800000227987766, -0.04800000227987766, 0.7680000364780426, 0.0, 0.0, 0.0, 0.0, 0.0, 1.6360757083842242E9, 0.0, 2021-11-04 20:28:28.384
28.0, 892.2428920287639, 762.4328345167451, 609.4746662289836, 1098.6722799330018, -0.04800000227987766, -0.04800000227987766, 0.7680000364780426, 0.0, 0.0, 0.0, 0.0, 0.0, 1.6360757083842242E9, 0.0, 2021-11-04 20:28:28.384
29.0, 902.6996523048729, 746.11565101007, 590.1319036581554, 1087.7517720623873, -0.04800000227987766, -0.04800000227987766, 0.7680000364780426, 0.0, 0.0, 0.0, 0.0, 0.0, 1.6360757083998723E9, 0.0, 2021-11-04 20:28:28.399
29.0, 896.4801986785606, 757.9823535694741, 587.9440621840768, 1114.7501098425128, -0.04800000227987766, -0.04800000227987766, 0.7680000364780426, 0.0, 0.0, 0.0, 0.0, 0.0, 1.6360757083998723E9, 0.0, 2021-11-04 20:28:28.399
30.0, 882.6986673418432, 755.5364589984529, 584.394897126127, 1107.5171433282085, -0.04800000227987766, -0.04800000227987766, 0.8960000425577164, 0.0, 0.0, 0.0, 0.0, 0.0, 1.6360757084005864E9, 0.0, 2021-11-04 20:28:28.400
30.0, 901.3906873203814, 747.4208760946058, 583.0335735422559, 1098.0776358400472, -0.04800000227987766, -0.04800000227987766, 0.8960000425577164, 0.0, 0.0, 0.0, 0.0, 0.0, 1.6360757084005864E9, 0.0, 2021-11-04 20:28:28.400
31.0, 903.36161459703, 748.7186213792302, 576.832819415722, 1106.9299790351652, -0.04800000227987766, -0.04800000227987766, 0.8960000425577164, 0.0, 0.0, 0.0, 0.0, 0.0, 1.6360757084305584E9, 0.0, 2021-11-04 20:28:28.430
31.0, 904.7341578807682, 778.1516340305097, 590.9172826488502, 1111.3281013830565, -0.04800000227987766, -0.04800000227987766, 0.8960000425577164, 0.0, 0.0, 0.0, 0.0, 0.0, 1.6360757084305584E9, 0.0, 2021-11-04 20:28:28.430
32.0, 882.9828997384757, 767.1638079606928, 592.1551895341836, 1089.8274165377952, -0.04800000227987766, -0.04800000227987766, 0.8960000425577164, 0.0, 0.0, 0.0, 0.0, 0.0, 1.6360757084313972E9, 0.0, 2021-11-04 20:28:28.431
32.0, 898.2454314576462, 744.1596833332442, 550.7170980251394, 1089.9770125360228, -0.04800000227987766, -0.04800000227987766, 0.8960000425577164, 0.0, 0.0, 0.0, 0.0, 0.0, 1.6360757084313972E9, 0.0, 2021-11-04 20:28:28.431
33.0, 892.6542810238898, 735.924423630815, 572.9732426614501, 1090.2014065333642, -0.04800000227987766, -0.04800000227987766, 0.8960000425577164, 0.0, 0.0, 0.0, 0.0, 0.0, 1.636075708432037E9, 0.0, 2021-11-04 20:28:28.432
33.0, 894.0604834072292, 740.0682327817194, 597.6341429692693, 1062.8103792578913, -0.04800000227987766, -0.04800000227987766, 0.8960000425577164, 0.0, 0.0, 0.0, 0.0, 0.0, 1.636075708432037E9, 0.0, 2021-11-04 20:28:28.432
34.0, 889.8119570575655, 735.9543428304605, 578.6840698937885, 1073.8281245273538, -0.04800000227987766, -0.04800000227987766, 0.8960000425577164, 0.0, 0.0, 0.0, 0.0, 0.0, 1.6360757084441428E9, 0.0, 2021-11-04 20:28:28.444
34.0, 901.4280863199383, 734.1479711518623, 579.0057012899779, 1076.9285015906207, -0.04800000227987766, -0.04800000227987766, 0.8960000425577164, 0.0, 0.0, 0.0, 0.0, 0.0, 1.6360757084441428E9, 0.0, 2021-11-04 20:28:28.444
35.0, 883.2297331355512, 746.7252547028475, 576.0324808252044, 1082.7290864218958, -0.04800000227987766, -0.04800000227987766, 0.8960000425577164, 0.0, 0.0, 0.0, 0.0, 0.0, 1.6360757084598987E9, 0.0, 2021-11-04 20:28:28.459
35.0, 880.4771667681634, 750.5249930578284, 582.7867401451804, 1076.1319029000588, -0.04800000227987766, -0.04800000227987766, 0.8960000425577164, 0.0, 0.0, 0.0, 0.0, 0.0, 1.6360757084598987E9, 0.0, 2021-11-04 20:28:28.459
36.0, 888.4768127733842, 745.4125498184003, 581.8517651562579, 1073.1287632356398, -0.04800000227987766, -0.04800000227987766, 0.8960000425577164, 0.0, 0.0, 0.0, 0.0, 0.0, 1.6360757084606023E9, 0.0, 2021-11-04 20:28:28.460
36.0, 884.9500871151686, 737.6933963098563, 577.906170703005, 1077.6690017818473, -0.04800000227987766, -0.04800000227987766, 0.8960000425577164, 0.0, 0.0, 0.0, 0.0, 0.0, 1.6360757084606023E9, 0.0, 2021-11-04 20:28:28.460
37.0, 875.0056931329891, 742.7198218503036, 546.4199529760517, 1063.9435689444654, -0.04800000227987766, -0.04800000227987766, 0.8960000425577164, 0.0, 0.0, 0.0, 0.0, 0.0, 1.6360757084742763E9, 0.0, 2021-11-04 20:28:28.474
37.0, 873.4087558519095, 713.5486021959223, 547.912173058372, 1059.6239844956435, -0.04800000227987766, -0.04800000227987766, 0.8960000425577164, 0.0, 0.0, 0.0, 0.0, 0.0, 1.6360757084742763E9, 0.0, 2021-11-04 20:28:28.474
38.0, 872.6458162609488, 726.9187445375137, 548.44323885208, 1073.742106828373, -0.04800000227987766, -0.04800000227987766, 0.8960000425577164, 0.0, 0.0, 0.0, 0.0, 0.0, 1.6360757084898005E9, 0.0, 2021-11-04 20:28:28.489
38.0, 873.1993214543909, 735.4569361363538, 585.9020768082701, 1047.0579206445254, -0.04800000227987766, -0.04800000227987766, 0.8960000425577164, 0.0, 0.0, 0.0, 0.0, 0.0, 1.6360757084898005E9, 0.0, 2021-11-04 20:28:28.489
39.0, 868.7488405071199, 735.2325421390124, 582.4277097494341, 1034.5853542922996, -0.04800000227987766, -0.04800000227987766, 0.8960000425577164, 0.0, 0.0, 0.0, 0.0, 0.0, 1.6360757084905632E9, 0.0, 2021-11-04 20:28:28.490
39.0, 865.8541579414159, 712.9090793034993, 576.9861553139053, 1049.8067471119575, -0.04800000227987766, -0.04800000227987766, 0.8960000425577164, 0.0, 0.0, 0.0, 0.0, 0.0, 1.6360757084905632E9, 0.0, 2021-11-04 20:28:28.490
40.0, 872.4251621635631, 725.8678326499648, 591.354850943666, 1061.8118259697221, -0.04800000227987766, -0.04800000227987766, 0.944000044837594, 0.0, 0.0, 0.0, 0.0, 0.0, 1.6360757085369902E9, 0.0, 2021-11-04 20:28:28.536
40.0, 862.2526342840865, 736.2273555272259, 561.106540102046, 1054.8256928524934, -0.04800000227987766, -0.04800000227987766, 0.944000044837594, 0.0, 0.0, 0.0, 0.0, 0.0, 1.6360757085369902E9, 0.0, 2021-11-04 20:28:28.536
41.0, 872.8814299581572, 746.2128884089179, 574.4430233440362, 1055.143584348727, -0.04800000227987766, -0.04800000227987766, 0.944000044837594, 0.0, 0.0, 0.0, 0.0, 0.0, 1.6360757085376184E9, 0.0, 2021-11-04 20:28:28.537
41.0, 867.1332037262619, 732.1059857760556, 563.8291872697882, 1040.8908256175928, -0.04800000227987766, -0.04800000227987766, 0.944000044837594, 0.0, 0.0, 0.0, 0.0, 0.0, 1.6360757085376184E9, 0.0, 2021-11-04 20:28:28.537
42.0, 873.1282633552328, 730.1200988995843, 546.2703569778241, 1033.893472800497, -0.06400000303983688, -0.04800000227987766, 0.944000044837594, 0.0, 0.0, 0.0, 0.0, 0.0, 1.636075708538362E9, 0.0, 2021-11-04 20:28:28.538
42.0, 877.3767897048965, 730.834419791121, 562.9727501799352, 1037.3154812599532, -0.06400000303983688, -0.04800000227987766, 0.944000044837594, 0.0, 0.0, 0.0, 0.0, 0.0, 1.636075708538362E9, 0.0, 2021-11-04 20:28:28.538
43.0, 874.2016146425158, 708.3277018577792, 563.2719421763904, 1041.201237313915, -0.06400000303983688, -0.04800000227987766, 0.944000044837594, 0.0, 0.0, 0.0, 0.0, 0.0, 1.6360757085391676E9, 0.0, 2021-11-04 20:28:28.539
43.0, 875.4544811276719, 745.416289718356, 572.2925808695145, 1034.8546270891093, -0.06400000303983688, -0.04800000227987766, 0.944000044837594, 0.0, 0.0, 0.0, 0.0, 0.0, 1.6360757085391676E9, 0.0, 2021-11-04 20:28:28.539
44.0, 878.1771282954141, 728.3436464206316, 571.3613457805477, 1033.8859930005856, -0.06400000303983688, -0.04800000227987766, 0.944000044837594, 0.0, 0.0, 0.0, 0.0, 0.0, 1.636075708549911E9, 0.0, 2021-11-04 20:28:28.549
44.0, 874.0071398448199, 740.2103489800356, 576.4513496202417, 1031.3204216309823, -0.06400000303983688, -0.04800000227987766, 0.944000044837594, 0.0, 0.0, 0.0, 0.0, 0.0, 1.636075708549911E9, 0.0, 2021-11-04 20:28:28.549
45.0, 871.4565280750394, 746.923469400499, 592.3122653323226, 996.4196752444841, -0.06400000303983688, -0.04800000227987766, 0.944000044837594, 0.0, 0.0, 0.0, 0.0, 0.0, 1.636075708550696E9, 0.0, 2021-11-04 20:28:28.550
45.0, 876.7784057119861, 751.205654849764, 570.0748201957904, 1005.7619453337975, -0.06400000303983688, -0.04800000227987766, 0.944000044837594, 0.0, 0.0, 0.0, 0.0, 0.0, 1.636075708550696E9, 0.0, 2021-11-04 20:28:28.550
46.0, 876.1276631196961, 728.9794294130988, 576.9861553139053, 1024.0014374176972, -0.06400000303983688, -0.04800000227987766, 0.944000044837594, 0.0, 0.0, 0.0, 0.0, 0.0, 1.636075708564247E9, 0.0, 2021-11-04 20:28:28.564
46.0, 872.3092252649367, 741.2350815678947, 583.8862707321532, 1026.9372588829137, -0.06400000303983688, -0.04800000227987766, 0.944000044837594, 0.0, 0.0, 0.0, 0.0, 0.0, 1.636075708564247E9, 0.0, 2021-11-04 20:28:28.564
47.0, 883.0015992382541, 735.0418072412722, 591.6241237404756, 1020.8636613548733, -0.06400000303983688, -0.04800000227987766, 0.944000044837594, 0.0, 0.0, 0.0, 0.0, 0.0, 1.6360757085799057E9, 0.0, 2021-11-04 20:28:28.579
47.0, 876.7110875127837, 725.1796910581179, 575.0376674369909, 1016.0092712123878, -0.06400000303983688, -0.04800000227987766, 0.944000044837594, 0.0, 0.0, 0.0, 0.0, 0.0, 1.6360757085799057E9, 0.0, 2021-11-04 20:28:28.579
48.0, 876.7933653118089, 724.5588676654734, 573.4968286552466, 1025.6731726978905, -0.06400000303983688, -0.04800000227987766, 0.944000044837594, 0.0, 0.0, 0.0, 0.0, 0.0, 1.6360757085806904E9, 0.0, 2021-11-04 20:28:28.580
48.0, 876.9167820103467, 746.3886637068354, 582.8166593448259, 1013.4511796426959, -0.06400000303983688, -0.04800000227987766, 0.944000044837594, 0.0, 0.0, 0.0, 0.0, 0.0, 1.6360757085806904E9, 0.0, 2021-11-04 20:28:28.580
49.0, 888.9143810681999, 727.1842774343677, 562.4903030856512, 992.5900176898576, -0.06400000303983688, -0.04800000227987766, 0.944000044837594, 0.0, 0.0, 0.0, 0.0, 0.0, 1.6360757086270509E9, 0.0, 2021-11-04 20:28:28.627
49.0, 875.0543118324131, 731.6197987818159, 572.8460860629566, 991.1314567071386, -0.06400000303983688, -0.04800000227987766, 0.944000044837594, 0.0, 0.0, 0.0, 0.0, 0.0, 1.6360757086270509E9, 0.0, 2021-11-04 20:28:28.627
50.0, 892.4485865263268, 759.2875786540098, 570.3253934928216, 1008.3200369034894, -0.06400000303983688, -0.04800000227987766, 0.9760000463575125, 0.0, 0.0, 0.0, 0.0, 0.0, 1.6360757086277976E9, 0.0, 2021-11-04 20:28:28.627
50.0, 890.9376669442281, 747.2338810968213, 569.9214842976071, 994.575904566329, -0.06400000303983688, -0.04800000227987766, 0.9760000463575125, 0.0, 0.0, 0.0, 0.0, 0.0, 1.6360757086277976E9, 0.0, 2021-11-04 20:28:28.627
51.0, 902.1723264111206, 745.6967822150327, 578.7102491934784, 976.7777206772007, -0.06400000303983688, -0.04800000227987766, 0.9760000463575125, 0.0, 0.0, 0.0, 0.0, 0.0, 1.6360757086284888E9, 0.0, 2021-11-04 20:28:28.628
51.0, 882.773465340957, 734.4209838486277, 566.4583369386382, 995.4772204556502, -0.06400000303983688, -0.04800000227987766, 0.9760000463575125, 0.0, 0.0, 0.0, 0.0, 0.0, 1.6360757086284888E9, 0.0, 2021-11-04 20:28:28.628
52.0, 882.4705334445462, 743.9614686355926, 563.8254473698325, 981.0262470268644, -0.06400000303983688, -0.04800000227987766, 0.9760000463575125, 0.0, 0.0, 0.0, 0.0, 0.0, 1.6360757086292155E9, 0.0, 2021-11-04 20:28:28.629
52.0, 895.3844079915434, 722.3897256911732, 579.3497720859013, 987.5000138501637, -0.06400000303983688, -0.04800000227987766, 0.9760000463575125, 0.0, 0.0, 0.0, 0.0, 0.0, 1.6360757086292155E9, 0.0, 2021-11-04 20:28:28.629
53.0, 893.4620994143188, 723.7211300753988, 575.4041776326485, 1002.0706640775315, -0.06400000303983688, -0.04800000227987766, 0.9760000463575125, 0.0, 0.0, 0.0, 0.0, 0.0, 1.6360757086399937E9, 0.0, 2021-11-04 20:28:28.639
53.0, 880.9446542626247, 725.7294563516043, 562.2920883879997, 985.8469780697487, -0.06400000303983688, -0.04800000227987766, 0.9760000463575125, 0.0, 0.0, 0.0, 0.0, 0.0, 1.6360757086399937E9, 0.0, 2021-11-04 20:28:28.639
54.0, 895.317089792341, 740.374904578086, 563.8291872697882, 981.8490250171162, -0.06400000303983688, -0.04800000227987766, 0.9760000463575125, 0.0, 0.0, 0.0, 0.0, 0.0, 1.6360757086406772E9, 0.0, 2021-11-04 20:28:28.640
54.0, 876.9654007097706, 742.5066475528292, 573.3173134573735, 968.7032766728662, -0.06400000303983688, -0.04800000227987766, 0.9760000463575125, 0.0, 0.0, 0.0, 0.0, 0.0, 1.6360757086406772E9, 0.0, 2021-11-04 20:28:28.640
55.0, 885.6868474064395, 744.945062323939, 575.4453165321611, 973.1761970198713, -0.06400000303983688, -0.04800000227987766, 0.9760000463575125, 0.0, 0.0, 0.0, 0.0, 0.0, 1.6360757086543217E9, 0.0, 2021-11-04 20:28:28.654
55.0, 892.1680940296501, 738.7817071969621, 576.9637159141712, 970.3637922531925, -0.06400000303983688, -0.04800000227987766, 0.9760000463575125, 0.0, 0.0, 0.0, 0.0, 0.0, 1.6360757086543217E9, 0.0, 2021-11-04 20:28:28.654
56.0, 885.3577362103388, 738.8116263966076, 557.1908648484387, 982.14073721366, -0.06400000303983688, -0.04800000227987766, 0.9760000463575125, 0.0, 0.0, 0.0, 0.0, 0.0, 1.6360757086699667E9, 0.0, 2021-11-04 20:28:28.669
56.0, 888.0953429779038, 727.6555048287846, 570.1383984950371, 977.3387056705542, -0.06400000303983688, -0.04800000227987766, 0.9760000463575125, 0.0, 0.0, 0.0, 0.0, 0.0, 1.6360757086699667E9, 0.0, 2021-11-04 20:28:28.669
57.0, 887.3885018862784, 721.608086600434, 568.7621153113432, 944.595881558489, -0.06400000303983688, -0.04800000227987766, 0.9760000463575125, 0.0, 0.0, 0.0, 0.0, 0.0, 1.6360757086706977E9, 0.0, 2021-11-04 20:28:28.670
57.0, 888.1327419774607, 722.6328191882931, 585.6889025107957, 972.1739038317464, -0.06400000303983688, -0.04800000227987766, 0.9760000463575125, 0.0, 0.0, 0.0, 0.0, 0.0, 1.6360757086706977E9, 0.0, 2021-11-04 20:28:28.670
58.0, 887.6615145830438, 736.8668784196489, 573.5865862541832, 982.9934344035573, -0.06400000303983688, -0.04800000227987766, 0.9760000463575125, 0.0, 0.0, 0.0, 0.0, 0.0, 1.636075708716998E9, 0.0, 2021-11-04 20:28:28.716
58.0, 878.3267242936417, 732.981122365687, 583.0036543426104, 974.9713489986025, -0.06400000303983688, -0.04800000227987766, 0.9760000463575125, 0.0, 0.0, 0.0, 0.0, 0.0, 1.636075708716998E9, 0.0, 2021-11-04 20:28:28.716
59.0, 880.8062779642642, 732.6407914697193, 579.6527039823122, 971.2351889428683, -0.06400000303983688, -0.04800000227987766, 0.9760000463575125, 0.0, 0.0, 0.0, 0.0, 0.0, 1.6360757087177148E9, 0.0, 2021-11-04 20:28:28.717
59.0, 876.8793830107898, 715.0557818780653, 571.1070325835608, 974.4889019043185, -0.06400000303983688, -0.04800000227987766, 0.9760000463575125, 0.0, 0.0, 0.0, 0.0, 0.0, 1.6360757087177148E9, 0.0, 2021-11-04 20:28:28.717
60.0, 888.8657623687759, 717.097767253872, 562.6511187837459, 975.1022454970516, -0.06400000303983688, -0.04800000227987766, 0.9920000471174717, 0.0, 0.0, 0.0, 0.0, 0.0, 1.6360757087184408E9, 0.0, 2021-11-04 20:28:28.718
60.0, 878.7268935889006, 726.903784937691, 542.2724039251916, 965.5767203099094, -0.06400000303983688, -0.04800000227987766, 0.9920000471174717, 0.0, 0.0, 0.0, 0.0, 0.0, 1.6360757087184408E9, 0.0, 2021-11-04 20:28:28.718
61.0, 892.7664780225605, 736.2236156272702, 580.909310367424, 968.5686402744614, -0.06400000303983688, -0.04800000227987766, 0.9920000471174717, 0.0, 0.0, 0.0, 0.0, 0.0, 1.6360757087191854E9, 0.0, 2021-11-04 20:28:28.719
61.0, 877.1823149072006, 731.5786598823033, 584.1256243293174, 981.6994290188886, -0.06400000303983688, -0.04800000227987766, 0.9920000471174717, 0.0, 0.0, 0.0, 0.0, 0.0, 1.6360757087191854E9, 0.0, 2021-11-04 20:28:28.719
62.0, 888.4880324732512, 716.9556510555558, 585.6889025107957, 988.4088095393963, -0.06400000303983688, -0.04800000227987766, 0.9920000471174717, 0.0, 0.0, 0.0, 0.0, 0.0, 1.636075708729965E9, 0.0, 2021-11-04 20:28:28.729
62.0, 886.416127897799, 724.611226264853, 576.9188371147029, 967.7084632846527, -0.06400000303983688, -0.04800000227987766, 0.9920000471174717, 0.0, 0.0, 0.0, 0.0, 0.0, 1.636075708729965E9, 0.0, 2021-11-04 20:28:28.729
63.0, 876.6512491134927, 751.964854540769, 577.4686024081893, 979.72850174224, -0.06400000303983688, -0.04800000227987766, 0.9920000471174717, 0.0, 0.0, 0.0, 0.0, 0.0, 1.636075708730728E9, 0.0, 2021-11-04 20:28:28.730
63.0, 886.2852313993499, 745.7154817148112, 569.7195296999998, 973.0079015218653, -0.06400000303983688, -0.04800000227987766, 0.9920000471174717, 0.0, 0.0, 0.0, 0.0, 0.0, 1.636075708730728E9, 0.0, 2021-11-04 20:28:28.730
64.0, 887.9681863794103, 731.8367129792459, 568.4367440151982, 977.31626627082, -0.06400000303983688, -0.04800000227987766, 0.9920000471174717, 0.0, 0.0, 0.0, 0.0, 0.0, 1.6360757087442615E9, 0.0, 2021-11-04 20:28:28.744
64.0, 886.5806834958494, 731.2458087862469, 572.853565862868, 980.6559969312511, -0.06400000303983688, -0.04800000227987766, 0.9920000471174717, 0.0, 0.0, 0.0, 0.0, 0.0, 1.6360757087442615E9, 0.0, 2021-11-04 20:28:28.744
65.0, 880.8025380643085, 725.7855548509397, 560.3623000108637, 986.1162508665584, -0.06400000303983688, -0.04800000227987766, 0.9920000471174717, 0.0, 0.0, 0.0, 0.0, 0.0, 1.6360757087599423E9, 0.0, 2021-11-04 20:28:28.759
65.0, 886.8162971930578, 725.6322189527564, 562.1462322897278, 983.1355506018735, -0.06400000303983688, -0.04800000227987766, 0.9920000471174717, 0.0, 0.0, 0.0, 0.0, 0.0, 1.6360757087599423E9, 0.0, 2021-11-04 20:28:28.759
66.0, 885.4175746096298, 712.381753409747, 552.4636313044466, 980.8841308285482, -0.06400000303983688, -0.04800000227987766, 0.9920000471174717, 0.0, 0.0, 0.0, 0.0, 0.0, 1.6360757087606733E9, 0.0, 2021-11-04 20:28:28.760
66.0, 881.5617377553135, 711.0279096257873, 555.5303492681123, 988.2928726407699, -0.06400000303983688, -0.04800000227987766, 0.9920000471174717, 0.0, 0.0, 0.0, 0.0, 0.0, 1.6360757087606733E9, 0.0, 2021-11-04 20:28:28.760
67.0, 877.8330574994907, 709.3898334451951, 556.704677854199, 977.0769126736559, -0.06400000303983688, -0.04800000227987766, 0.9920000471174717, 0.0, 0.0, 0.0, 0.0, 0.0, 1.6360757088074777E9, 0.0, 2021-11-04 20:28:28.807
67.0, 888.8059239694849, 708.4062397568487, 554.8983061756007, 982.1070781140588, -0.06400000303983688, -0.04800000227987766, 0.9920000471174717, 0.0, 0.0, 0.0, 0.0, 0.0, 1.6360757088074777E9, 0.0, 2021-11-04 20:28:28.807
68.0, 887.706393382512, 715.3026152751409, 559.1056936257519, 998.1101100244559, -0.06400000303983688, -0.04800000227987766, 0.9920000471174717, 0.0, 0.0, 0.0, 0.0, 0.0, 1.6360757088081822E9, 0.0, 2021-11-04 20:28:28.808
68.0, 881.3336038580164, 711.2298642233945, 542.7810303191654, 976.8113797768019, -0.06400000303983688, -0.04800000227987766, 0.9920000471174717, 0.0, 0.0, 0.0, 0.0, 0.0, 1.6360757088081822E9, 0.0, 2021-11-04 20:28:28.808
69.0, 892.0745965307578, 716.0767745659687, 539.5684562572278, 990.3872166159563, -0.06400000303983688, -0.04800000227987766, 0.9920000471174717, 0.0, 0.0, 0.0, 0.0, 0.0, 1.6360757088089483E9, 0.0, 2021-11-04 20:28:28.808
69.0, 895.8219762863591, 708.5034771556966, 557.4489179453813, 994.8489172630943, -0.06400000303983688, -0.04800000227987766, 0.9920000471174717, 0.0, 0.0, 0.0, 0.0, 0.0, 1.6360757088089483E9, 0.0, 2021-11-04 20:28:28.808
70.0, 880.2490328708664, 709.9171593389474, 561.4431310980581, 995.757712952327, -0.06400000303983688, -0.04800000227987766, 0.9920000471174717, 0.0, 0.0, 0.0, 0.0, 0.0, 1.6360757088097322E9, 0.0, 2021-11-04 20:28:28.809
70.0, 875.6676554251462, 716.8023151573725, 575.6547509296797, 995.3089249576442, -0.06400000303983688, -0.04800000227987766, 0.9920000471174717, 0.0, 0.0, 0.0, 0.0, 0.0, 1.6360757088097322E9, 0.0, 2021-11-04 20:28:28.809
71.0, 891.5884095365182, 713.8328345925547, 586.2760668038391, 1007.4785594134592, -0.06400000303983688, -0.04800000227987766, 0.9920000471174717, 0.0, 0.0, 0.0, 0.0, 0.0, 1.636075708837098E9, 0.0, 2021-11-04 20:28:28.837
71.0, 888.5777900721878, 714.5134963844903, 564.0947201666422, 1004.826970344875, -0.06400000303983688, -0.04800000227987766, 0.9920000471174717, 0.0, 0.0, 0.0, 0.0, 0.0, 1.636075708837098E9, 0.0, 2021-11-04 20:28:28.837
72.0, 883.5588443316519, 729.9742428013124, 556.8991526518948, 997.0704178367741, -0.04800000227987766, -0.04800000227987766, 0.9920000471174717, 0.0, 0.0, 0.0, 0.0, 0.0, 1.6360757088377798E9, 0.0, 2021-11-04 20:28:28.837
72.0, 889.2247927645221, 708.4099796568044, 545.2718036896549, 999.411595209036, -0.04800000227987766, -0.04800000227987766, 0.9920000471174717, 0.0, 0.0, 0.0, 0.0, 0.0, 1.6360757088377798E9, 0.0, 2021-11-04 20:28:28.837
73.0, 884.1273091249168, 724.985216260422, 566.0207686438225, 1013.4362200428732, -0.04800000227987766, -0.04800000227987766, 0.9920000471174717, 0.0, 0.0, 0.0, 0.0, 0.0, 1.6360757088385127E9, 0.0, 2021-11-04 20:28:28.838
73.0, 884.9762664148584, 720.7292101108469, 575.5163746313192, 993.3566971807741, -0.04800000227987766, -0.04800000227987766, 0.9920000471174717, 0.0, 0.0, 0.0, 0.0, 0.0, 1.6360757088385127E9, 0.0, 2021-11-04 20:28:28.838
74.0, 885.3278170106933, 733.6318649579771, 559.9883100152947, 991.090317807626, -0.04800000227987766, -0.04800000227987766, 0.9920000471174717, 0.0, 0.0, 0.0, 0.0, 0.0, 1.636075708839314E9, 0.0, 2021-11-04 20:28:28.839
74.0, 876.804585011676, 704.7373979003169, 569.801807499025, 981.7405679184012, -0.04800000227987766, -0.04800000227987766, 0.9920000471174717, 0.0, 0.0, 0.0, 0.0, 0.0, 1.636075708839314E9, 0.0, 2021-11-04 20:28:28.839
75.0, 881.5617377553135, 720.3440004154108, 563.2083638771437, 998.9216683148406, -0.04800000227987766, -0.04800000227987766, 0.9920000471174717, 0.0, 0.0, 0.0, 0.0, 0.0, 1.6360757088493297E9, 0.0, 2021-11-04 20:28:28.849
75.0, 883.0763972373679, 715.6279865712859, 558.911218828056, 992.7096944884397, -0.04800000227987766, -0.04800000227987766, 0.9920000471174717, 0.0, 0.0, 0.0, 0.0, 0.0, 1.6360757088493297E9, 0.0, 2021-11-04 20:28:28.849
76.0, 866.6806758316234, 723.2461627810262, 581.3767978618853, 997.0741577367298, -0.04800000227987766, -0.04800000227987766, 0.9920000471174717, 0.0, 0.0, 0.0, 0.0, 0.0, 1.636075708864251E9, 0.0, 2021-11-04 20:28:28.864
76.0, 875.0056931329891, 733.3925113608129, 589.1183907701634, 1011.5587902651168, -0.04800000227987766, -0.04800000227987766, 0.9920000471174717, 0.0, 0.0, 0.0, 0.0, 0.0, 1.636075708864251E9, 0.0, 2021-11-04 20:28:28.864
77.0, 865.1734961494803, 726.1371054467745, 566.8248471342959, 1002.0631842776202, -0.04800000227987766, -0.04800000227987766, 0.9920000471174717, 0.0, 0.0, 0.0, 0.0, 0.0, 1.6360757088965075E9, 0.0, 2021-11-04 20:28:28.896
77.0, 870.9628612808883, 717.5054163490422, 567.004362332169, 1003.0355582660995, -0.04800000227987766, -0.04800000227987766, 0.9920000471174717, 0.0, 0.0, 0.0, 0.0, 0.0, 1.6360757088965075E9, 0.0, 2021-11-04 20:28:28.896
78.0, 870.375696987845, 742.9479557476006, 555.8669402641244, 1012.1422146582045, -0.04800000227987766, -0.04800000227987766, 0.9920000471174717, 0.0, 0.0, 0.0, 0.0, 0.0, 1.636075708896777E9, 0.0, 2021-11-04 20:28:28.896
78.0, 859.5374669162557, 740.1841696803458, 568.1487717186101, 1002.1828610762022, -0.04800000227987766, -0.04800000227987766, 0.9920000471174717, 0.0, 0.0, 0.0, 0.0, 0.0, 1.636075708896777E9, 0.0, 2021-11-04 20:28:28.896
79.0, 875.0617916323245, 723.8819457734935, 573.4631695556454, 1010.8856082730927, -0.04800000227987766, -0.04800000227987766, 0.9920000471174717, 0.0, 0.0, 0.0, 0.0, 0.0, 1.6360757089105835E9, 0.0, 2021-11-04 20:28:28.910
79.0, 852.8505257954821, 715.8748199683614, 553.1143738967367, 1010.1189287821762, -0.04800000227987766, -0.04800000227987766, 0.9920000471174717, 0.0, 0.0, 0.0, 0.0, 0.0, 1.6360757089105835E9, 0.0, 2021-11-04 20:28:28.910
80.0, 858.4566358290613, 718.4927499373443, 564.9474173565395, 1004.8232304449193, -0.04800000227987766, -0.04800000227987766, 1.008000047877431, 0.0, 0.0, 0.0, 0.0, 0.0, 1.636075708911292E9, 0.0, 2021-11-04 20:28:28.911
80.0, 852.1137655042112, 730.5988060939126, 584.8586447206326, 1013.6381746404804, -0.04800000227987766, -0.04800000227987766, 1.008000047877431, 0.0, 0.0, 0.0, 0.0, 0.0, 1.636075708911292E9, 0.0, 2021-11-04 20:28:28.911
81.0, 850.801060619764, 738.613411698956, 592.1215304345824, 1025.2505640028976, -0.04800000227987766, -0.04800000227987766, 1.008000047877431, 0.0, 0.0, 0.0, 0.0, 0.0, 1.63607570891214E9, 0.0, 2021-11-04 20:28:28.912
81.0, 853.4040309889242, 749.649856468197, 609.0894565335475, 1023.762083820533, -0.04800000227987766, -0.04800000227987766, 1.008000047877431, 0.0, 0.0, 0.0, 0.0, 0.0, 1.63607570891214E9, 0.0, 2021-11-04 20:28:28.912
82.0, 840.344300343655, 754.7249007080682, 589.85889096139, 1009.1465547936969, -0.06400000303983688, -0.04800000227987766, 1.008000047877431, 0.0, 0.0, 0.0, 0.0, 0.0, 1.6360757089403763E9, 0.0, 2021-11-04 20:28:28.940
82.0, 854.8214530721307, 762.3580365176313, 594.2233542096801, 1018.6421607811935, -0.06400000303983688, -0.04800000227987766, 1.008000047877431, 0.0, 0.0, 0.0, 0.0, 0.0, 1.6360757089403763E9, 0.0, 2021-11-04 20:28:28.940
83.0, 841.6869244277477, 766.7075401660986, 614.7815842661075, 1017.7745039914735, -0.06400000303983688, -0.04800000227987766, 1.008000047877431, 0.0, 0.0, 0.0, 0.0, 0.0, 1.6360757089556174E9, 0.0, 2021-11-04 20:28:28.955
83.0, 850.9132576184347, 779.8458087104373, 602.6979675092734, 1017.9914181889035, -0.06400000303983688, -0.04800000227987766, 1.008000047877431, 0.0, 0.0, 0.0, 0.0, 0.0, 1.6360757089556174E9, 0.0, 2021-11-04 20:28:28.955
84.0, 850.7225227206945, 778.9594524209388, 648.7585753635503, 1030.6061007394455, -0.06400000303983688, -0.04800000227987766, 1.008000047877431, 0.0, 0.0, 0.0, 0.0, 0.0, 1.636075708956368E9, 0.0, 2021-11-04 20:28:28.956
84.0, 852.1249852040783, 802.9845697362907, 677.877436418552, 1033.0220761108212, -0.06400000303983688, -0.04800000227987766, 1.008000047877431, 0.0, 0.0, 0.0, 0.0, 0.0, 1.636075708956368E9, 0.0, 2021-11-04 20:28:28.956
85.0, 847.5024688588455, 833.9958201688714, 704.4756049034186, 1028.5528956637718, -0.06400000303983688, -0.04800000227987766, 1.008000047877431, 0.0, 0.0, 0.0, 0.0, 0.0, 1.636075708957073E9, 0.0, 2021-11-04 20:28:28.957
85.0, 863.1988289728761, 910.7123879599385, 737.420383613091, 996.505692943465, -0.06400000303983688, -0.04800000227987766, 1.008000047877431, 0.0, 0.0, 0.0, 0.0, 0.0, 1.636075708957073E9, 0.0, 2021-11-04 20:28:28.957
86.0, 873.6032306496054, 920.1294560483657, 774.1125420783646, 1046.4744962514378, -0.06400000303983688, -0.04800000227987766, 1.008000047877431, 0.0, 0.0, 0.0, 0.0, 0.0, 1.636075708987066E9, 0.0, 2021-11-04 20:28:28.987
86.0, 865.0799986505881, 939.326362520922, 773.9367667804472, 1045.2478090659715, -0.06400000303983688, -0.04800000227987766, 1.008000047877431, 0.0, 0.0, 0.0, 0.0, 0.0, 1.636075708987066E9, 0.0, 2021-11-04 20:28:28.987
87.0, 859.8179594129324, 932.4823456020094, 800.3180210678838, 1048.800714023877, -0.06400000303983688, -0.04800000227987766, 1.008000047877431, 0.0, 0.0, 0.0, 0.0, 0.0, 1.6360757089877615E9, 0.0, 2021-11-04 20:28:28.987
87.0, 875.368463428691, 931.8166434098966, 814.8662318955176, 1044.4025916759856, -0.06400000303983688, -0.04800000227987766, 1.008000047877431, 0.0, 0.0, 0.0, 0.0, 0.0, 1.6360757089877615E9, 0.0, 2021-11-04 20:28:28.987
88.0, 869.6613760963082, 956.4513644180261, 847.388401910197, 1068.4912872905843, -0.06400000303983688, -0.04800000227987766, 1.008000047877431, 0.0, 0.0, 0.0, 0.0, 0.0, 1.6360757089885192E9, 0.0, 2021-11-04 20:28:28.988
88.0, 870.798305682838, 991.9691942972131, 848.147601601202, 1056.3478321344592, -0.06400000303983688, -0.04800000227987766, 1.008000047877431, 0.0, 0.0, 0.0, 0.0, 0.0, 1.6360757089885192E9, 0.0, 2021-11-04 20:28:28.988
89.0, 871.3705103760585, 1011.5363508653827, 855.9677324085496, 1036.197251173202, -0.06400000303983688, -0.04800000227987766, 1.008000047877431, 0.0, 0.0, 0.0, 0.0, 0.0, 1.6360757089892547E9, 0.0, 2021-11-04 20:28:28.989
89.0, 875.1141502317041, 993.3492173808627, 863.8851006147452, 1043.190864090342, -0.06400000303983688, -0.04800000227987766, 1.008000047877431, 0.0, 0.0, 0.0, 0.0, 0.0, 1.6360757089892547E9, 0.0, 2021-11-04 20:28:28.989
90.0, 876.1052237199619, 983.696535595227, 828.5879248329438, 1039.005916039925, -0.06400000303983688, -0.04800000227987766, 1.008000047877431, 0.0, 0.0, 0.0, 0.0, 0.0, 1.6360757090005808E9, 0.0, 2021-11-04 20:28:29.000
90.0, 884.6396754188463, 957.9585441001691, 820.0684327338822, 1054.88927115174, -0.06400000303983688, -0.04800000227987766, 1.008000047877431, 0.0, 0.0, 0.0, 0.0, 0.0, 1.6360757090005808E9, 0.0, 2021-11-04 20:28:29.000
91.0, 895.9229535851628, 958.7813220904209, 818.8155662487261, 1057.0995520255528, -0.06400000303983688, -0.04800000227987766, 1.008000047877431, 0.0, 0.0, 0.0, 0.0, 0.0, 1.636075709014284E9, 0.0, 2021-11-04 20:28:29.014
91.0, 899.0233306484297, 932.9573128963821, 833.2927189772017, 1064.9645616323687, -0.06400000303983688, -0.04800000227987766, 1.008000047877431, 0.0, 0.0, 0.0, 0.0, 0.0, 1.636075709014284E9, 0.0, 2021-11-04 20:28:29.014
92.0, 876.2660394180566, 933.7501716869883, 831.6658624964766, 1050.52480790345, -0.04800000227987766, -0.04800000227987766, 1.008000047877431, 0.0, 0.0, 0.0, 0.0, 0.0, 1.636075709030317E9, 0.0, 2021-11-04 20:28:29.030
92.0, 882.2386596472934, 961.6124263568781, 810.1913569509052, 1065.8247386221774, -0.04800000227987766, -0.04800000227987766, 1.008000047877431, 0.0, 0.0, 0.0, 0.0, 0.0, 1.636075709030317E9, 0.0, 2021-11-04 20:28:29.030
93.0, 903.1073014000431, 970.6330650500022, 815.2514415909536, 1062.8103792578913, -0.04800000227987766, -0.04800000227987766, 1.008000047877431, 0.0, 0.0, 0.0, 0.0, 0.0, 1.636075709044962E9, 0.0, 2021-11-04 20:28:29.044
93.0, 885.9374207034707, 936.5924956533127, 781.3268090928905, 1059.8820375925861, -0.04800000227987766, -0.04800000227987766, 1.008000047877431, 0.0, 0.0, 0.0, 0.0, 0.0, 1.636075709044962E9, 0.0, 2021-11-04 20:28:29.044
94.0, 896.6335345767438, 909.1939885779284, 733.6917033572681, 1052.817366576288, -0.04800000227987766, -0.04800000227987766, 1.008000047877431, 0.0, 0.0, 0.0, 0.0, 0.0, 1.6360757090457044E9, 0.0, 2021-11-04 20:28:29.045
94.0, 899.6404141411185, 903.8010528418235, 780.4815917029046, 1058.9807217032649, -0.04800000227987766, -0.04800000227987766, 1.008000047877431, 0.0, 0.0, 0.0, 0.0, 0.0, 1.6360757090457044E9, 0.0, 2021-11-04 20:28:29.045
95.0, 896.5101178782061, 900.5922186798416, 770.4736194214784, 1054.9229302513413, -0.04800000227987766, -0.04800000227987766, 1.008000047877431, 0.0, 0.0, 0.0, 0.0, 0.0, 1.6360757091054084E9, 0.0, 2021-11-04 20:28:29.105
95.0, 895.9640924846753, 879.686177927535, 725.4863628544845, 1059.6127647957765, -0.04800000227987766, -0.04800000227987766, 1.008000047877431, 0.0, 0.0, 0.0, 0.0, 0.0, 1.6360757091054084E9, 0.0, 2021-11-04 20:28:29.105
96.0, 900.6165280295536, 854.1912799295969, 663.6396372872405, 1057.701675918419, -0.04800000227987766, -0.04800000227987766, 1.008000047877431, 0.0, 0.0, 0.0, 0.0, 0.0, 1.6360757091061268E9, 0.0, 2021-11-04 20:28:29.106
96.0, 902.9352660020813, 860.9791983491741, 701.0909954435192, 1065.3796905274503, -0.04800000227987766, -0.04800000227987766, 1.008000047877431, 0.0, 0.0, 0.0, 0.0, 0.0, 1.6360757091061268E9, 0.0, 2021-11-04 20:28:29.106
97.0, 896.9888250725344, 823.3258855952881, 673.7560666673817, 1052.4022376812063, -0.04800000227987766, -0.04800000227987766, 1.008000047877431, 0.0, 0.0, 0.0, 0.0, 0.0, 1.636075709136886E9, 0.0, 2021-11-04 20:28:29.136
97.0, 895.2722109928727, 832.9449082813226, 664.58583197603, 1045.5731803621165, -0.04800000227987766, -0.04800000227987766, 1.008000047877431, 0.0, 0.0, 0.0, 0.0, 0.0, 1.636075709136886E9, 0.0, 2021-11-04 20:28:29.136
98.0, 901.5963818179443, 798.676204987336, 670.1321036103182, 1057.892410816159, -0.04800000227987766, -0.04800000227987766, 1.008000047877431, 0.0, 0.0, 0.0, 0.0, 0.0, 1.6360757091376553E9, 0.0, 2021-11-04 20:28:29.137
98.0, 878.9886865857989, 780.7246852000244, 649.3083406570368, 1045.4310641638003, -0.04800000227987766, -0.04800000227987766, 1.008000047877431, 0.0, 0.0, 0.0, 0.0, 0.0, 1.6360757091376553E9, 0.0, 2021-11-04 20:28:29.137
99.0, 897.2057392699644, 788.9898641020991, 653.3511725091375, 1041.2760353130288, -0.04800000227987766, -0.04800000227987766, 1.008000047877431, 0.0, 0.0, 0.0, 0.0, 0.0, 1.6360757091384013E9, 0.0, 2021-11-04 20:28:29.138
99.0, 869.953088292852, 802.498382742051, 625.7469709361903, 1043.07118729176, -0.04800000227987766, -0.04800000227987766, 1.008000047877431, 0.0, 0.0, 0.0, 0.0, 0.0, 1.6360757091384013E9, 0.0, 2021-11-04 20:28:29.138
100.0, 887.6016761837527, 778.9519726210274, 612.2571517960168, 1025.0710488050245, -0.04800000227987766, -0.04800000227987766, 1.008000047877431, 0.0, 0.0, 0.0, 0.0, 0.0, 1.6360757091391218E9, 0.0, 2021-11-04 20:28:29.139
100.0, 889.961553055793, 771.9434001040645, 608.8276635366492, 1027.5917413751595, -0.04800000227987766, -0.04800000227987766, 1.008000047877431, 0.0, 0.0, 0.0, 0.0, 0.0, 1.6360757091391218E9, 0.0, 2021-11-04 20:28:29.139
0.0, 890.9114876445383, 762.0999834206887, 585.37288096454, 1053.2287555714138, -0.04800000227987766, -0.04800000227987766, 1.008000047877431, 0.0, 0.0, 0.0, 0.0, 0.0, 1.6360757091826916E9, 0.0, 2021-11-04 20:28:29.182
1.0, 878.9886865857989, 757.1371361794882, 584.8754742704332, 1050.3826917051338, -0.04800000227987766, -0.04800000227987766, 1.008000047877431, 0.0, 0.0, 0.0, 0.0, 0.0, 1.636075709183462E9, 0.0, 2021-11-04 20:28:29.183
1.0, 881.4495407566428, 742.4916879530065, 556.740206903778, 1041.504169210326, -0.04800000227987766, -0.04800000227987766, 1.008000047877431, 0.0, 0.0, 0.0, 0.0, 0.0, 1.636075709183462E9, 0.0, 2021-11-04 20:28:29.183
4.0, 880.8735961634666, 736.2273555272259, 563.9656936181709, 1044.3203138769604, -0.04800000227987766, -0.04800000227987766, 1.008000047877431, 0.0, 0.0, 0.0, 0.0, 0.0, 1.6360757091841493E9, 0.0, 2021-11-04 20:28:29.184
4.0, 872.4438616633415, 744.7954663257115, 580.7989833187312, 1053.3970510694198, -0.04800000227987766, -0.04800000227987766, 1.008000047877431, 0.0, 0.0, 0.0, 0.0, 0.0, 1.6360757091841493E9, 0.0, 2021-11-04 20:28:29.184
5.0, 875.2450467301533, 736.575166223105, 561.4599606478587, 1030.744477037806, -0.04800000227987766, -0.04800000227987766, 1.008000047877431, 0.0, 0.0, 0.0, 0.0, 0.0, 1.6360757091848888E9, 0.0, 2021-11-04 20:28:29.184
5.0, 879.8787827752531, 727.8462397265248, 564.784731708467, 1056.8040999290533, -0.04800000227987766, -0.04800000227987766, 1.008000047877431, 0.0, 0.0, 0.0, 0.0, 0.0, 1.6360757091848888E9, 0.0, 2021-11-04 20:28:29.184
6.0, 883.0128189381212, 711.248563723173, 559.851803666912, 1060.704815582838, -0.04800000227987766, -0.04800000227987766, 1.008000047877431, 0.0, 0.0, 0.0, 0.0, 0.0, 1.6360757092720275E9, 0.0, 2021-11-04 20:28:29.272
6.0, 877.3842695048079, 710.9979904261418, 549.5371595891193, 1050.150817907881, -0.04800000227987766, -0.04800000227987766, 1.008000047877431, 0.0, 0.0, 0.0, 0.0, 0.0, 1.6360757092720275E9, 0.0, 2021-11-04 20:28:29.272
7.0, 882.5602910434827, 681.325624177698, 530.508548614569, 1044.9785362691619, -0.04800000227987766, -0.04800000227987766, 1.008000047877431, 0.0, 0.0, 0.0, 0.0, 0.0, 1.636075709272736E9, 0.0, 2021-11-04 20:28:29.272
7.0, 871.1797754783183, 733.3850315609016, 548.5984447002411, 1046.1678244550712, -0.04800000227987766, -0.04800000227987766, 1.008000047877431, 0.0, 0.0, 0.0, 0.0, 0.0, 1.636075709272736E9, 0.0, 2021-11-04 20:28:29.272
8.0, 871.8641771702096, 735.5092947357334, 554.9487948250026, 1040.9431842169724, -0.04800000227987766, -0.04800000227987766, 1.008000047877431, 0.0, 0.0, 0.0, 0.0, 0.0, 1.6360757092734256E9, 0.0, 2021-11-04 20:28:29.273
8.0, 875.7723726239055, 703.5069708148949, 547.6933889109641, 1032.434911817778, -0.04800000227987766, -0.04800000227987766, 1.008000047877431, 0.0, 0.0, 0.0, 0.0, 0.0, 1.6360757092734256E9, 0.0, 2021-11-04 20:28:29.273
9.0, 887.863469180651, 715.3474940746091, 515.9603377869353, 1040.3111411244608, -0.04800000227987766, -0.04800000227987766, 1.008000047877431, 0.0, 0.0, 0.0, 0.0, 0.0, 1.6360757092741544E9, 0.0, 2021-11-04 20:28:29.274
9.0, 883.6037231311202, 699.2921035648324, 560.4539275597781, 1040.3522800239734, -0.04800000227987766, -0.04800000227987766, 1.008000047877431, 0.0, 0.0, 0.0, 0.0, 0.0, 1.6360757092741544E9, 0.0, 2021-11-04 20:28:29.274
10.0, 882.1040232488886, 718.485270137433, 558.3184446850792, 1042.6373588969, -0.04800000227987766, -0.04800000227987766, 1.008000047877431, 0.0, 0.0, 0.0, 0.0, 0.0, 1.6360757092848687E9, 0.0, 2021-11-04 20:28:29.284
10.0, 882.9679401386529, 718.7246237345971, 563.9357744185254, 1030.516343140509, -0.04800000227987766, -0.04800000227987766, 1.008000047877431, 0.0, 0.0, 0.0, 0.0, 0.0, 1.6360757092848687E9, 0.0, 2021-11-04 20:28:29.284
11.0, 877.8854160988703, 699.5314571619965, 535.755628252402, 1052.4396366807632, -0.04800000227987766, -0.04800000227987766, 1.008000047877431, 0.0, 0.0, 0.0, 0.0, 0.0, 1.6360757093169627E9, 0.0, 2021-11-04 20:28:29.316
11.0, 872.847770858556, 695.0099181155674, 539.8022000044584, 1035.9653773759492, -0.04800000227987766, -0.04800000227987766, 1.008000047877431, 0.0, 0.0, 0.0, 0.0, 0.0, 1.6360757093169627E9, 0.0, 2021-11-04 20:28:29.316
12.0, 879.2467396827415, 706.2445775824599, 541.5449933838099, 1046.13416535547, -0.04800000227987766, -0.04800000227987766, 1.008000047877431, 0.0, 0.0, 0.0, 0.0, 0.0, 1.636075709317675E9, 0.0, 2021-11-04 20:28:29.317
12.0, 870.5140732862055, 712.6659858063795, 560.9588140537962, 1053.3297328702174, -0.04800000227987766, -0.04800000227987766, 1.008000047877431, 0.0, 0.0, 0.0, 0.0, 0.0, 1.636075709317675E9, 0.0, 2021-11-04 20:28:29.317
18.0, 862.4994676811621, 712.4752509086393, 566.7706185849383, 1043.4002984878607, -0.04800000227987766, -0.04800000227987766, 1.008000047877431, 0.0, 0.0, 0.0, 0.0, 0.0, 1.6360757093184392E9, 0.0, 2021-11-04 20:28:29.318
18.0, 873.6967281484976, 721.1368592060171, 564.3359437137842, 1032.9098791121505, -0.04800000227987766, -0.04800000227987766, 1.008000047877431, 0.0, 0.0, 0.0, 0.0, 0.0, 1.6360757093184392E9, 0.0, 2021-11-04 20:28:29.318
19.0, 854.1557508800179, 700.2308184537105, 577.8295027539134, 1030.239590543788, -0.04800000227987766, -0.04800000227987766, 1.008000047877431, 0.0, 0.0, 0.0, 0.0, 0.0, 1.6360757093191657E9, 0.0, 2021-11-04 20:28:29.319
19.0, 847.7119032563642, 706.5587291787378, 570.4544200412929, 1044.0622607800178, -0.04800000227987766, -0.04800000227987766, 1.008000047877431, 0.0, 0.0, 0.0, 0.0, 0.0, 1.6360757093191657E9, 0.0, 2021-11-04 20:28:29.319
20.0, 873.2329805539921, 721.7950815982185, 568.1730810683221, 1035.1201599859633, -0.04800000227987766, -0.04800000227987766, 1.008000047877431, 0.0, 0.0, 0.0, 0.0, 0.0, 1.63607570936206E9, 0.0, 2021-11-04 20:28:29.362
20.0, 884.6995138181373, 694.3479558234103, 579.9911649283022, 1036.3992057708092, -0.04800000227987766, -0.04800000227987766, 1.008000047877431, 0.0, 0.0, 0.0, 0.0, 0.0, 1.63607570936206E9, 0.0, 2021-11-04 20:28:29.362
21.0, 874.0557585442439, 704.9131731982343, 583.7161052841693, 1049.8291865116917, -0.04800000227987766, -0.04800000227987766, 1.008000047877431, 0.0, 0.0, 0.0, 0.0, 0.0, 1.6360757093626547E9, 0.0, 2021-11-04 20:28:29.362
21.0, 872.4363818634301, 711.622553718742, 582.9269863935187, 1012.6919799516909, -0.04800000227987766, -0.04800000227987766, 1.008000047877431, 0.0, 0.0, 0.0, 0.0, 0.0, 1.6360757093626547E9, 0.0, 2021-11-04 20:28:29.362
22.0, 878.5211990913376, 701.2667707414366, 583.5814688857645, 1033.9570510997437, -0.04800000227987766, -0.04800000227987766, 1.008000047877431, 0.0, 0.0, 0.0, 0.0, 0.0, 1.636075709363503E9, 0.0, 2021-11-04 20:28:29.363
22.0, 870.6786288842559, 709.5917880428024, 580.0136043280363, 1034.761129590217, -0.04800000227987766, -0.04800000227987766, 1.008000047877431, 0.0, 0.0, 0.0, 0.0, 0.0, 1.636075709363503E9, 0.0, 2021-11-04 20:28:29.363
23.0, 869.6015376970172, 689.9124344759621, 572.4739660173655, 1038.1569587499835, -0.04800000227987766, -0.04800000227987766, 1.008000047877431, 0.0, 0.0, 0.0, 0.0, 0.0, 1.6360757093643064E9, 0.0, 2021-11-04 20:28:29.364
23.0, 872.8028920590878, 717.2735425517894, 557.596643993631, 1037.5398752572946, -0.04800000227987766, -0.04800000227987766, 1.008000047877431, 0.0, 0.0, 0.0, 0.0, 0.0, 1.6360757093643064E9, 0.0, 2021-11-04 20:28:29.364
24.0, 873.0235461564735, 717.9018457443453, 560.9550741538405, 1042.551341197919, -0.04800000227987766, -0.04800000227987766, 1.008000047877431, 0.0, 0.0, 0.0, 0.0, 0.0, 1.636075709376335E9, 0.0, 2021-11-04 20:28:29.376
24.0, 859.9862549109384, 687.1673479084857, 578.6672403439879, 1035.8644000771455, -0.04800000227987766, -0.04800000227987766, 1.008000047877431, 0.0, 0.0, 0.0, 0.0, 0.0, 1.636075709376335E9, 0.0, 2021-11-04 20:28:29.376
25.0, 856.0219609579071, 708.0322497612797, 564.1377290161327, 1030.938951835502, -0.04800000227987766, -0.04800000227987766, 1.008000047877431, 0.0, 0.0, 0.0, 0.0, 0.0, 1.6360757093770008E9, 0.0, 2021-11-04 20:28:29.377
25.0, 873.1993214543909, 705.5452162907459, 557.6377828931436, 1028.874527059961, -0.04800000227987766, -0.04800000227987766, 1.008000047877431, 0.0, 0.0, 0.0, 0.0, 0.0, 1.6360757093770008E9, 0.0, 2021-11-04 20:28:29.377
26.0, 870.5851313853636, 702.6393140251748, 592.8339813761413, 1014.5768895293586, -0.04800000227987766, -0.04800000227987766, 1.008000047877431, 0.0, 0.0, 0.0, 0.0, 0.0, 1.6360757093777316E9, 0.0, 2021-11-04 20:28:29.377
26.0, 845.3034076848999, 704.434466003906, 583.7609840836376, 1013.462399342563, -0.04800000227987766, -0.04800000227987766, 1.008000047877431, 0.0, 0.0, 0.0, 0.0, 0.0, 1.6360757093777316E9, 0.0, 2021-11-04 20:28:29.377
27.0, 852.9328035945073, 714.0796679896303, 590.1786524076015, 1006.4014682262205, -0.04800000227987766, -0.04800000227987766, 1.008000047877431, 0.0, 0.0, 0.0, 0.0, 0.0, 1.6360757093784783E9, 0.0, 2021-11-04 20:28:29.378
27.0, 870.7347273835912, 696.2627846007235, 589.1688794195652, 1031.3540807305835, -0.04800000227987766, -0.04800000227987766, 1.008000047877431, 0.0, 0.0, 0.0, 0.0, 0.0, 1.6360757093784783E9, 0.0, 2021-11-04 20:28:29.378
28.0, 866.7442541308701, 727.1506183347665, 579.3927809353918, 1022.6999522331171, -0.04800000227987766, -0.04800000227987766, 1.008000047877431, 0.0, 0.0, 0.0, 0.0, 0.0, 1.6360757094052975E9, 0.0, 2021-11-04 20:28:29.405
28.0, 874.500806638971, 723.7697487748228, 578.0239775516093, 1022.7597906324081, -0.04800000227987766, -0.04800000227987766, 1.008000047877431, 0.0, 0.0, 0.0, 0.0, 0.0, 1.6360757094052975E9, 0.0, 2021-11-04 20:28:29.405
29.0, 862.7313414784148, 716.2600296637975, 586.5733888503164, 1024.8316952078603, -0.04800000227987766, -0.04800000227987766, 1.008000047877431, 0.0, 0.0, 0.0, 0.0, 0.0, 1.6360757094059925E9, 0.0, 2021-11-04 20:28:29.405
29.0, 865.0388597510755, 727.4011916317977, 583.4243930876255, 1026.9035997833125, -0.04800000227987766, -0.04800000227987766, 1.008000047877431, 0.0, 0.0, 0.0, 0.0, 0.0, 1.6360757094059925E9, 0.0, 2021-11-04 20:28:29.405
30.0, 872.1633691666648, 709.8423613398336, 603.2907416522503, 1022.3259622375481, -0.04800000227987766, -0.04800000227987766, 1.008000047877431, 0.0, 0.0, 0.0, 0.0, 0.0, 1.6360757094198914E9, 0.0, 2021-11-04 20:28:29.419
30.0, 873.5284326504916, 711.4243390210904, 597.7145508183166, 1024.1772127156146, -0.04800000227987766, -0.04800000227987766, 1.008000047877431, 0.0, 0.0, 0.0, 0.0, 0.0, 1.6360757094198914E9, 0.0, 2021-11-04 20:28:29.419
31.0, 861.5009143929929, 732.3341196733527, 588.6378136258572, 1042.214750201907, -0.04800000227987766, -0.04800000227987766, 1.008000047877431, 0.0, 0.0, 0.0, 0.0, 0.0, 1.6360757094205608E9, 0.0, 2021-11-04 20:28:29.420
31.0, 874.6803218368441, 723.0928268828429, 608.9080713856965, 1022.5989749343134, -0.04800000227987766, -0.04800000227987766, 1.008000047877431, 0.0, 0.0, 0.0, 0.0, 0.0, 1.6360757094205608E9, 0.0, 2021-11-04 20:28:29.420
32.0, 874.6055238377303, 727.6854240284301, 610.6583445649594, 1036.7844154662453, -0.04800000227987766, -0.04800000227987766, 1.008000047877431, 0.0, 0.0, 0.0, 0.0, 0.0, 1.6360757094502835E9, 0.0, 2021-11-04 20:28:29.450
32.0, 878.2706257943064, 715.2502566757612, 597.9838236151263, 1006.6520415232517, -0.04800000227987766, -0.04800000227987766, 1.008000047877431, 0.0, 0.0, 0.0, 0.0, 0.0, 1.6360757094502835E9, 0.0, 2021-11-04 20:28:29.450
33.0, 870.3382979882881, 704.4643852035515, 593.9035927634686, 1014.8087633266114, -0.04800000227987766, -0.04800000227987766, 1.008000047877431, 0.0, 0.0, 0.0, 0.0, 0.0, 1.6360757094509919E9, 0.0, 2021-11-04 20:28:29.450
33.0, 858.8194061247632, 749.2010684735142, 605.5720806252211, 1018.9600522774272, -0.04800000227987766, -0.04800000227987766, 1.008000047877431, 0.0, 0.0, 0.0, 0.0, 0.0, 1.6360757094509919E9, 0.0, 2021-11-04 20:28:29.450
34.0, 870.1363433906808, 741.0406067701988, 616.9451163904741, 1029.4504716531374, -0.04800000227987766, -0.04800000227987766, 1.008000047877431, 0.0, 0.0, 0.0, 0.0, 0.0, 1.6360757094653208E9, 0.0, 2021-11-04 20:28:29.465
34.0, 870.6038308851421, 739.6007452872582, 632.1814688099548, 1023.5040307235904, -0.04800000227987766, -0.04800000227987766, 1.008000047877431, 0.0, 0.0, 0.0, 0.0, 0.0, 1.6360757094653208E9, 0.0, 2021-11-04 20:28:29.465
35.0, 866.5011606337503, 722.4869630900212, 621.8032464329153, 1015.7998368148692, -0.04800000227987766, -0.04800000227987766, 1.008000047877431, 0.0, 0.0, 0.0, 0.0, 0.0, 1.636075709466102E9, 0.0, 2021-11-04 20:28:29.466
35.0, 866.1496100379154, 718.2945352396928, 606.7725885109976, 1023.653626721818, -0.04800000227987766, -0.04800000227987766, 1.008000047877431, 0.0, 0.0, 0.0, 0.0, 0.0, 1.636075709466102E9, 0.0, 2021-11-04 20:28:29.466
36.0, 874.5344657385722, 743.5425998405553, 623.2131887162104, 1026.83628158411, -0.04800000227987766, -0.04800000227987766, 1.008000047877431, 0.0, 0.0, 0.0, 0.0, 0.0, 1.636075709480346E9, 0.0, 2021-11-04 20:28:29.480
36.0, 852.4017378007993, 731.4328037840314, 606.8025077106431, 1004.6773743466474, -0.04800000227987766, -0.04800000227987766, 1.008000047877431, 0.0, 0.0, 0.0, 0.0, 0.0, 1.636075709480346E9, 0.0, 2021-11-04 20:28:29.480
37.0, 845.3146273847669, 734.05447365297, 591.9364053867757, 1003.2262931638397, -0.04800000227987766, -0.04800000227987766, 1.008000047877431, 0.0, 0.0, 0.0, 0.0, 0.0, 1.6360757095116544E9, 0.0, 2021-11-04 20:28:29.511
37.0, 863.0118339750916, 716.3049084632657, 620.0118343541399, 1007.1606679172255, -0.04800000227987766, -0.04800000227987766, 1.008000047877431, 0.0, 0.0, 0.0, 0.0, 0.0, 1.6360757095116544E9, 0.0, 2021-11-04 20:28:29.511
38.0, 860.4238232057542, 727.1767976344563, 610.6770440647379, 998.3457237216644, -0.04800000227987766, -0.04800000227987766, 1.008000047877431, 0.0, 0.0, 0.0, 0.0, 0.0, 1.636075709512407E9, 0.0, 2021-11-04 20:28:29.512
38.0, 865.7943195421249, 745.3527114191093, 584.1461937790737, 973.6885633138008, -0.04800000227987766, -0.04800000227987766, 1.008000047877431, 0.0, 0.0, 0.0, 0.0, 0.0, 1.636075709512407E9, 0.0, 2021-11-04 20:28:29.512
39.0, 858.6249313270673, 744.3578980308957, 616.3579520974308, 1021.4508256479166, -0.04800000227987766, -0.04800000227987766, 1.008000047877431, 0.0, 0.0, 0.0, 0.0, 0.0, 1.6360757095131223E9, 0.0, 2021-11-04 20:28:29.513
39.0, 858.6361510269344, 728.2987676211633, 627.8843237608671, 1009.6963200871833, -0.04800000227987766, -0.04800000227987766, 1.008000047877431, 0.0, 0.0, 0.0, 0.0, 0.0, 1.6360757095131223E9, 0.0, 2021-11-04 20:28:29.513
40.0, 852.4428767003119, 751.7404605434276, 615.0302876131609, 1005.5861700358801, -0.04800000227987766, -0.04800000227987766, 1.008000047877431, 0.0, 0.0, 0.0, 0.0, 0.0, 1.6360757095138893E9, 0.0, 2021-11-04 20:28:29.513
40.0, 856.747501549311, 739.0173208941706, 604.7979213343933, 1010.0628302828409, -0.04800000227987766, -0.04800000227987766, 1.008000047877431, 0.0, 0.0, 0.0, 0.0, 0.0, 1.6360757095138893E9, 0.0, 2021-11-04 20:28:29.513
41.0, 851.0291945170611, 735.8309261319228, 626.2799066798761, 1010.4368202784099, -0.04800000227987766, -0.04800000227987766, 1.008000047877431, 0.0, 0.0, 0.0, 0.0, 0.0, 1.63607570953962E9, 0.0, 2021-11-04 20:28:29.539
41.0, 835.4861703012139, 731.8180134794675, 596.1737120365724, 995.1967279589735, -0.04800000227987766, -0.04800000227987766, 1.008000047877431, 0.0, 0.0, 0.0, 0.0, 0.0, 1.63607570953962E9, 0.0, 2021-11-04 20:28:29.539
42.0, 851.2199294148013, 713.2905490989797, 591.4015996931121, 995.0209526610561, -0.04800000227987766, -0.04800000227987766, 1.008000047877431, 0.0, 0.0, 0.0, 0.0, 0.0, 1.636075709602666E9, 0.0, 2021-11-04 20:28:29.602
42.0, 847.5136885587126, 731.9750892776065, 604.0088024437428, 998.327024221886, -0.04800000227987766, -0.04800000227987766, 1.008000047877431, 0.0, 0.0, 0.0, 0.0, 0.0, 1.636075709602666E9, 0.0, 2021-11-04 20:28:29.602
43.0, 847.0162818646058, 744.728148126509, 614.1701106233522, 990.7948657111265, -0.04800000227987766, -0.04800000227987766, 1.008000047877431, 0.0, 0.0, 0.0, 0.0, 0.0, 1.636075709603462E9, 0.0, 2021-11-04 20:28:29.603
43.0, 854.8064934723079, 752.4847006346099, 625.8423383850604, 991.8869164981879, -0.04800000227987766, -0.04800000227987766, 1.008000047877431, 0.0, 0.0, 0.0, 0.0, 0.0, 1.636075709603462E9, 0.0, 2021-11-04 20:28:29.603
44.0, 828.8441079799086, 752.0994909391738, 613.3660321328789, 990.1067241192795, -0.04800000227987766, -0.04800000227987766, 1.008000047877431, 0.0, 0.0, 0.0, 0.0, 0.0, 1.6360757096041625E9, 0.0, 2021-11-04 20:28:29.604
44.0, 841.7542426269501, 744.885223924648, 621.1861629402265, 1002.7700253692456, -0.04800000227987766, -0.04800000227987766, 1.008000047877431, 0.0, 0.0, 0.0, 0.0, 0.0, 1.6360757096041625E9, 0.0, 2021-11-04 20:28:29.604
45.0, 839.4916031537578, 752.5108799342997, 593.7764361649752, 976.4897483806126, -0.04800000227987766, -0.04800000227987766, 1.008000047877431, 0.0, 0.0, 0.0, 0.0, 0.0, 1.6360757096049316E9, 0.0, 2021-11-04 20:28:29.604
45.0, 841.34659353178, 757.2605528780259, 602.3370671635494, 1001.390002285596, -0.04800000227987766, -0.04800000227987766, 1.008000047877431, 0.0, 0.0, 0.0, 0.0, 0.0, 1.6360757096049316E9, 0.0, 2021-11-04 20:28:29.604
46.0, 838.246216468513, 747.3011992960237, 616.70576279331, 1003.1178360651247, -0.04800000227987766, -0.04800000227987766, 1.008000047877431, 0.0, 0.0, 0.0, 0.0, 0.0, 1.6360757096470356E9, 0.0, 2021-11-04 20:28:29.647
46.0, 838.3135346677154, 736.2535348269157, 626.9156896723434, 994.6133035658859, -0.04800000227987766, -0.04800000227987766, 1.008000047877431, 0.0, 0.0, 0.0, 0.0, 0.0, 1.6360757096470356E9, 0.0, 2021-11-04 20:28:29.647
47.0, 832.3109952388331, 732.547293970827, 630.0011071357876, 991.6176437013783, -0.04800000227987766, -0.04800000227987766, 1.008000047877431, 0.0, 0.0, 0.0, 0.0, 0.0, 1.6360757096477957E9, 0.0, 2021-11-04 20:28:29.647
47.0, 831.8509875442833, 743.1312108454295, 630.0871248347685, 994.3178514693864, -0.04800000227987766, -0.04800000227987766, 1.008000047877431, 0.0, 0.0, 0.0, 0.0, 0.0, 1.6360757096477957E9, 0.0, 2021-11-04 20:28:29.647
48.0, 832.9804373309016, 749.2160280733369, 636.7441467558965, 984.4632150861435, -0.04800000227987766, -0.04800000227987766, 1.008000047877431, 0.0, 0.0, 0.0, 0.0, 0.0, 1.636075709648522E9, 0.0, 2021-11-04 20:28:29.648
48.0, 825.2388444226235, 739.6531038866378, 639.5939505221322, 990.5068934145384, -0.04800000227987766, -0.04800000227987766, 1.008000047877431, 0.0, 0.0, 0.0, 0.0, 0.0, 1.636075709648522E9, 0.0, 2021-11-04 20:28:29.648
51.0, 839.9441310483962, 758.0347121688537, 643.4460474764928, 992.9490480856039, -0.04800000227987766, -0.04800000227987766, 1.008000047877431, 0.0, 0.0, 0.0, 0.0, 0.0, 1.6360757096492276E9, 0.0, 2021-11-04 20:28:29.649
51.0, 833.1038540294394, 745.9136964124627, 623.94246920757, 976.7665009773336, -0.04800000227987766, -0.04800000227987766, 1.008000047877431, 0.0, 0.0, 0.0, 0.0, 0.0, 1.6360757096492276E9, 0.0, 2021-11-04 20:28:29.649
52.0, 848.6169590456411, 743.3144659432583, 629.1110109463334, 985.1102177784778, -0.04800000227987766, -0.04800000227987766, 1.008000047877431, 0.0, 0.0, 0.0, 0.0, 0.0, 1.6360757096770897E9, 0.0, 2021-11-04 20:28:29.677
52.0, 851.7397755086422, 746.2166283088736, 648.0947431214154, 999.8603832037188, -0.04800000227987766, -0.04800000227987766, 1.008000047877431, 0.0, 0.0, 0.0, 0.0, 0.0, 1.6360757096770897E9, 0.0, 2021-11-04 20:28:29.677
53.0, 835.4375516017899, 748.1688560857438, 654.3628154471517, 997.0105794374831, -0.04800000227987766, -0.04800000227987766, 1.008000047877431, 0.0, 0.0, 0.0, 0.0, 0.0, 1.636075709677706E9, 0.0, 2021-11-04 20:28:29.677
53.0, 845.542761282064, 748.7148814792745, 649.919814299792, 987.3354582521133, -0.04800000227987766, -0.04800000227987766, 1.008000047877431, 0.0, 0.0, 0.0, 0.0, 0.0, 1.636075709677706E9, 0.0, 2021-11-04 20:28:29.677
54.0, 842.3937655193731, 749.7882327665575, 650.2264860961586, 996.6926879412495, -0.04800000227987766, -0.04800000227987766, 1.008000047877431, 0.0, 0.0, 0.0, 0.0, 0.0, 1.636075709678436E9, 0.0, 2021-11-04 20:28:29.678
54.0, 840.5125958416611, 744.5897718281485, 656.3374826237559, 988.4499484389089, -0.04800000227987766, -0.04800000227987766, 1.008000047877431, 0.0, 0.0, 0.0, 0.0, 0.0, 1.636075709678436E9, 0.0, 2021-11-04 20:28:29.678
55.0, 842.1506720222533, 742.9329961477779, 659.0339504918084, 970.9322570464574, -0.04800000227987766, -0.04800000227987766, 1.008000047877431, 0.0, 0.0, 0.0, 0.0, 0.0, 1.6360757096799264E9, 0.0, 2021-11-04 20:28:29.679
55.0, 856.8260394483805, 737.6522574103437, 636.7329270560294, 973.4716491163708, -0.04800000227987766, -0.04800000227987766, 1.008000047877431, 0.0, 0.0, 0.0, 0.0, 0.0, 1.6360757096799264E9, 0.0, 2021-11-04 20:28:29.679
56.0, 856.4445696529001, 758.5283789630048, 634.2159743858501, 981.0187672269531, -0.04800000227987766, -0.04800000227987766, 1.008000047877431, 0.0, 0.0, 0.0, 0.0, 0.0, 1.6360757096906168E9, 0.0, 2021-11-04 20:28:29.690
56.0, 857.8881710357964, 753.8273247187026, 617.090972488746, 987.2457006531768, -0.04800000227987766, -0.04800000227987766, 1.008000047877431, 0.0, 0.0, 0.0, 0.0, 0.0, 1.6360757096906168E9, 0.0, 2021-11-04 20:28:29.690
57.0, 847.0275015644729, 756.0787444920279, 647.0550509337336, 982.4174898103811, -0.04800000227987766, -0.04800000227987766, 1.008000047877431, 0.0, 0.0, 0.0, 0.0, 0.0, 1.6360757096914196E9, 0.0, 2021-11-04 20:28:29.691
57.0, 871.7108412720263, 758.2665859661065, 642.4699335880578, 997.5678245308809, -0.04800000227987766, -0.04800000227987766, 1.008000047877431, 0.0, 0.0, 0.0, 0.0, 0.0, 1.6360757096914196E9, 0.0, 2021-11-04 20:28:29.691
58.0, 870.8394445823506, 745.2966129197739, 649.3363899067044, 980.4727418334223, -0.04800000227987766, -0.04800000227987766, 1.008000047877431, 0.0, 0.0, 0.0, 0.0, 0.0, 1.6360757096921155E9, 0.0, 2021-11-04 20:28:29.692
58.0, 874.4559278395027, 770.2641850239597, 656.457159422338, 970.9210373465903, -0.04800000227987766, -0.04800000227987766, 1.008000047877431, 0.0, 0.0, 0.0, 0.0, 0.0, 1.6360757096921155E9, 0.0, 2021-11-04 20:28:29.692
59.0, 870.8282248824835, 764.7777517889626, 676.6526191830635, 994.0635382723995, -0.04800000227987766, -0.04800000227987766, 1.008000047877431, 0.0, 0.0, 0.0, 0.0, 0.0, 1.6360757097346196E9, 0.0, 2021-11-04 20:28:29.734
59.0, 871.026439580135, 774.1686405777, 672.7893025288358, 989.8935498218052, -0.04800000227987766, -0.04800000227987766, 1.008000047877431, 0.0, 0.0, 0.0, 0.0, 0.0, 1.6360757097346196E9, 0.0, 2021-11-04 20:28:29.734
60.0, 871.7706796713173, 766.2026536720805, 646.808217536658, 974.9638691986911, -0.04800000227987766, -0.04800000227987766, 1.008000047877431, 0.0, 0.0, 0.0, 0.0, 0.0, 1.6360757097517288E9, 0.0, 2021-11-04 20:28:29.751
60.0, 878.1135499961674, 755.558898398187, 646.8044776367024, 985.7385209710337, -0.04800000227987766, -0.04800000227987766, 1.008000047877431, 0.0, 0.0, 0.0, 0.0, 0.0, 1.6360757097517288E9, 0.0, 2021-11-04 20:28:29.751
61.0, 877.0476785087958, 767.9267475516535, 677.1762051768601, 990.8808834101073, -0.04800000227987766, -0.04800000227987766, 1.008000047877431, 0.0, 0.0, 0.0, 0.0, 0.0, 1.6360757097524498E9, 0.0, 2021-11-04 20:28:29.752
61.0, 876.4679940156639, 773.2112261890434, 658.0989755028859, 977.6865163664334, -0.04800000227987766, -0.04800000227987766, 1.008000047877431, 0.0, 0.0, 0.0, 0.0, 0.0, 1.6360757097524498E9, 0.0, 2021-11-04 20:28:29.752
62.0, 862.0245003867894, 776.1545274541713, 657.953119404614, 975.5959122912027, -0.06400000303983688, -0.04800000227987766, 1.008000047877431, 0.0, 0.0, 0.0, 0.0, 0.0, 1.636075709753282E9, 0.0, 2021-11-04 20:28:29.753
62.0, 872.7355738598853, 776.1844466538168, 672.5798681313172, 1004.019151954446, -0.06400000303983688, -0.04800000227987766, 1.008000047877431, 0.0, 0.0, 0.0, 0.0, 0.0, 1.636075709753282E9, 0.0, 2021-11-04 20:28:29.753
63.0, 865.285693148151, 753.5991908214055, 646.423007841222, 988.9211758333258, -0.06400000303983688, -0.04800000227987766, 1.008000047877431, 0.0, 0.0, 0.0, 0.0, 0.0, 1.636075709754015E9, 0.0, 2021-11-04 20:28:29.754
63.0, 878.0424918970093, 760.0654778447933, 646.9765130346641, 986.4977206620388, -0.06400000303983688, -0.04800000227987766, 1.008000047877431, 0.0, 0.0, 0.0, 0.0, 0.0, 1.636075709754015E9, 0.0, 2021-11-04 20:28:29.754
64.0, 883.7607989292592, 752.3949430356734, 654.0224845511839, 990.402176215779, -0.06400000303983688, -0.04800000227987766, 1.008000047877431, 0.0, 0.0, 0.0, 0.0, 0.0, 1.6360757097820005E9, 0.0, 2021-11-04 20:28:29.782
64.0, 862.5106873810291, 760.1627152436413, 669.0568823730573, 979.6275244434364, -0.06400000303983688, -0.04800000227987766, 1.008000047877431, 0.0, 0.0, 0.0, 0.0, 0.0, 1.6360757097820005E9, 0.0, 2021-11-04 20:28:29.782
65.0, 873.4910336509347, 773.2411453886889, 649.6729809027165, 960.082807275001, -0.06400000303983688, -0.04800000227987766, 1.008000047877431, 0.0, 0.0, 0.0, 0.0, 0.0, 1.63607570978271E9, 0.0, 2021-11-04 20:28:29.782
65.0, 867.1818224256858, 766.6177825671621, 657.5566900093108, 957.4461778062396, -0.06400000303983688, -0.04800000227987766, 1.008000047877431, 0.0, 0.0, 0.0, 0.0, 0.0, 1.63607570978271E9, 0.0, 2021-11-04 20:28:29.782
66.0, 863.0492329746485, 755.4354816996492, 649.8038774011657, 975.0536267976277, -0.06400000303983688, -0.04800000227987766, 1.008000047877431, 0.0, 0.0, 0.0, 0.0, 0.0, 1.636075709783419E9, 0.0, 2021-11-04 20:28:29.783
66.0, 870.1213837908581, 762.6534886141308, 638.6589755332097, 966.3882786002941, -0.06400000303983688, -0.04800000227987766, 1.008000047877431, 0.0, 0.0, 0.0, 0.0, 0.0, 1.636075709783419E9, 0.0, 2021-11-04 20:28:29.783
67.0, 866.7255546310917, 769.3329499349929, 645.8508031480014, 971.8709719353355, -0.06400000303983688, -0.04800000227987766, 1.008000047877431, 0.0, 0.0, 0.0, 0.0, 0.0, 1.6360757097841592E9, 0.0, 2021-11-04 20:28:29.784
67.0, 868.9582749046385, 768.3717956463806, 643.371249477379, 978.4831150569953, -0.06400000303983688, -0.04800000227987766, 1.008000047877431, 0.0, 0.0, 0.0, 0.0, 0.0, 1.6360757097841592E9, 0.0, 2021-11-04 20:28:29.784
68.0, 863.7859932659194, 753.8385444185697, 652.5826230682433, 965.0232151164673, -0.06400000303983688, -0.04800000227987766, 1.008000047877431, 0.0, 0.0, 0.0, 0.0, 0.0, 1.6360757098270001E9, 0.0, 2021-11-04 20:28:29.827
68.0, 868.1467166142538, 760.2225536429323, 632.91448920127, 971.0145348454826, -0.06400000303983688, -0.04800000227987766, 1.008000047877431, 0.0, 0.0, 0.0, 0.0, 0.0, 1.6360757098270001E9, 0.0, 2021-11-04 20:28:29.827
69.0, 867.4286558227614, 748.3408914837055, 659.8754279818386, 981.5760123203509, -0.06400000303983688, -0.04800000227987766, 1.008000047877431, 0.0, 0.0, 0.0, 0.0, 0.0, 1.6360757098277073E9, 0.0, 2021-11-04 20:28:29.827
69.0, 863.3708643708378, 763.0536579093896, 684.1473786942661, 966.9754428933375, -0.06400000303983688, -0.04800000227987766, 1.008000047877431, 0.0, 0.0, 0.0, 0.0, 0.0, 1.6360757098277073E9, 0.0, 2021-11-04 20:28:29.827
70.0, 856.1715569561347, 770.7092331186868, 649.9160743998364, 957.1320262099616, -0.06400000303983688, -0.04800000227987766, 1.008000047877431, 0.0, 0.0, 0.0, 0.0, 0.0, 1.636075709828379E9, 0.0, 2021-11-04 20:28:29.828
70.0, 858.9989213226363, 767.2348660598509, 649.0222383104265, 966.1377053032629, -0.06400000303983688, -0.04800000227987766, 1.008000047877431, 0.0, 0.0, 0.0, 0.0, 0.0, 1.636075709828379E9, 0.0, 2021-11-04 20:28:29.828
71.0, 851.3508259132504, 784.8946736506186, 665.9939043093473, 969.3764586648904, -0.06400000303983688, -0.04800000227987766, 1.008000047877431, 0.0, 0.0, 0.0, 0.0, 0.0, 1.6360757098291423E9, 0.0, 2021-11-04 20:28:29.829
71.0, 850.4046312244609, 776.3714416516013, 640.2334734145552, 959.6489788801409, -0.06400000303983688, -0.04800000227987766, 1.008000047877431, 0.0, 0.0, 0.0, 0.0, 0.0, 1.6360757098291423E9, 0.0, 2021-11-04 20:28:29.829
72.0, 853.478828988038, 770.2230461244471, 645.8732425477356, 954.3271012431942, -0.06400000303983688, -0.04800000227987766, 1.008000047877431, 0.0, 0.0, 0.0, 0.0, 0.0, 1.636075709840332E9, 0.0, 2021-11-04 20:28:29.840
72.0, 862.4209297820926, 780.0552431079559, 645.1140428567305, 969.3914182647131, -0.06400000303983688, -0.04800000227987766, 1.008000047877431, 0.0, 0.0, 0.0, 0.0, 0.0, 1.636075709840332E9, 0.0, 2021-11-04 20:28:29.840
73.0, 843.3212607083842, 781.8728344864212, 647.2233464317396, 959.974350176286, -0.06400000303983688, -0.04800000227987766, 1.008000047877431, 0.0, 0.0, 0.0, 0.0, 0.0, 1.6360757098560133E9, 0.0, 2021-11-04 20:28:29.856
73.0, 844.6414453927428, 773.0840695905499, 624.2828001035377, 956.1035537221469, -0.06400000303983688, -0.04800000227987766, 1.008000047877431, 0.0, 0.0, 0.0, 0.0, 0.0, 1.6360757098560133E9, 0.0, 2021-11-04 20:28:29.856
74.0, 839.2335500568151, 778.2675709291361, 645.9517804468051, 963.568394033704, -0.06400000303983688, -0.04800000227987766, 1.008000047877431, 0.0, 0.0, 0.0, 0.0, 0.0, 1.6360757098567169E9, 0.0, 2021-11-04 20:28:29.856
74.0, 844.7237231917679, 775.881514757406, 670.3247084580362, 972.8994444231503, -0.06400000303983688, -0.04800000227987766, 1.008000047877431, 0.0, 0.0, 0.0, 0.0, 0.0, 1.6360757098567169E9, 0.0, 2021-11-04 20:28:29.856
75.0, 852.4765357999131, 769.2431923360564, 658.6001220969483, 960.6624917681329, -0.06400000303983688, -0.04800000227987766, 1.008000047877431, 0.0, 0.0, 0.0, 0.0, 0.0, 1.6360757098703616E9, 0.0, 2021-11-04 20:28:29.870
75.0, 852.5214145993814, 758.1506490674801, 646.1200759448111, 962.180891150143, -0.06400000303983688, -0.04800000227987766, 1.008000047877431, 0.0, 0.0, 0.0, 0.0, 0.0, 1.6360757098703616E9, 0.0, 2021-11-04 20:28:29.870
76.0, 851.5901795104146, 767.0590907619335, 654.3740351470187, 975.9474628870375, -0.06400000303983688, -0.04800000227987766, 1.008000047877431, 0.0, 0.0, 0.0, 0.0, 0.0, 1.636075709886008E9, 0.0, 2021-11-04 20:28:29.886
76.0, 851.7883942080662, 763.0424382095225, 650.2451855959371, 960.5727341691963, -0.06400000303983688, -0.04800000227987766, 1.008000047877431, 0.0, 0.0, 0.0, 0.0, 0.0, 1.636075709886008E9, 0.0, 2021-11-04 20:28:29.886
77.0, 845.4193445835263, 766.2998910709284, 664.1351740313694, 963.1495252386667, -0.06400000303983688, -0.04800000227987766, 1.008000047877431, 0.0, 0.0, 0.0, 0.0, 0.0, 1.6360757098866725E9, 0.0, 2021-11-04 20:28:29.886
77.0, 850.9955354174599, 768.2072400483303, 637.1069170515984, 949.8541808961891, -0.06400000303983688, -0.04800000227987766, 1.008000047877431, 0.0, 0.0, 0.0, 0.0, 0.0, 1.6360757098866725E9, 0.0, 2021-11-04 20:28:29.886
78.0, 851.1301718158647, 785.7324112406932, 632.4432618068531, 961.9340577530675, -0.06400000303983688, -0.04800000227987766, 1.008000047877431, 0.0, 0.0, 0.0, 0.0, 0.0, 1.6360757099162636E9, 0.0, 2021-11-04 20:28:29.916
78.0, 849.4958355352283, 770.6980134188198, 620.6775365462527, 961.8218607543968, -0.06400000303983688, -0.04800000227987766, 1.008000047877431, 0.0, 0.0, 0.0, 0.0, 0.0, 1.6360757099162636E9, 0.0, 2021-11-04 20:28:29.916
79.0, 844.6190059930086, 774.0639233789407, 623.4226231137291, 975.5585132916458, -0.06400000303983688, -0.04800000227987766, 1.008000047877431, 0.0, 0.0, 0.0, 0.0, 0.0, 1.63607570991708E9, 0.0, 2021-11-04 20:28:29.917
79.0, 849.570633534342, 765.8997217756696, 643.0496180811897, 962.5586210456677, -0.06400000303983688, -0.04800000227987766, 1.008000047877431, 0.0, 0.0, 0.0, 0.0, 0.0, 1.63607570991708E9, 0.0, 2021-11-04 20:28:29.917
80.0, 857.3234461424872, 781.9364127856679, 652.6985599668697, 951.1631458806805, -0.06400000303983688, -0.04800000227987766, 1.008000047877431, 0.0, 0.0, 0.0, 0.0, 0.0, 1.636075709917775E9, 0.0, 2021-11-04 20:28:29.917
80.0, 852.3418994015083, 771.8237233054824, 653.8130501536652, 961.4590904586948, -0.06400000303983688, -0.04800000227987766, 1.008000047877431, 0.0, 0.0, 0.0, 0.0, 0.0, 1.636075709917775E9, 0.0, 2021-11-04 20:28:29.917
81.0, 847.895158354193, 758.6330961617641, 638.3485638368875, 968.4452235759236, -0.06400000303983688, -0.04800000227987766, 1.008000047877431, 0.0, 0.0, 0.0, 0.0, 0.0, 1.636075709918502E9, 0.0, 2021-11-04 20:28:29.918
81.0, 852.2259625028819, 765.3088175826706, 633.1538427984342, 962.6895175441168, -0.06400000303983688, -0.04800000227987766, 1.008000047877431, 0.0, 0.0, 0.0, 0.0, 0.0, 1.636075709918502E9, 0.0, 2021-11-04 20:28:29.918
82.0, 861.8075861893594, 774.9951584679075, 640.4952664114535, 964.4809296228923, -0.06400000303983688, -0.04800000227987766, 1.008000047877431, 0.0, 0.0, 0.0, 0.0, 0.0, 1.6360757099771414E9, 0.0, 2021-11-04 20:28:29.977
82.0, 864.3544580591843, 752.5034001343884, 618.7514880690724, 960.3483401718549, -0.06400000303983688, -0.04800000227987766, 1.008000047877431, 0.0, 0.0, 0.0, 0.0, 0.0, 1.6360757099771414E9, 0.0, 2021-11-04 20:28:29.977
83.0, 868.07191861514, 788.9973439020105, 654.6059089442715, 952.2701562675647, -0.06400000303983688, -0.04800000227987766, 1.008000047877431, 0.0, 0.0, 0.0, 0.0, 0.0, 1.6360757099778292E9, 0.0, 2021-11-04 20:28:29.977
83.0, 862.7575207781047, 767.1899872603826, 644.3698027655482, 960.3333805720322, -0.06400000303983688, -0.04800000227987766, 1.008000047877431, 0.0, 0.0, 0.0, 0.0, 0.0, 1.6360757099778292E9, 0.0, 2021-11-04 20:28:29.977
84.0, 853.1272783922032, 780.5638695019297, 639.6837081210688, 978.3148195589893, -0.06400000303983688, -0.04800000227987766, 1.008000047877431, 0.0, 0.0, 0.0, 0.0, 0.0, 1.6360757099786139E9, 0.0, 2021-11-04 20:28:29.978
84.0, 867.9559817165136, 774.1873400774784, 633.6662090923637, 979.5415067444555, -0.06400000303983688, -0.04800000227987766, 1.008000047877431, 0.0, 0.0, 0.0, 0.0, 0.0, 1.6360757099786139E9, 0.0, 2021-11-04 20:28:29.978
85.0, 854.1707104798406, 761.3632231294177, 635.6932348683476, 963.0261085401289, -0.06400000303983688, -0.04800000227987766, 1.008000047877431, 0.0, 0.0, 0.0, 0.0, 0.0, 1.6360757099792445E9, 0.0, 2021-11-04 20:28:29.979
85.0, 861.4223764939234, 757.4737271755002, 642.8140043839812, 973.337012717966, -0.06400000303983688, -0.04800000227987766, 1.008000047877431, 0.0, 0.0, 0.0, 0.0, 0.0, 1.6360757099792445E9, 0.0, 2021-11-04 20:28:29.979
86.0, 857.1663703443483, 762.9489407106303, 659.6996526839212, 982.3613913110457, -0.06400000303983688, -0.04800000227987766, 1.008000047877431, 0.0, 0.0, 0.0, 0.0, 0.0, 1.6360757100196733E9, 0.0, 2021-11-04 20:28:30.019
86.0, 864.3993368586525, 767.4405605574138, 653.7756511541083, 982.5222070091404, -0.06400000303983688, -0.04800000227987766, 1.008000047877431, 0.0, 0.0, 0.0, 0.0, 0.0, 1.6360757100196733E9, 0.0, 2021-11-04 20:28:30.019
87.0, 866.1757893376052, 797.0119495070539, 661.5546430619434, 979.8107795412652, -0.06400000303983688, -0.04800000227987766, 1.008000047877431, 0.0, 0.0, 0.0, 0.0, 0.0, 1.6360757100369756E9, 0.0, 2021-11-04 20:28:30.036
87.0, 851.3508259132504, 762.5188522157259, 648.2106800200418, 976.5495867799036, -0.06400000303983688, -0.04800000227987766, 1.008000047877431, 0.0, 0.0, 0.0, 0.0, 0.0, 1.6360757100369756E9, 0.0, 2021-11-04 20:28:30.036
88.0, 868.012080215849, 758.2740657660179, 635.0387523761019, 962.1023532510735, -0.06400000303983688, -0.04800000227987766, 1.008000047877431, 0.0, 0.0, 0.0, 0.0, 0.0, 1.6360757100377696E9, 0.0, 2021-11-04 20:28:30.037
88.0, 865.7644003424793, 777.2764974408783, 631.1941352216527, 953.9568511475809, -0.06400000303983688, -0.04800000227987766, 1.008000047877431, 0.0, 0.0, 0.0, 0.0, 0.0, 1.6360757100377696E9, 0.0, 2021-11-04 20:28:30.037
89.0, 863.1427304735407, 759.0033462573774, 647.0026923343539, 978.3148195589893, -0.06400000303983688, -0.04800000227987766, 1.008000047877431, 0.0, 0.0, 0.0, 0.0, 0.0, 1.6360757100385184E9, 0.0, 2021-11-04 20:28:30.038
89.0, 866.8227920299396, 774.3444158756174, 661.5546430619434, 971.081853044685, -0.06400000303983688, -0.04800000227987766, 1.008000047877431, 0.0, 0.0, 0.0, 0.0, 0.0, 1.6360757100385184E9, 0.0, 2021-11-04 20:28:30.038
90.0, 867.4997139219195, 793.1224535531364, 655.6530809318647, 978.2774205594324, -0.06400000303983688, -0.04800000227987766, 1.008000047877431, 0.0, 0.0, 0.0, 0.0, 0.0, 1.6360757100392563E9, 0.0, 2021-11-04 20:28:30.039
90.0, 870.48415408656, 780.8294023987837, 664.92429292202, 988.2517337412573, -0.06400000303983688, -0.04800000227987766, 1.008000047877431, 0.0, 0.0, 0.0, 0.0, 0.0, 1.6360757100392563E9, 0.0, 2021-11-04 20:28:30.039
91.0, 873.3601371524855, 764.73661288945, 664.7634772239253, 993.2407602821477, -0.06400000303983688, -0.04800000227987766, 1.008000047877431, 0.0, 0.0, 0.0, 0.0, 0.0, 1.6360757100677235E9, 0.0, 2021-11-04 20:28:30.067
91.0, 870.9703410807997, 766.6439618668519, 655.7129193311557, 982.0173205151223, -0.06400000303983688, -0.04800000227987766, 1.008000047877431, 0.0, 0.0, 0.0, 0.0, 0.0, 1.6360757100677235E9, 0.0, 2021-11-04 20:28:30.067
92.0, 870.1064241910353, 780.8780210982077, 658.7571978950873, 989.1455698306672, -0.06400000303983688, -0.04800000227987766, 1.008000047877431, 0.0, 0.0, 0.0, 0.0, 0.0, 1.6360757100684369E9, 0.0, 2021-11-04 20:28:30.068
92.0, 859.3205527188256, 781.7194985882379, 649.6954203024507, 979.5377668444999, -0.06400000303983688, -0.04800000227987766, 1.008000047877431, 0.0, 0.0, 0.0, 0.0, 0.0, 1.6360757100684369E9, 0.0, 2021-11-04 20:28:30.068
93.0, 868.6067243088037, 774.3780749752186, 652.1487946733832, 977.6827764664777, -0.06400000303983688, -0.04800000227987766, 1.008000047877431, 0.0, 0.0, 0.0, 0.0, 0.0, 1.636075710069115E9, 0.0, 2021-11-04 20:28:30.069
93.0, 873.1806219546124, 765.1068629850633, 643.4834464760497, 991.4680477031507, -0.06400000303983688, -0.04800000227987766, 1.008000047877431, 0.0, 0.0, 0.0, 0.0, 0.0, 1.636075710069115E9, 0.0, 2021-11-04 20:28:30.069
94.0, 872.4176823636517, 772.9943119916134, 668.518336779438, 999.5387518075295, -0.06400000303983688, -0.04800000227987766, 1.008000047877431, 0.0, 0.0, 0.0, 0.0, 0.0, 1.6360757100698967E9, 0.0, 2021-11-04 20:28:30.069
94.0, 880.2939116703346, 783.5969283659942, 666.0200836090371, 988.4985671383329, -0.06400000303983688, -0.04800000227987766, 1.008000047877431, 0.0, 0.0, 0.0, 0.0, 0.0, 1.6360757100698967E9, 0.0, 2021-11-04 20:28:30.069
95.0, 868.2252545133233, 796.2527498160489, 677.3445006748661, 989.7476937235333, -0.06400000303983688, -0.04800000227987766, 1.008000047877431, 0.0, 0.0, 0.0, 0.0, 0.0, 1.636075710097051E9, 0.0, 2021-11-04 20:28:30.097
95.0, 876.17628181912, 781.513804090675, 650.7425922900438, 1008.3237768034451, -0.06400000303983688, -0.04800000227987766, 1.008000047877431, 0.0, 0.0, 0.0, 0.0, 0.0, 1.636075710097051E9, 0.0, 2021-11-04 20:28:30.097
96.0, 880.361229869537, 785.1041080481373, 665.7582906121388, 1004.0602908539586, -0.06400000303983688, -0.04800000227987766, 1.008000047877431, 0.0, 0.0, 0.0, 0.0, 0.0, 1.6360757100977752E9, 0.0, 2021-11-04 20:28:30.097
96.0, 863.9430690640584, 767.0179518624209, 670.567801955156, 987.3466779519804, -0.06400000303983688, -0.04800000227987766, 1.008000047877431, 0.0, 0.0, 0.0, 0.0, 0.0, 1.6360757100977752E9, 0.0, 2021-11-04 20:28:30.097
97.0, 884.318044022657, 779.0005913204513, 659.8193294825032, 992.9565278855152, -0.06400000303983688, -0.04800000227987766, 1.008000047877431, 0.0, 0.0, 0.0, 0.0, 0.0, 1.6360757100985205E9, 0.0, 2021-11-04 20:28:30.098
97.0, 880.3462702697143, 788.4999372079037, 670.0367361614481, 987.4177360511385, -0.06400000303983688, -0.04800000227987766, 1.008000047877431, 0.0, 0.0, 0.0, 0.0, 0.0, 1.6360757100985205E9, 0.0, 2021-11-04 20:28:30.098
98.0, 876.6325496137142, 783.3575747688301, 633.5839312933385, 978.1465240609832, -0.06400000303983688, -0.04800000227987766, 1.008000047877431, 0.0, 0.0, 0.0, 0.0, 0.0, 1.6360757100992558E9, 0.0, 2021-11-04 20:28:30.099
98.0, 875.4208220280707, 788.930025702808, 624.6792294988409, 978.6701100547798, -0.06400000303983688, -0.04800000227987766, 1.008000047877431, 0.0, 0.0, 0.0, 0.0, 0.0, 1.6360757100992558E9, 0.0, 2021-11-04 20:28:30.099
99.0, 863.7934730658308, 784.853534751106, 673.7541967174038, 995.9634074498899, -0.06400000303983688, -0.04800000227987766, 1.008000047877431, 0.0, 0.0, 0.0, 0.0, 0.0, 1.6360757101106725E9, 0.0, 2021-11-04 20:28:30.110
99.0, 875.7648928239942, 795.8226613211446, 683.8781058974564, 1001.0571511895396, -0.06400000303983688, -0.04800000227987766, 1.008000047877431, 0.0, 0.0, 0.0, 0.0, 0.0, 1.6360757101106725E9, 0.0, 2021-11-04 20:28:30.110
100.0, 875.0655315322801, 788.4774978081696, 700.3261859025806, 998.061491325032, -0.06400000303983688, -0.04800000227987766, 1.008000047877431, 0.0, 0.0, 0.0, 0.0, 0.0, 1.6360757101115477E9, 0.0, 2021-11-04 20:28:30.111
100.0, 867.85500441771, 782.5235770787112, 710.1621227860451, 1022.0417298409157, -0.06400000303983688, -0.04800000227987766, 1.008000047877431, 0.0, 0.0, 0.0, 0.0, 0.0, 1.6360757101115477E9, 0.0, 2021-11-04 20:28:30.111
0.0, 885.3689559102058, 760.2693023923784, 651.1708108349703, 992.7919722874649, -0.06400000303983688, -0.04800000227987766, 1.008000047877431, 0.0, 0.0, 0.0, 0.0, 0.0, 1.6360757101121123E9, 0.0, 2021-11-04 20:28:30.112
1.0, 879.5122725795954, 744.584161978215, 639.6893179710023, 973.8269396121614, -0.06400000303983688, -0.04800000227987766, 1.008000047877431, 0.0, 0.0, 0.0, 0.0, 0.0, 1.6360757101243055E9, 0.0, 2021-11-04 20:28:30.124
1.0, 884.6284557189792, 749.2365975230932, 624.7558974479325, 983.1093713021837, -0.06400000303983688, -0.04800000227987766, 1.008000047877431, 0.0, 0.0, 0.0, 0.0, 0.0, 1.6360757101243055E9, 0.0, 2021-11-04 20:28:30.124
2.0, 888.1514414772391, 741.1247545192018, 641.7911417461, 991.1838153065182, -0.06400000303983688, -0.04800000227987766, 1.008000047877431, 0.0, 0.0, 0.0, 0.0, 0.0, 1.6360757101399689E9, 0.0, 2021-11-04 20:28:30.139
2.0, 877.0738578084856, 750.3660473097116, 619.3854011115618, 964.5557276220061, -0.06400000303983688, -0.04800000227987766, 1.008000047877431, 0.0, 0.0, 0.0, 0.0, 0.0, 1.6360757101399689E9, 0.0, 2021-11-04 20:28:30.139
3.0, 880.8249774640426, 738.1066552549601, 602.8849625070579, 963.6431920328178, -0.06400000303983688, -0.04800000227987766, 1.008000047877431, 0.0, 0.0, 0.0, 0.0, 0.0, 1.636075710140716E9, 0.0, 2021-11-04 20:28:30.140
3.0, 871.5388058740646, 754.6332731591538, 656.3767515732907, 981.9200831162743, -0.06400000303983688, -0.04800000227987766, 1.008000047877431, 0.0, 0.0, 0.0, 0.0, 0.0, 1.636075710140716E9, 0.0, 2021-11-04 20:28:30.140
4.0, 875.1739886309952, 760.9350045844913, 646.0434079957195, 981.1234844257124, -0.06400000303983688, -0.04800000227987766, 1.008000047877431, 0.0, 0.0, 0.0, 0.0, 0.0, 1.6360757101543722E9, 0.0, 2021-11-04 20:28:30.154
4.0, 874.5269859386608, 756.488263537176, 630.4330655806698, 958.9982362878509, -0.06400000303983688, -0.04800000227987766, 1.008000047877431, 0.0, 0.0, 0.0, 0.0, 0.0, 1.6360757101543722E9, 0.0, 2021-11-04 20:28:30.154
5.0, 868.1953353136778, 747.587301642634, 618.3083099243231, 963.9461239292286, -0.06400000303983688, -0.04800000227987766, 1.008000047877431, 0.0, 0.0, 0.0, 0.0, 0.0, 1.63607571020202E9, 0.0, 2021-11-04 20:28:30.202
5.0, 862.5593060804531, 752.0826613893732, 620.4774518986233, 970.2777745542116, -0.06400000303983688, -0.04800000227987766, 1.008000047877431, 0.0, 0.0, 0.0, 0.0, 0.0, 1.63607571020202E9, 0.0, 2021-11-04 20:28:30.202
6.0, 870.7908258829266, 745.5789753664285, 609.4260475295596, 958.9832766880281, -0.06400000303983688, -0.04800000227987766, 1.008000047877431, 0.0, 0.0, 0.0, 0.0, 0.0, 1.6360757102026985E9, 0.0, 2021-11-04 20:28:30.202
6.0, 870.3682171879336, 738.2824305528775, 597.9370748656802, 965.0419146162458, -0.06400000303983688, -0.04800000227987766, 1.008000047877431, 0.0, 0.0, 0.0, 0.0, 0.0, 1.6360757102026985E9, 0.0, 2021-11-04 20:28:30.202
7.0, 871.9053160697222, 746.9290792504326, 605.2859782786109, 961.5525879575871, -0.06400000303983688, -0.04800000227987766, 1.008000047877431, 0.0, 0.0, 0.0, 0.0, 0.0, 1.6360757102035043E9, 0.0, 2021-11-04 20:28:30.203
7.0, 872.9113491578028, 743.4696717914194, 638.6271863835864, 954.9105256362818, -0.06400000303983688, -0.04800000227987766, 1.008000047877431, 0.0, 0.0, 0.0, 0.0, 0.0, 1.6360757102035043E9, 0.0, 2021-11-04 20:28:30.203
8.0, 858.6922495262697, 749.4647314203903, 627.1307339197956, 959.7349965791218, -0.06400000303983688, -0.04800000227987766, 1.008000047877431, 0.0, 0.0, 0.0, 0.0, 0.0, 1.636075710204306E9, 0.0, 2021-11-04 20:28:30.204
8.0, 852.8093868959695, 732.6950200190768, 618.442946322728, 964.0732805277221, -0.06400000303983688, -0.04800000227987766, 1.008000047877431, 0.0, 0.0, 0.0, 0.0, 0.0, 1.636075710204306E9, 0.0, 2021-11-04 20:28:30.204
9.0, 866.9723880281672, 745.7323112646118, 628.2265246068127, 959.974350176286, -0.06400000303983688, -0.04800000227987766, 1.008000047877431, 0.0, 0.0, 0.0, 0.0, 0.0, 1.6360757102150283E9, 0.0, 2021-11-04 20:28:30.215
9.0, 857.977928634733, 751.9555047908798, 608.2330194436945, 965.1204525153153, -0.06400000303983688, -0.04800000227987766, 1.008000047877431, 0.0, 0.0, 0.0, 0.0, 0.0, 1.6360757102150283E9, 0.0, 2021-11-04 20:28:30.215
10.0, 856.0107412580401, 750.7886560047045, 626.5136504271068, 967.162437891122, -0.06400000303983688, -0.04800000227987766, 1.008000047877431, 0.0, 0.0, 0.0, 0.0, 0.0, 1.6360757102156441E9, 0.0, 2021-11-04 20:28:30.215
10.0, 850.1764973271638, 733.4093409106135, 596.2615996855311, 964.8549196184613, -0.06400000303983688, -0.04800000227987766, 1.008000047877431, 0.0, 0.0, 0.0, 0.0, 0.0, 1.6360757102156441E9, 0.0, 2021-11-04 20:28:30.215
11.0, 847.8801987543702, 733.7982905060053, 586.3433850030415, 949.8728803959675, -0.06400000303983688, -0.04800000227987766, 1.008000047877431, 0.0, 0.0, 0.0, 0.0, 0.0, 1.6360757102300408E9, 0.0, 2021-11-04 20:28:30.230
11.0, 857.8881710357964, 724.2802451187745, 609.7775981253944, 971.1977899433114, -0.06400000303983688, -0.04800000227987766, 1.008000047877431, 0.0, 0.0, 0.0, 0.0, 0.0, 1.6360757102300408E9, 0.0, 2021-11-04 20:28:30.230
12.0, 847.7904411554337, 732.9605529159307, 599.7060475447215, 942.3519415850751, -0.06400000303983688, -0.04800000227987766, 1.008000047877431, 0.0, 0.0, 0.0, 0.0, 0.0, 1.636075710230759E9, 0.0, 2021-11-04 20:28:30.230
12.0, 852.8093868959695, 728.278198171407, 610.4881791169755, 940.3473552088253, -0.06400000303983688, -0.04800000227987766, 1.008000047877431, 0.0, 0.0, 0.0, 0.0, 0.0, 1.636075710230759E9, 0.0, 2021-11-04 20:28:30.230
13.0, 856.7736808490008, 753.5075632724911, 594.5674250056036, 948.7770897089504, -0.06400000303983688, -0.04800000227987766, 1.008000047877431, 0.0, 0.0, 0.0, 0.0, 0.0, 1.6360757102442944E9, 0.0, 2021-11-04 20:28:30.244
13.0, 851.0778132164851, 729.4300873577595, 594.948894801084, 969.7093097609468, -0.06400000303983688, -0.04800000227987766, 1.008000047877431, 0.0, 0.0, 0.0, 0.0, 0.0, 1.6360757102442944E9, 0.0, 2021-11-04 20:28:30.244
14.0, 842.5770206172019, 740.1299411309883, 604.560437687207, 956.7916953139938, -0.06400000303983688, -0.04800000227987766, 1.008000047877431, 0.0, 0.0, 0.0, 0.0, 0.0, 1.6360757102920678E9, 0.0, 2021-11-04 20:28:30.292
14.0, 857.7984134368598, 734.1722805015743, 608.0647239456885, 946.888440231327, -0.06400000303983688, -0.04800000227987766, 1.008000047877431, 0.0, 0.0, 0.0, 0.0, 0.0, 1.6360757102920678E9, 0.0, 2021-11-04 20:28:30.292
15.0, 849.2602218380198, 728.2931577712297, 605.2037004795857, 950.9499715832062, -0.06400000303983688, -0.04800000227987766, 1.008000047877431, 0.0, 0.0, 0.0, 0.0, 0.0, 1.6360757102926686E9, 0.0, 2021-11-04 20:28:30.292
15.0, 856.1752968560904, 724.8000912126154, 600.917775130365, 962.4875629465096, -0.06400000303983688, -0.04800000227987766, 1.008000047877431, 0.0, 0.0, 0.0, 0.0, 0.0, 1.6360757102926686E9, 0.0, 2021-11-04 20:28:30.292
16.0, 861.4223764939234, 742.7665705997497, 593.452934818808, 960.3483401718549, -0.06400000303983688, -0.04800000227987766, 1.008000047877431, 0.0, 0.0, 0.0, 0.0, 0.0, 1.6360757102934847E9, 0.0, 2021-11-04 20:28:30.293
16.0, 863.8308720653877, 739.0752893434837, 595.1957281981595, 946.5032305358909, -0.06400000303983688, -0.04800000227987766, 1.008000047877431, 0.0, 0.0, 0.0, 0.0, 0.0, 1.6360757102934847E9, 0.0, 2021-11-04 20:28:30.293
17.0, 857.9854084346443, 744.632780677639, 612.545124092605, 946.0020839418285, -0.06400000303983688, -0.04800000227987766, 1.008000047877431, 0.0, 0.0, 0.0, 0.0, 0.0, 1.6360757102942612E9, 0.0, 2021-11-04 20:28:30.294
17.0, 862.6677631791681, 750.81857520435, 607.2905646548606, 937.44519284321, -0.06400000303983688, -0.04800000227987766, 1.008000047877431, 0.0, 0.0, 0.0, 0.0, 0.0, 1.6360757102942612E9, 0.0, 2021-11-04 20:28:30.294
18.0, 856.2874938547611, 746.6448468538001, 589.750433862675, 954.9516645357944, -0.06400000303983688, -0.04800000227987766, 1.008000047877431, 0.0, 0.0, 0.0, 0.0, 0.0, 1.6360757103049388E9, 0.0, 2021-11-04 20:28:30.304
18.0, 870.7534268833697, 751.7498102933168, 628.0283099091612, 971.1379515440203, -0.06400000303983688, -0.04800000227987766, 1.008000047877431, 0.0, 0.0, 0.0, 0.0, 0.0, 1.6360757103049388E9, 0.0, 2021-11-04 20:28:30.304
19.0, 876.2174207186326, 743.185439394787, 622.8597681703977, 964.4136114236899, -0.06400000303983688, -0.04800000227987766, 1.008000047877431, 0.0, 0.0, 0.0, 0.0, 0.0, 1.6360757103056233E9, 0.0, 2021-11-04 20:28:30.305
19.0, 863.7149351667613, 733.7721112063155, 608.8351433365606, 952.8984594601206, -0.06400000303983688, -0.04800000227987766, 1.008000047877431, 0.0, 0.0, 0.0, 0.0, 0.0, 1.6360757103056233E9, 0.0, 2021-11-04 20:28:30.305
20.0, 887.6315953833982, 752.1312800887972, 622.590495373588, 952.6740654627793, -0.06400000303983688, -0.04800000227987766, 1.008000047877431, 0.0, 0.0, 0.0, 0.0, 0.0, 1.6360757103199484E9, 0.0, 2021-11-04 20:28:30.319
20.0, 888.0916030779481, 755.3737733503804, 632.7929424527101, 965.5281016104855, -0.06400000303983688, -0.04800000227987766, 1.008000047877431, 0.0, 0.0, 0.0, 0.0, 0.0, 1.6360757103199484E9, 0.0, 2021-11-04 20:28:30.319
21.0, 880.1218762723729, 758.1712185172364, 613.6446546795778, 962.4389442470856, -0.06400000303983688, -0.04800000227987766, 1.008000047877431, 0.0, 0.0, 0.0, 0.0, 0.0, 1.6360757103206186E9, 0.0, 2021-11-04 20:28:30.320
21.0, 877.3169513056055, 735.2979903882369, 614.4524730700068, 947.153973128181, -0.06400000303983688, -0.04800000227987766, 1.008000047877431, 0.0, 0.0, 0.0, 0.0, 0.0, 1.6360757103206186E9, 0.0, 2021-11-04 20:28:30.320
22.0, 898.802676551044, 753.7768360693008, 624.6063014497049, 971.6091789384373, -0.06400000303983688, -0.04800000227987766, 1.008000047877431, 0.0, 0.0, 0.0, 0.0, 0.0, 1.6360757103343072E9, 0.0, 2021-11-04 20:28:30.334
22.0, 882.5154122440144, 750.7736964048818, 623.2225384660996, 940.8260624031536, -0.06400000303983688, -0.04800000227987766, 1.008000047877431, 0.0, 0.0, 0.0, 0.0, 0.0, 1.6360757103343072E9, 0.0, 2021-11-04 20:28:30.334
23.0, 886.3974283980206, 759.9214916964993, 617.9642391283996, 954.7048311387189, -0.06400000303983688, -0.04800000227987766, 1.008000047877431, 0.0, 0.0, 0.0, 0.0, 0.0, 1.6360757103503776E9, 0.0, 2021-11-04 20:28:30.350
23.0, 892.5271244253963, 755.2279172521085, 631.2072248714976, 964.9521570173092, -0.06400000303983688, -0.04800000227987766, 1.008000047877431, 0.0, 0.0, 0.0, 0.0, 0.0, 1.6360757103503776E9, 0.0, 2021-11-04 20:28:30.350
24.0, 893.6827535117045, 763.3322804560885, 632.6321267546155, 947.9804910183884, -0.06400000303983688, -0.04800000227987766, 1.008000047877431, 0.0, 0.0, 0.0, 0.0, 0.0, 1.636075710381063E9, 0.0, 2021-11-04 20:28:30.381
24.0, 894.6214684005827, 754.3826998621225, 617.8071633302607, 953.5566818523221, -0.06400000303983688, -0.04800000227987766, 1.008000047877431, 0.0, 0.0, 0.0, 0.0, 0.0, 1.636075710381063E9, 0.0, 2021-11-04 20:28:30.381
25.0, 890.2345657525584, 754.7940888572484, 603.2365131028928, 962.5997599451803, -0.06400000303983688, -0.04800000227987766, 1.008000047877431, 0.0, 0.0, 0.0, 0.0, 0.0, 1.6360757103817651E9, 0.0, 2021-11-04 20:28:30.381
25.0, 877.769479200244, 765.8567129261792, 623.7573441597633, 961.8143809544854, -0.06400000303983688, -0.04800000227987766, 1.008000047877431, 0.0, 0.0, 0.0, 0.0, 0.0, 1.6360757103817651E9, 0.0, 2021-11-04 20:28:30.381
26.0, 883.8804757278413, 771.9340503541753, 620.2119190017693, 944.741737656761, -0.06400000303983688, -0.04800000227987766, 1.008000047877431, 0.0, 0.0, 0.0, 0.0, 0.0, 1.6360757104120307E9, 0.0, 2021-11-04 20:28:30.412
26.0, 897.4824918666855, 758.3282943153754, 636.9330117036588, 946.5481093353592, -0.06400000303983688, -0.04800000227987766, 1.008000047877431, 0.0, 0.0, 0.0, 0.0, 0.0, 1.6360757104120307E9, 0.0, 2021-11-04 20:28:30.412
27.0, 894.7074860995635, 769.1777440868318, 638.9637773795985, 945.0147503535263, -0.06400000303983688, -0.04800000227987766, 1.008000047877431, 0.0, 0.0, 0.0, 0.0, 0.0, 1.6360757104127288E9, 0.0, 2021-11-04 20:28:30.412
27.0, 877.7021610010415, 759.068794506602, 624.4155665519647, 950.108494093176, -0.06400000303983688, -0.04800000227987766, 1.008000047877431, 0.0, 0.0, 0.0, 0.0, 0.0, 1.6360757104127288E9, 0.0, 2021-11-04 20:28:30.412
28.0, 879.8600832754746, 730.0396910505369, 612.8854549885727, 935.7173590636812, -0.06400000303983688, -0.04800000227987766, 1.008000047877431, 0.0, 0.0, 0.0, 0.0, 0.0, 1.6360757104134457E9, 0.0, 2021-11-04 20:28:30.413
28.0, 883.6710413303226, 765.0675940355286, 601.4787601237185, 957.6256930041127, -0.06400000303983688, -0.04800000227987766, 1.008000047877431, 0.0, 0.0, 0.0, 0.0, 0.0, 1.6360757104134457E9, 0.0, 2021-11-04 20:28:30.413
29.0, 883.3344503343105, 760.4824766898528, 610.1478482210077, 953.8446541489102, -0.06400000303983688, -0.04800000227987766, 1.008000047877431, 0.0, 0.0, 0.0, 0.0, 0.0, 1.6360757104142587E9, 0.0, 2021-11-04 20:28:30.414
29.0, 895.2235922934487, 760.456297390163, 630.6649393779226, 938.4661855311133, -0.06400000303983688, -0.04800000227987766, 1.008000047877431, 0.0, 0.0, 0.0, 0.0, 0.0, 1.6360757104142587E9, 0.0, 2021-11-04 20:28:30.414
30.0, 890.8516492452472, 744.2812300818041, 596.6355896811001, 933.368701891508, -0.06400000303983688, -0.04800000227987766, 1.008000047877431, 0.0, 0.0, 0.0, 0.0, 0.0, 1.6360757104249678E9, 0.0, 2021-11-04 20:28:30.424
30.0, 886.5694637959823, 739.8045698348433, 614.0859628743492, 937.0487634479068, -0.06400000303983688, -0.04800000227987766, 1.008000047877431, 0.0, 0.0, 0.0, 0.0, 0.0, 1.6360757104249678E9, 0.0, 2021-11-04 20:28:30.424
31.0, 871.1610759785399, 755.9347583437338, 613.7306723785587, 924.7706718933769, -0.06400000303983688, -0.04800000227987766, 1.008000047877431, 0.0, 0.0, 0.0, 0.0, 0.0, 1.6360757104257004E9, 0.0, 2021-11-04 20:28:30.425
31.0, 869.9007296934724, 752.5052700843662, 610.9855858110823, 929.3370897392742, -0.06400000303983688, -0.04800000227987766, 1.008000047877431, 0.0, 0.0, 0.0, 0.0, 0.0, 1.6360757104257004E9, 0.0, 2021-11-04 20:28:30.425
32.0, 875.9444080218673, 756.174111940898, 601.7779521201737, 915.1553891072981, -0.06400000303983688, -0.04800000227987766, 1.008000047877431, 0.0, 0.0, 0.0, 0.0, 0.0, 1.636075710440364E9, 0.0, 2021-11-04 20:28:30.440
32.0, 866.7592137306929, 747.3516879454255, 607.7580521493219, 918.2295868708752, -0.06400000303983688, -0.04800000227987766, 1.008000047877431, 0.0, 0.0, 0.0, 0.0, 0.0, 1.636075710440364E9, 0.0, 2021-11-04 20:28:30.440
33.0, 872.0324726682156, 733.9553663041443, 600.5101260351948, 924.467739996966, -0.06400000303983688, -0.04800000227987766, 1.008000047877431, 0.0, 0.0, 0.0, 0.0, 0.0, 1.6360757104719293E9, 0.0, 2021-11-04 20:28:30.471
33.0, 878.2070474950597, 742.7478710999712, 619.5387370097451, 936.9440462491475, -0.06400000303983688, -0.04800000227987766, 1.008000047877431, 0.0, 0.0, 0.0, 0.0, 0.0, 1.6360757104719293E9, 0.0, 2021-11-04 20:28:30.471
34.0, 859.6945427143946, 755.5645082481205, 602.5969902104698, 931.221999316942, -0.06400000303983688, -0.04800000227987766, 1.008000047877431, 0.0, 0.0, 0.0, 0.0, 0.0, 1.636075710472664E9, 0.0, 2021-11-04 20:28:30.472
34.0, 876.0192060209811, 754.8427075566724, 612.2384522962384, 929.8681555329822, -0.06400000303983688, -0.04800000227987766, 1.008000047877431, 0.0, 0.0, 0.0, 0.0, 0.0, 1.636075710472664E9, 0.0, 2021-11-04 20:28:30.472
35.0, 864.8443849533796, 753.918952267617, 599.2609994499944, 931.6146888122894, -0.06400000303983688, -0.04800000227987766, 1.008000047877431, 0.0, 0.0, 0.0, 0.0, 0.0, 1.6360757104734259E9, 0.0, 2021-11-04 20:28:30.473
35.0, 860.2069090083241, 757.7486098222435, 613.5025384812616, 932.4823456020094, -0.06400000303983688, -0.04800000227987766, 1.008000047877431, 0.0, 0.0, 0.0, 0.0, 0.0, 1.6360757104734259E9, 0.0, 2021-11-04 20:28:30.473
36.0, 871.8080786708742, 757.8570669209585, 639.5771209723316, 926.2853313754313, -0.06400000303983688, -0.04800000227987766, 1.008000047877431, 0.0, 0.0, 0.0, 0.0, 0.0, 1.6360757104742196E9, 0.0, 2021-11-04 20:28:30.474
36.0, 873.8500640466809, 764.8058010386303, 616.1803068495356, 920.8400370399468, -0.06400000303983688, -0.04800000227987766, 1.008000047877431, 0.0, 0.0, 0.0, 0.0, 0.0, 1.6360757104742196E9, 0.0, 2021-11-04 20:28:30.474
37.0, 874.0520186442882, 737.6952662598342, 606.9203145592473, 909.885870069731, -0.06400000303983688, -0.04800000227987766, 1.008000047877431, 0.0, 0.0, 0.0, 0.0, 0.0, 1.6360757104842255E9, 0.0, 2021-11-04 20:28:30.484
37.0, 874.6317031374201, 742.448679103516, 599.6424692454748, 920.4735268442892, -0.06400000303983688, -0.04800000227987766, 1.008000047877431, 0.0, 0.0, 0.0, 0.0, 0.0, 1.6360757104842255E9, 0.0, 2021-11-04 20:28:30.484
38.0, 868.180375713855, 745.5191369671375, 618.6935196197592, 923.9254545033909, -0.06400000303983688, -0.04800000227987766, 1.008000047877431, 0.0, 0.0, 0.0, 0.0, 0.0, 1.6360757104999983E9, 0.0, 2021-11-04 20:28:30.499
38.0, 870.3345580883324, 754.3228614628315, 602.1631618156098, 930.0925495303236, -0.06400000303983688, -0.04800000227987766, 1.008000047877431, 0.0, 0.0, 0.0, 0.0, 0.0, 1.6360757104999983E9, 0.0, 2021-11-04 20:28:30.499
39.0, 871.063838579692, 749.5731885191053, 586.5266401008703, 924.1124495011754, -0.06400000303983688, -0.04800000227987766, 1.008000047877431, 0.0, 0.0, 0.0, 0.0, 0.0, 1.6360757105007217E9, 0.0, 2021-11-04 20:28:30.500
39.0, 878.577297590673, 752.4454316850752, 623.061722768005, 919.5086326557212, -0.06400000303983688, -0.04800000227987766, 1.008000047877431, 0.0, 0.0, 0.0, 0.0, 0.0, 1.6360757105007217E9, 0.0, 2021-11-04 20:28:30.500
40.0, 873.0123264566064, 756.0993139417842, 621.7677173833363, 913.4612144273706, -0.06400000303983688, -0.04800000227987766, 1.008000047877431, 0.0, 0.0, 0.0, 0.0, 0.0, 1.6360757105315304E9, 0.0, 2021-11-04 20:28:30.531
40.0, 863.1090713739395, 764.1961973458529, 627.9647316099145, 921.7189135295339, -0.06400000303983688, -0.04800000227987766, 1.008000047877431, 0.0, 0.0, 0.0, 0.0, 0.0, 1.6360757105315304E9, 0.0, 2021-11-04 20:28:30.531
41.0, 869.567878597416, 756.5705413362011, 609.1006762334146, 912.2906257412396, -0.06400000303983688, -0.04800000227987766, 1.008000047877431, 0.0, 0.0, 0.0, 0.0, 0.0, 1.636075710532096E9, 0.0, 2021-11-04 20:28:30.532
41.0, 870.7422071835026, 757.198844528757, 616.5468170451932, 921.6964741297998, -0.06400000303983688, -0.04800000227987766, 1.008000047877431, 0.0, 0.0, 0.0, 0.0, 0.0, 1.636075710532096E9, 0.0, 2021-11-04 20:28:30.532
42.0, 860.3789444062859, 760.3927190909162, 631.0838081729598, 930.5749966246076, -0.06400000303983688, -0.04800000227987766, 1.008000047877431, 0.0, 0.0, 0.0, 0.0, 0.0, 1.6360757105328207E9, 0.0, 2021-11-04 20:28:30.532
42.0, 870.7048081839457, 762.3299872679636, 603.704000597354, 904.5565126328729, -0.06400000303983688, -0.04800000227987766, 1.008000047877431, 0.0, 0.0, 0.0, 0.0, 0.0, 1.6360757105328207E9, 0.0, 2021-11-04 20:28:30.532
43.0, 874.5232460387051, 760.0187290953472, 607.8104107487015, 910.5291328621097, -0.06400000303983688, -0.04800000227987766, 1.008000047877431, 0.0, 0.0, 0.0, 0.0, 0.0, 1.6360757105606973E9, 0.0, 2021-11-04 20:28:30.560
43.0, 875.8696100227535, 753.0512954778969, 607.769271849189, 922.0517646255903, -0.06400000303983688, -0.04800000227987766, 1.008000047877431, 0.0, 0.0, 0.0, 0.0, 0.0, 1.6360757105606973E9, 0.0, 2021-11-04 20:28:30.560
44.0, 867.578251820989, 742.9161665979773, 637.6323729953729, 920.1144964485429, -0.06400000303983688, -0.04800000227987766, 1.008000047877431, 0.0, 0.0, 0.0, 0.0, 0.0, 1.636075710561552E9, 0.0, 2021-11-04 20:28:30.561
44.0, 862.7276015784591, 742.8189291991293, 623.3683945643716, 914.8524572108872, -0.06400000303983688, -0.04800000227987766, 1.008000047877431, 0.0, 0.0, 0.0, 0.0, 0.0, 1.636075710561552E9, 0.0, 2021-11-04 20:28:30.561
45.0, 867.6941887196153, 745.0217302730307, 622.6054549734108, 921.789971628692, -0.06400000303983688, -0.04800000227987766, 1.008000047877431, 0.0, 0.0, 0.0, 0.0, 0.0, 1.6360757105621505E9, 0.0, 2021-11-04 20:28:30.562
45.0, 865.0239001512527, 761.3276940798387, 620.4363129991107, 926.3152505750768, -0.06400000303983688, -0.04800000227987766, 1.008000047877431, 0.0, 0.0, 0.0, 0.0, 0.0, 1.6360757105621505E9, 0.0, 2021-11-04 20:28:30.562
46.0, 865.1398370498791, 757.8009684216231, 616.7525115427561, 922.911941615399, -0.06400000303983688, -0.04800000227987766, 1.008000047877431, 0.0, 0.0, 0.0, 0.0, 0.0, 1.6360757105906577E9, 0.0, 2021-11-04 20:28:30.590
46.0, 873.0609451560304, 766.0100488243625, 624.1275942553766, 916.8308642874472, -0.06400000303983688, -0.04800000227987766, 1.008000047877431, 0.0, 0.0, 0.0, 0.0, 0.0, 1.6360757105906577E9, 0.0, 2021-11-04 20:28:30.590
47.0, 875.4021225282922, 758.6798449112102, 617.1900798375718, 919.2281401590444, -0.06400000303983688, -0.04800000227987766, 1.008000047877431, 0.0, 0.0, 0.0, 0.0, 0.0, 1.63607571059154E9, 0.0, 2021-11-04 20:28:30.591
47.0, 867.1631229259074, 763.2836617566645, 594.3355512083508, 903.3784441468306, -0.06400000303983688, -0.04800000227987766, 1.008000047877431, 0.0, 0.0, 0.0, 0.0, 0.0, 1.63607571059154E9, 0.0, 2021-11-04 20:28:30.591
48.0, 877.8517569992691, 749.7788830166683, 608.9286408354528, 906.8490713057108, -0.06400000303983688, -0.04800000227987766, 1.008000047877431, 0.0, 0.0, 0.0, 0.0, 0.0, 1.6360757105921924E9, 0.0, 2021-11-04 20:28:30.592
48.0, 861.5046542929485, 743.6155278896913, 622.7849701712839, 921.7675322289579, -0.06400000303983688, -0.04800000227987766, 1.008000047877431, 0.0, 0.0, 0.0, 0.0, 0.0, 1.6360757105921924E9, 0.0, 2021-11-04 20:28:30.592
49.0, 868.7675400068983, 748.9149661269039, 624.1649932549335, 919.1720416597091, -0.06400000303983688, -0.04800000227987766, 1.008000047877431, 0.0, 0.0, 0.0, 0.0, 0.0, 1.6360757106042492E9, 0.0, 2021-11-04 20:28:30.604
49.0, 875.7611529240385, 747.8004759401083, 607.4252010532655, 902.4920878573321, -0.06400000303983688, -0.04800000227987766, 1.008000047877431, 0.0, 0.0, 0.0, 0.0, 0.0, 1.6360757106042492E9, 0.0, 2021-11-04 20:28:30.604
50.0, 876.3782364167273, 755.1232000533491, 614.6319882678799, 911.0863779555075, -0.06400000303983688, -0.04800000227987766, 1.008000047877431, 0.0, 0.0, 0.0, 0.0, 0.0, 1.6360757106200228E9, 0.0, 2021-11-04 20:28:30.620
50.0, 876.804585011676, 769.4694562833756, 604.1565284919925, 929.8531959331594, -0.06400000303983688, -0.04800000227987766, 1.008000047877431, 0.0, 0.0, 0.0, 0.0, 0.0, 1.6360757106200228E9, 0.0, 2021-11-04 20:28:30.620
51.0, 883.0651775375009, 755.3251546509564, 597.7912187674083, 912.8441309346817, -0.06400000303983688, -0.04800000227987766, 1.008000047877431, 0.0, 0.0, 0.0, 0.0, 0.0, 1.636075710620767E9, 0.0, 2021-11-04 20:28:30.620
51.0, 881.1054699607193, 752.2172977877781, 619.0413303156383, 910.4468550630845, -0.06400000303983688, -0.04800000227987766, 1.008000047877431, 0.0, 0.0, 0.0, 0.0, 0.0, 1.636075710620767E9, 0.0, 2021-11-04 20:28:30.620
52.0, 871.7108412720263, 745.2947429697961, 626.8203222234733, 918.4951197677292, -0.06400000303983688, -0.04800000227987766, 1.008000047877431, 0.0, 0.0, 0.0, 0.0, 0.0, 1.6360757106505632E9, 0.0, 2021-11-04 20:28:30.650
52.0, 882.6163895428181, 751.4132192973047, 606.9913726584055, 912.5411990382709, -0.06400000303983688, -0.04800000227987766, 1.008000047877431, 0.0, 0.0, 0.0, 0.0, 0.0, 1.6360757106505632E9, 0.0, 2021-11-04 20:28:30.650
53.0, 879.2392598828301, 751.4356586970389, 590.0832849587314, 901.2055622725748, -0.06400000303983688, -0.04800000227987766, 1.008000047877431, 0.0, 0.0, 0.0, 0.0, 0.0, 1.6360757106513572E9, 0.0, 2021-11-04 20:28:30.651
53.0, 881.8721494516358, 748.2081250352785, 613.0200913869776, 898.8980439999141, -0.06400000303983688, -0.04800000227987766, 1.008000047877431, 0.0, 0.0, 0.0, 0.0, 0.0, 1.6360757106513572E9, 0.0, 2021-11-04 20:28:30.651
54.0, 880.4921263679862, 741.0088176205754, 615.7988370540552, 909.4969204743393, -0.06400000303983688, -0.04800000227987766, 1.008000047877431, 0.0, 0.0, 0.0, 0.0, 0.0, 1.6360757106520317E9, 0.0, 2021-11-04 20:28:30.652
54.0, 870.9703410807997, 763.5753739532083, 597.0544584761374, 917.3170512816869, -0.06400000303983688, -0.04800000227987766, 1.008000047877431, 0.0, 0.0, 0.0, 0.0, 0.0, 1.6360757106520317E9, 0.0, 2021-11-04 20:28:30.652
55.0, 895.0926957949996, 759.7606759984046, 598.6177366576158, 916.9468011860736, -0.06400000303983688, -0.04800000227987766, 1.008000047877431, 0.0, 0.0, 0.0, 0.0, 0.0, 1.6360757106642196E9, 0.0, 2021-11-04 20:28:30.664
55.0, 894.183900105767, 745.7734501641244, 613.835389577318, 923.0615376136266, -0.06400000303983688, -0.04800000227987766, 1.008000047877431, 0.0, 0.0, 0.0, 0.0, 0.0, 1.6360757106642196E9, 0.0, 2021-11-04 20:28:30.664
56.0, 887.3772821864113, 749.8200219161808, 592.6937351278029, 912.2120878421701, -0.06400000303983688, -0.04800000227987766, 1.008000047877431, 0.0, 0.0, 0.0, 0.0, 0.0, 1.6360757106799047E9, 0.0, 2021-11-04 20:28:30.679
56.0, 884.4152814215049, 758.7770823100582, 614.5422306689434, 924.5574975959025, -0.06400000303983688, -0.04800000227987766, 1.008000047877431, 0.0, 0.0, 0.0, 0.0, 0.0, 1.6360757106799047E9, 0.0, 2021-11-04 20:28:30.679
57.0, 895.7209989875555, 767.3938118079677, 633.952311438974, 928.604069347959, -0.06400000303983688, -0.04800000227987766, 1.008000047877431, 0.0, 0.0, 0.0, 0.0, 0.0, 1.636075710680664E9, 0.0, 2021-11-04 20:28:30.680
57.0, 898.1407142588869, 757.8047083215788, 609.0483176340349, 921.2028073356487, -0.06400000303983688, -0.04800000227987766, 1.008000047877431, 0.0, 0.0, 0.0, 0.0, 0.0, 1.636075710680664E9, 0.0, 2021-11-04 20:28:30.680
58.0, 895.7546580871567, 755.4672708492726, 620.0959821031429, 908.9321955810301, -0.06400000303983688, -0.04800000227987766, 1.008000047877431, 0.0, 0.0, 0.0, 0.0, 0.0, 1.6360757106942575E9, 0.0, 2021-11-04 20:28:30.694
58.0, 887.6727342829108, 769.7798679796979, 620.4250932992436, 917.8144579757936, -0.06400000303983688, -0.04800000227987766, 1.008000047877431, 0.0, 0.0, 0.0, 0.0, 0.0, 1.6360757106942575E9, 0.0, 2021-11-04 20:28:30.694
59.0, 889.0003987671807, 761.6081865765154, 631.6298335664906, 927.0632305662148, -0.06400000303983688, -0.04800000227987766, 1.008000047877431, 0.0, 0.0, 0.0, 0.0, 0.0, 1.6360757107098956E9, 0.0, 2021-11-04 20:28:30.709
59.0, 892.156874329783, 756.6191600356251, 613.1883868849836, 920.9671936384402, -0.06400000303983688, -0.04800000227987766, 1.008000047877431, 0.0, 0.0, 0.0, 0.0, 0.0, 1.6360757107098956E9, 0.0, 2021-11-04 20:28:30.709
60.0, 894.8084633983672, 750.8410146040842, 591.8821768374182, 938.7317184279673, -0.06400000303983688, -0.04800000227987766, 1.008000047877431, 0.0, 0.0, 0.0, 0.0, 0.0, 1.6360757107106159E9, 0.0, 2021-11-04 20:28:30.710
60.0, 905.0931882765144, 764.2635155450553, 615.3986677587964, 933.5781362890266, -0.06400000303983688, -0.04800000227987766, 1.008000047877431, 0.0, 0.0, 0.0, 0.0, 0.0, 1.6360757107106159E9, 0.0, 2021-11-04 20:28:30.710
61.0, 890.7394522465765, 758.2983751157299, 617.4743122342043, 929.6512413355522, -0.06400000303983688, -0.04800000227987766, 1.008000047877431, 0.0, 0.0, 0.0, 0.0, 0.0, 1.6360757107570183E9, 0.0, 2021-11-04 20:28:30.757
61.0, 899.1916261464357, 765.5089022303, 610.2637851196341, 934.6440077763982, -0.06400000303983688, -0.04800000227987766, 1.008000047877431, 0.0, 0.0, 0.0, 0.0, 0.0, 1.6360757107570183E9, 0.0, 2021-11-04 20:28:30.757
62.0, 895.1338346945122, 762.831133862026, 615.331349559594, 929.894334832672, -0.06400000303983688, -0.04800000227987766, 1.008000047877431, 0.0, 0.0, 0.0, 0.0, 0.0, 1.636075710757748E9, 0.0, 2021-11-04 20:28:30.757
62.0, 897.9163202615455, 754.3752200622112, 621.7153587839566, 935.4967049662955, -0.06400000303983688, -0.04800000227987766, 1.008000047877431, 0.0, 0.0, 0.0, 0.0, 0.0, 1.636075710757748E9, 0.0, 2021-11-04 20:28:30.757
63.0, 891.880121733062, 761.806401274167, 609.1567747327499, 935.4854852664284, -0.06400000303983688, -0.04800000227987766, 1.008000047877431, 0.0, 0.0, 0.0, 0.0, 0.0, 1.6360757107584517E9, 0.0, 2021-11-04 20:28:30.758
63.0, 900.792303327471, 746.730864552781, 581.6797297582962, 941.9218530901708, -0.06400000303983688, -0.04800000227987766, 1.008000047877431, 0.0, 0.0, 0.0, 0.0, 0.0, 1.6360757107584517E9, 0.0, 2021-11-04 20:28:30.758
64.0, 886.8237769929692, 754.292942263186, 613.6670940793119, 940.399713808205, -0.06400000303983688, -0.04800000227987766, 1.008000047877431, 0.0, 0.0, 0.0, 0.0, 0.0, 1.6360757107591956E9, 0.0, 2021-11-04 20:28:30.759
64.0, 892.5832229247317, 766.316720620729, 638.788002081681, 929.9354737321846, -0.06400000303983688, -0.04800000227987766, 1.008000047877431, 0.0, 0.0, 0.0, 0.0, 0.0, 1.6360757107591956E9, 0.0, 2021-11-04 20:28:30.759
65.0, 894.2960971044376, 783.1761896209791, 633.0846546492539, 924.6696945945732, -0.06400000303983688, -0.04800000227987766, 1.008000047877431, 0.0, 0.0, 0.0, 0.0, 0.0, 1.6360757107699096E9, 0.0, 2021-11-04 20:28:30.769
65.0, 880.8474168637767, 765.5724805295467, 634.9845238267444, 943.8217222676612, -0.06400000303983688, -0.04800000227987766, 1.008000047877431, 0.0, 0.0, 0.0, 0.0, 0.0, 1.6360757107699096E9, 0.0, 2021-11-04 20:28:30.769
66.0, 883.3269705343992, 759.7644158983603, 614.7703645662405, 935.5490635656752, -0.06400000303983688, -0.04800000227987766, 1.008000047877431, 0.0, 0.0, 0.0, 0.0, 0.0, 1.6360757107706523E9, 0.0, 2021-11-04 20:28:30.770
66.0, 878.3529035933316, 768.5756201939657, 624.8531348467804, 950.4974436885677, -0.06400000303983688, -0.04800000227987766, 1.008000047877431, 0.0, 0.0, 0.0, 0.0, 0.0, 1.6360757107706523E9, 0.0, 2021-11-04 20:28:30.770
67.0, 883.4466473329812, 765.6248391289264, 604.4220613888465, 950.3067087908275, -0.06400000303983688, -0.04800000227987766, 1.008000047877431, 0.0, 0.0, 0.0, 0.0, 0.0, 1.6360757108006916E9, 0.0, 2021-11-04 20:28:30.800
67.0, 881.0568512612954, 767.9996756007895, 610.1141891214065, 941.4543655957095, -0.06400000303983688, -0.04800000227987766, 1.008000047877431, 0.0, 0.0, 0.0, 0.0, 0.0, 1.6360757108006916E9, 0.0, 2021-11-04 20:28:30.800
68.0, 885.0136654144153, 765.2059703338891, 599.0590448523872, 937.2320185457356, -0.06400000303983688, -0.04800000227987766, 1.008000047877431, 0.0, 0.0, 0.0, 0.0, 0.0, 1.6360757108014228E9, 0.0, 2021-11-04 20:28:30.801
68.0, 858.6997293261811, 756.8211146332324, 614.8676019650884, 941.532903494779, -0.06400000303983688, -0.04800000227987766, 1.008000047877431, 0.0, 0.0, 0.0, 0.0, 0.0, 1.6360757108014228E9, 0.0, 2021-11-04 20:28:30.801
69.0, 880.1555353719741, 747.7294178409502, 591.2389140450396, 946.405993137043, -0.06400000303983688, -0.04800000227987766, 1.008000047877431, 0.0, 0.0, 0.0, 0.0, 0.0, 1.6360757108021188E9, 0.0, 2021-11-04 20:28:30.802
69.0, 875.6377362255007, 740.9340196214616, 596.5233926824294, 940.6353275054134, -0.06400000303983688, -0.04800000227987766, 1.008000047877431, 0.0, 0.0, 0.0, 0.0, 0.0, 1.6360757108021188E9, 0.0, 2021-11-04 20:28:30.802
70.0, 877.1224765079096, 738.6788599481806, 598.168948662933, 956.2793290200643, -0.06400000303983688, -0.04800000227987766, 1.008000047877431, 0.0, 0.0, 0.0, 0.0, 0.0, 1.636075710847032E9, 0.0, 2021-11-04 20:28:30.847
70.0, 873.9510413454846, 743.8436617869884, 608.47985284077, 937.6022686413489, -0.06400000303983688, -0.04800000227987766, 1.008000047877431, 0.0, 0.0, 0.0, 0.0, 0.0, 1.636075710847032E9, 0.0, 2021-11-04 20:28:30.847
71.0, 866.5310798333958, 756.4620842374861, 586.1189910057001, 912.9301486336626, -0.06400000303983688, -0.04800000227987766, 1.008000047877431, 0.0, 0.0, 0.0, 0.0, 0.0, 1.6360757108477015E9, 0.0, 2021-11-04 20:28:30.847
71.0, 862.8248389773071, 764.603846441023, 595.5285792942159, 943.1672397754155, -0.06400000303983688, -0.04800000227987766, 1.008000047877431, 0.0, 0.0, 0.0, 0.0, 0.0, 1.6360757108477015E9, 0.0, 2021-11-04 20:28:30.847
72.0, 863.838351865299, 754.4687175611034, 606.8829155596904, 951.4922570767812, -0.06400000303983688, -0.04800000227987766, 1.008000047877431, 0.0, 0.0, 0.0, 0.0, 0.0, 1.636075710848464E9, 0.0, 2021-11-04 20:28:30.848
72.0, 857.6899563381448, 749.8462012158707, 593.236020621378, 955.0975206340663, -0.06400000303983688, -0.04800000227987766, 1.008000047877431, 0.0, 0.0, 0.0, 0.0, 0.0, 1.636075710848464E9, 0.0, 2021-11-04 20:28:30.848
73.0, 869.0929113030434, 755.4784905491397, 604.8783291834407, 947.8421147200279, -0.06400000303983688, -0.04800000227987766, 1.008000047877431, 0.0, 0.0, 0.0, 0.0, 0.0, 1.6360757108491852E9, 0.0, 2021-11-04 20:28:30.849
73.0, 865.4801679458469, 757.9804836194962, 605.8619228717871, 961.638605656568, -0.06400000303983688, -0.04800000227987766, 1.008000047877431, 0.0, 0.0, 0.0, 0.0, 0.0, 1.6360757108491852E9, 0.0, 2021-11-04 20:28:30.849
74.0, 848.328986749053, 743.7613839879632, 600.6672018333338, 948.8331882082857, -0.06400000303983688, -0.04800000227987766, 1.008000047877431, 0.0, 0.0, 0.0, 0.0, 0.0, 1.6360757108755932E9, 0.0, 2021-11-04 20:28:30.875
74.0, 859.3542118184268, 717.8588368948549, 601.6881945212372, 939.1431074230932, -0.06400000303983688, -0.04800000227987766, 1.008000047877431, 0.0, 0.0, 0.0, 0.0, 0.0, 1.6360757108755932E9, 0.0, 2021-11-04 20:28:30.875
75.0, 842.8836924135685, 744.4682250795886, 611.2025000085123, 953.0817145579495, -0.06400000303983688, -0.04800000227987766, 1.008000047877431, 0.0, 0.0, 0.0, 0.0, 0.0, 1.6360757108763776E9, 0.0, 2021-11-04 20:28:30.876
75.0, 846.8517262665555, 758.6312262117863, 590.6629694518633, 945.1419069520198, -0.06400000303983688, -0.04800000227987766, 1.008000047877431, 0.0, 0.0, 0.0, 0.0, 0.0, 1.6360757108763776E9, 0.0, 2021-11-04 20:28:30.876
76.0, 858.3930575298145, 766.1708645224571, 574.1363515476696, 939.9621455133893, -0.06400000303983688, -0.04800000227987766, 1.008000047877431, 0.0, 0.0, 0.0, 0.0, 0.0, 1.6360757108771443E9, 0.0, 2021-11-04 20:28:30.877
76.0, 863.8346119653434, 758.8743197089061, 595.4201221955009, 958.2240769970231, -0.06400000303983688, -0.04800000227987766, 1.008000047877431, 0.0, 0.0, 0.0, 0.0, 0.0, 1.6360757108771443E9, 0.0, 2021-11-04 20:28:30.877
77.0, 861.1643233969808, 738.3048699526116, 614.7591448663734, 954.0952274459414, -0.06400000303983688, -0.04800000227987766, 1.008000047877431, 0.0, 0.0, 0.0, 0.0, 0.0, 1.6360757108898911E9, 0.0, 2021-11-04 20:28:30.889
77.0, 858.4416762292385, 745.9454855620861, 620.3764745998196, 956.2905487199314, -0.06400000303983688, -0.04800000227987766, 1.008000047877431, 0.0, 0.0, 0.0, 0.0, 0.0, 1.6360757108898911E9, 0.0, 2021-11-04 20:28:30.889
78.0, 869.0592522034422, 752.2958356868476, 567.0230618319474, 960.7372897672467, -0.06400000303983688, -0.04800000227987766, 1.008000047877431, 0.0, 0.0, 0.0, 0.0, 0.0, 1.6360757108906393E9, 0.0, 2021-11-04 20:28:30.890
78.0, 869.6464164964855, 750.9382520029321, 587.6224307878874, 976.7216221778654, -0.06400000303983688, -0.04800000227987766, 1.008000047877431, 0.0, 0.0, 0.0, 0.0, 0.0, 1.6360757108906393E9, 0.0, 2021-11-04 20:28:30.890
