%OpenBCI Raw EEG Data
%Number of channels = 4
%Sample Rate = 200 Hz
%Board = OpenBCI_GUI$BoardGanglionBLE
Sample Index, EXG Channel 0, EXG Channel 1, EXG Channel 2, EXG Channel 3, Accel Channel 0, Accel Channel 1, Accel Channel 2, Other, Other, Other, Other, Other, Timestamp, Other, Timestamp (Formatted)
2.0, 13.493559040129185, 24.245771412737668, 25.266764100641012, 26.025963791646063, -0.0800000037997961, 0.0, 0.0, 0.0, 0.0, 0.0, 0.0, 0.0, 1.636075678897075E9, 0.0, 2021-11-04 20:27:58.897
2.0, -13.564617139287293, 30.427826039493084, 54.72221615165472, 17.68972679041326, -0.0800000037997961, 0.0, 0.0, 0.0, 0.0, 0.0, 0.0, 0.0, 1.636075678897075E9, 0.0, 2021-11-04 20:27:58.897
3.0, -26.276537088677287, 51.4311041906476, 55.0999460471794, 16.732312401756644, -0.0800000037997961, 0.0, 0.0, 0.0, 0.0, 0.0, 0.0, 0.0, 1.636075678897878E9, 0.0, 2021-11-04 20:27:58.897
3.0, -33.30006920546293, 51.14313189405948, 31.463778327219188, 29.167479754425585, -0.0800000037997961, 0.0, 0.0, 0.0, 0.0, 0.0, 0.0, 0.0, 1.636075678897878E9, 0.0, 2021-11-04 20:27:58.897
4.0, -30.510103838518262, 53.58528656512499, 57.351365820504725, 25.090988802723587, -0.0800000037997961, 0.0, 0.0, 0.0, 0.0, 0.0, 0.0, 0.0, 1.6360756789112253E9, 0.0, 2021-11-04 20:27:58.911
4.0, -36.62858016602695, 51.94721038453281, 96.59787595551461, 32.6829857127741, -0.0800000037997961, 0.0, 0.0, 0.0, 0.0, 0.0, 0.0, 0.0, 1.6360756789112253E9, 0.0, 2021-11-04 20:27:58.911
5.0, -26.123201190494, 79.51027305796742, 86.0027393810451, 5.037645240314305, -0.0800000037997961, 0.0, 0.0, 0.0, 0.0, 0.0, 0.0, 0.0, 1.636075678942686E9, 0.0, 2021-11-04 20:27:58.942
5.0, -12.05743745714426, 97.33837614674121, 103.18009987752885, 34.20886489469558, -0.0800000037997961, 0.0, 0.0, 0.0, 0.0, 0.0, 0.0, 0.0, 1.636075678942686E9, 0.0, 2021-11-04 20:27:58.942
6.0, -58.514474706724286, 48.03527503088117, 79.1138436626643, -4.0839707516133785, -0.0800000037997961, 0.0, 0.0, 0.0, 0.0, 0.0, 0.0, 0.0, 1.6360756789432237E9, 0.0, 2021-11-04 20:27:58.943
6.0, -81.38022303581238, 24.623501308262348, 48.113812929950655, -7.079630616120994, -0.0800000037997961, 0.0, 0.0, 0.0, 0.0, 0.0, 0.0, 0.0, 1.6360756789432237E9, 0.0, 2021-11-04 20:27:58.943
7.0, -73.41797603014857, 49.44521731417626, 18.05623698607087, 24.12609461415559, -0.0800000037997961, 0.0, 0.0, 0.0, 0.0, 0.0, 0.0, 0.0, 1.636075678943972E9, 0.0, 2021-11-04 20:27:58.943
7.0, -75.25426690839231, 31.76671022363007, -3.2499730614945292, 12.05369755718857, -0.0800000037997961, 0.0, 0.0, 0.0, 0.0, 0.0, 0.0, 0.0, 1.636075678943972E9, 0.0, 2021-11-04 20:27:58.943
8.0, -74.30433231964707, 10.348303177393973, 39.90099262725562, 24.96757210418582, -0.0800000037997961, 0.0, 0.0, 0.0, 0.0, 0.0, 0.0, 0.0, 1.636075678944728E9, 0.0, 2021-11-04 20:27:58.944
8.0, -77.62536348029971, 44.28415537532419, 33.565602102316916, 18.239492083899677, -0.0800000037997961, 0.0, 0.0, 0.0, 0.0, 0.0, 0.0, 0.0, 1.636075678944728E9, 0.0, 2021-11-04 20:27:58.944
9.0, -73.31699873134494, 7.034751816652715, 18.332989582791924, 3.1489957626909018, -0.0800000037997961, 0.0, 0.0, 0.0, 0.0, 0.0, 0.0, 0.0, 1.6360756789547842E9, 0.0, 2021-11-04 20:27:58.954
9.0, -96.80731035303324, -19.70553286653012, -64.29262013826519, -18.433966881595552, -0.0800000037997961, 0.0, 0.0, 0.0, 0.0, 0.0, 0.0, 0.0, 1.6360756789547842E9, 0.0, 2021-11-04 20:27:58.954
10.0, -98.30327033530921, -27.540623273700476, -35.15131968352944, -1.9597075767815113, -0.0800000037997961, 0.0, 1.008000047877431, 0.0, 0.0, 0.0, 0.0, 0.0, 1.6360756789555268E9, 0.0, 2021-11-04 20:27:58.955
10.0, -93.4900190923363, -42.25712959934026, -66.40566361322999, -1.8213312784209847, -0.0800000037997961, 0.0, 1.008000047877431, 0.0, 0.0, 0.0, 0.0, 0.0, 1.6360756789555268E9, 0.0, 2021-11-04 20:27:58.955
11.0, -90.65143502596766, -52.37729887943715, -87.64081556163728, -12.005078857764602, -0.0800000037997961, -0.06400000303983688, 1.008000047877431, 0.0, 0.0, 0.0, 0.0, 0.0, 1.6360756789865572E9, 0.0, 2021-11-04 20:27:58.986
11.0, -101.96089249197394, -84.77231229562312, -101.1568140015006, -44.76660246960819, -0.0800000037997961, -0.06400000303983688, 1.008000047877431, 0.0, 0.0, 0.0, 0.0, 0.0, 1.6360756789865572E9, 0.0, 2021-11-04 20:27:58.986
12.0, -90.25126573070884, -64.91344353090972, -75.94614840019494, -12.835336647927761, -0.06400000303983688, -0.06400000303983688, 1.008000047877431, 0.0, 0.0, 0.0, 0.0, 0.0, 1.636075678987329E9, 0.0, 2021-11-04 20:27:58.987
12.0, -113.73783745244145, -110.00167739670724, -127.67644458729774, -60.46296258363873, -0.06400000303983688, -0.06400000303983688, 1.008000047877431, 0.0, 0.0, 0.0, 0.0, 0.0, 1.636075678987329E9, 0.0, 2021-11-04 20:27:58.987
13.0, -103.85702176950872, -120.07696787733585, -168.72558650095016, -62.50120805948973, -0.06400000303983688, -0.06400000303983688, 1.008000047877431, 0.0, 0.0, 0.0, 0.0, 0.0, 1.6360756790318544E9, 0.0, 2021-11-04 20:27:59.031
13.0, -90.78981132432818, -110.89177358616143, -140.1826700391248, -39.43724503275007, -0.06400000303983688, -0.06400000303983688, 1.008000047877431, 0.0, 0.0, 0.0, 0.0, 0.0, 1.6360756790318544E9, 0.0, 2021-11-04 20:27:59.031
14.0, -63.335205749608576, -79.14002296235412, -140.74365503247827, -41.43809150904417, -0.06400000303983688, -0.06400000303983688, 1.008000047877431, 0.0, 0.0, 0.0, 0.0, 0.0, 1.6360756790326054E9, 0.0, 2021-11-04 20:27:59.032
14.0, -75.18694870918989, -103.24367817677557, -166.4891263274476, -150.2542206197977, -0.06400000303983688, -0.06400000303983688, 1.008000047877431, 0.0, 0.0, 0.0, 0.0, 0.0, 1.6360756790326054E9, 0.0, 2021-11-04 20:27:59.032
15.0, -95.87981516402215, -136.68586358055472, -128.21873008087277, -92.8243169002235, -0.06400000303983688, -0.06400000303983688, 1.008000047877431, 0.0, 0.0, 0.0, 0.0, 0.0, 1.6360756790333264E9, 0.0, 2021-11-04 20:27:59.033
15.0, -37.70193145330995, -163.17557496670634, -231.21183496061713, 7.509719111025333, -0.06400000303983688, -0.06400000303983688, 1.008000047877431, 0.0, 0.0, 0.0, 0.0, 0.0, 1.6360756790333264E9, 0.0, 2021-11-04 20:27:59.033
16.0, -47.11525964178145, -121.62154655903578, -202.4707038011402, -84.45442079938948, -0.06400000303983688, -0.06400000303983688, 1.008000047877431, 0.0, 0.0, 0.0, 0.0, 0.0, 1.6360756790340512E9, 0.0, 2021-11-04 20:27:59.034
16.0, -51.53208148945123, -174.98617902677506, -199.74431673344225, 24.1597537137568, -0.06400000303983688, -0.06400000303983688, 1.008000047877431, 0.0, 0.0, 0.0, 0.0, 0.0, 1.6360756790340512E9, 0.0, 2021-11-04 20:27:59.034
17.0, 3.9642939530313015, -172.38694855757058, -219.52090769913048, 12.711919949389994, -0.06400000303983688, -0.06400000303983688, 1.008000047877431, 0.0, 0.0, 0.0, 0.0, 0.0, 1.6360756790455484E9, 0.0, 2021-11-04 20:27:59.045
17.0, -49.49757591355592, -175.01983812637627, -244.46978030353785, -97.43561354558915, -0.06400000303983688, -0.06400000303983688, 1.008000047877431, 0.0, 0.0, 0.0, 0.0, 0.0, 1.6360756790455484E9, 0.0, 2021-11-04 20:27:59.045
18.0, -15.030657921917737, -151.02464001066983, -227.54673300404102, -10.348303177393973, -0.06400000303983688, -0.06400000303983688, 1.008000047877431, 0.0, 0.0, 0.0, 0.0, 0.0, 1.636075679046311E9, 0.0, 2021-11-04 20:27:59.046
18.0, -10.699853773228824, -176.74019210599363, -225.4075102293864, -26.878660981543362, -0.06400000303983688, -0.06400000303983688, 1.008000047877431, 0.0, 0.0, 0.0, 0.0, 0.0, 1.636075679046311E9, 0.0, 2021-11-04 20:27:59.046
19.0, -34.32854169327766, -179.88918786868453, -298.8778448589146, -96.81479015294462, -0.06400000303983688, -0.06400000303983688, 1.008000047877431, 0.0, 0.0, 0.0, 0.0, 0.0, 1.636075679047058E9, 0.0, 2021-11-04 20:27:59.047
19.0, -9.028118493035436, -183.39721402712166, -269.9721581013873, -66.87689100764692, -0.06400000303983688, -0.06400000303983688, 1.008000047877431, 0.0, 0.0, 0.0, 0.0, 0.0, 1.636075679047058E9, 0.0, 2021-11-04 20:27:59.047
20.0, -15.139115020632744, -201.8723198082298, -238.46350097469985, -59.59156589396298, -0.06400000303983688, -0.06400000303983688, 1.008000047877431, 0.0, 0.0, 0.0, 0.0, 0.0, 1.6360756790756154E9, 0.0, 2021-11-04 20:27:59.075
20.0, -21.220192348584533, -231.61200425587595, -267.89277372602373, -89.10311644431204, -0.06400000303983688, -0.06400000303983688, 1.008000047877431, 0.0, 0.0, 0.0, 0.0, 0.0, 1.6360756790756154E9, 0.0, 2021-11-04 20:27:59.075
21.0, -14.234059231355786, -227.97308159898967, -289.52809496968985, -96.1191687611863, -0.06400000303983688, -0.06400000303983688, 1.008000047877431, 0.0, 0.0, 0.0, 0.0, 0.0, 1.6360756790762517E9, 0.0, 2021-11-04 20:27:59.076
21.0, -48.551381224766374, -233.57919163256884, -278.5440087998286, -96.02567126229405, -0.06400000303983688, -0.06400000303983688, 1.008000047877431, 0.0, 0.0, 0.0, 0.0, 0.0, 1.6360756790762517E9, 0.0, 2021-11-04 20:27:59.076
22.0, -36.845494363456964, -242.48015352711082, -302.2923735184595, -110.30834919307381, -0.06400000303983688, -0.06400000303983688, 1.008000047877431, 0.0, 0.0, 0.0, 0.0, 0.0, 1.636075679077003E9, 0.0, 2021-11-04 20:27:59.077
22.0, -34.784809487871826, -240.2997918529436, -306.20804877206683, -116.93919181451201, -0.06400000303983688, -0.06400000303983688, 1.008000047877431, 0.0, 0.0, 0.0, 0.0, 0.0, 1.636075679077003E9, 0.0, 2021-11-04 20:27:59.077
23.0, -40.11042702477425, -248.68838745355606, -317.24823344126344, -112.06236227229238, -0.06400000303983688, -0.06400000303983688, 1.008000047877431, 0.0, 0.0, 0.0, 0.0, 0.0, 1.6360756791232214E9, 0.0, 2021-11-04 20:27:59.123
23.0, -40.24506342317909, -244.5632778024301, -318.1794685302302, -90.25874553062022, -0.06400000303983688, -0.06400000303983688, 1.008000047877431, 0.0, 0.0, 0.0, 0.0, 0.0, 1.6360756791232214E9, 0.0, 2021-11-04 20:27:59.123
24.0, -78.57529806904495, -294.6592377088964, -358.11412025708705, -141.55895322281867, -0.06400000303983688, -0.06400000303983688, 1.008000047877431, 0.0, 0.0, 0.0, 0.0, 0.0, 1.6360756791239808E9, 0.0, 2021-11-04 20:27:59.123
24.0, -140.28364733792841, -252.4582066088915, -314.79111917037517, -106.8676412338391, -0.06400000303983688, -0.06400000303983688, 1.008000047877431, 0.0, 0.0, 0.0, 0.0, 0.0, 1.6360756791239808E9, 0.0, 2021-11-04 20:27:59.123
25.0, -56.67818382848054, -295.4034778000787, -368.52600173372775, -164.24144645407796, -0.06400000303983688, -0.06400000303983688, 1.008000047877431, 0.0, 0.0, 0.0, 0.0, 0.0, 1.6360756791248205E9, 0.0, 2021-11-04 20:27:59.124
25.0, -91.75844541285187, -306.8101726649329, -366.26710216049105, -146.81725256051868, -0.06400000303983688, -0.06400000303983688, 1.008000047877431, 0.0, 0.0, 0.0, 0.0, 0.0, 1.6360756791248205E9, 0.0, 2021-11-04 20:27:59.124
26.0, -127.92327798437327, -313.71776788309216, -363.2078639967367, -157.0720582390204, -0.06400000303983688, -0.06400000303983688, 1.008000047877431, 0.0, 0.0, 0.0, 0.0, 0.0, 1.6360756791257374E9, 0.0, 2021-11-04 20:27:59.125
26.0, -121.0231625661254, -302.0380603214726, -347.0888951877132, -146.94066925905645, -0.06400000303983688, -0.06400000303983688, 1.008000047877431, 0.0, 0.0, 0.0, 0.0, 0.0, 1.6360756791257374E9, 0.0, 2021-11-04 20:27:59.125
27.0, -122.8706731442362, -319.53331231418997, -360.1635854328051, -175.24423212371767, -0.06400000303983688, -0.06400000303983688, 1.008000047877431, 0.0, 0.0, 0.0, 0.0, 0.0, 1.636075679134761E9, 0.0, 2021-11-04 20:27:59.134
27.0, -150.516013616696, -315.3408844638616, -372.74460888374597, -172.27849145885557, -0.06400000303983688, -0.06400000303983688, 1.008000047877431, 0.0, 0.0, 0.0, 0.0, 0.0, 1.636075679134761E9, 0.0, 2021-11-04 20:27:59.134
28.0, -152.38596359454095, -327.43946082051843, -366.6523118559271, -165.1539820432663, -0.06400000303983688, -0.06400000303983688, 1.008000047877431, 0.0, 0.0, 0.0, 0.0, 0.0, 1.6360756791355448E9, 0.0, 2021-11-04 20:27:59.135
28.0, -174.99365882668644, -322.330757481046, -428.8393683191389, -180.80920325778425, -0.06400000303983688, -0.06400000303983688, 1.008000047877431, 0.0, 0.0, 0.0, 0.0, 0.0, 1.6360756791355448E9, 0.0, 2021-11-04 20:27:59.135
29.0, -186.66588658839464, -336.02627111878246, -368.0248551396653, -189.48203125502914, -0.06400000303983688, -0.06400000303983688, 1.008000047877431, 0.0, 0.0, 0.0, 0.0, 0.0, 1.636075679165534E9, 0.0, 2021-11-04 20:27:59.165
29.0, -162.5248323744163, -320.5954439016059, -392.76055344659835, -182.6380143361166, -0.06400000303983688, -0.06400000303983688, 1.008000047877431, 0.0, 0.0, 0.0, 0.0, 0.0, 1.636075679165534E9, 0.0, 2021-11-04 20:27:59.165
30.0, -163.01849916856736, -342.18588634580374, -404.51505900733173, -165.24747954215854, -0.06400000303983688, -0.06400000303983688, 1.008000047877431, 0.0, 0.0, 0.0, 0.0, 0.0, 1.636075679166159E9, 0.0, 2021-11-04 20:27:59.166
30.0, -192.52630981896073, -360.96018412336707, -400.94345454964787, -172.75719865318388, -0.06400000303983688, -0.06400000303983688, 1.008000047877431, 0.0, 0.0, 0.0, 0.0, 0.0, 1.636075679166159E9, 0.0, 2021-11-04 20:27:59.166
31.0, -204.6847245749086, -339.32112297974527, -400.94719444960356, -191.81946872733533, -0.06400000303983688, -0.06400000303983688, 1.008000047877431, 0.0, 0.0, 0.0, 0.0, 0.0, 1.63607567916696E9, 0.0, 2021-11-04 20:27:59.166
31.0, -220.2539280904457, -369.07576702721417, -424.3926272718236, -190.6862790407613, -0.06400000303983688, -0.06400000303983688, 1.008000047877431, 0.0, 0.0, 0.0, 0.0, 0.0, 1.63607567916696E9, 0.0, 2021-11-04 20:27:59.166
32.0, -217.85665221884847, -351.831088331528, -403.9054553145543, -179.52267767302692, -0.06400000303983688, -0.06400000303983688, 1.008000047877431, 0.0, 0.0, 0.0, 0.0, 0.0, 1.6360756791945825E9, 0.0, 2021-11-04 20:27:59.194
32.0, -231.69054215494543, -384.27098054718226, -410.48019943665713, -182.09198894258589, -0.06400000303983688, -0.06400000303983688, 1.008000047877431, 0.0, 0.0, 0.0, 0.0, 0.0, 1.6360756791945825E9, 0.0, 2021-11-04 20:27:59.194
33.0, -255.58102307189256, -350.88489364273846, -440.11516668554395, -185.4204999031499, -0.06400000303983688, -0.06400000303983688, 1.008000047877431, 0.0, 0.0, 0.0, 0.0, 0.0, 1.6360756792116196E9, 0.0, 2021-11-04 20:27:59.211
33.0, -261.40030740294605, -362.70671740267426, -429.8977600065991, -180.11358186602592, -0.06400000303983688, -0.06400000303983688, 1.008000047877431, 0.0, 0.0, 0.0, 0.0, 0.0, 1.6360756792116196E9, 0.0, 2021-11-04 20:27:59.211
34.0, -249.8215771401301, -338.47590558975935, -368.41754463501275, -170.3000843822956, -0.06400000303983688, -0.06400000303983688, 1.008000047877431, 0.0, 0.0, 0.0, 0.0, 0.0, 1.6360756792123587E9, 0.0, 2021-11-04 20:27:59.212
34.0, -262.29788339231163, -357.4222387652844, -436.4687642287463, -180.69700625911355, -0.06400000303983688, -0.06400000303983688, 1.008000047877431, 0.0, 0.0, 0.0, 0.0, 0.0, 1.6360756792123587E9, 0.0, 2021-11-04 20:27:59.212
35.0, -266.9428391372785, -353.5065635116771, -397.4877869905904, -181.84515554551035, -0.06400000303983688, -0.06400000303983688, 1.008000047877431, 0.0, 0.0, 0.0, 0.0, 0.0, 1.636075679213087E9, 0.0, 2021-11-04 20:27:59.213
35.0, -265.58899535331875, -336.2992838155478, -368.3502264358103, -140.94934953004122, -0.06400000303983688, -0.06400000303983688, 1.008000047877431, 0.0, 0.0, 0.0, 0.0, 0.0, 1.636075679213087E9, 0.0, 2021-11-04 20:27:59.213
36.0, -273.99629045370966, -331.7964442688972, -358.6825850503519, -137.6208385694772, -0.06400000303983688, -0.06400000303983688, 1.008000047877431, 0.0, 0.0, 0.0, 0.0, 0.0, 1.6360756792258456E9, 0.0, 2021-11-04 20:27:59.225
36.0, -258.14285454154015, -289.9469637647271, -387.2666404116899, -143.26434760261327, -0.06400000303983688, -0.06400000303983688, 1.008000047877431, 0.0, 0.0, 0.0, 0.0, 0.0, 1.6360756792258456E9, 0.0, 2021-11-04 20:27:59.225
37.0, -278.81328159663826, -276.07941472902894, -362.60574010387063, -124.1684184288606, -0.06400000303983688, -0.06400000303983688, 1.008000047877431, 0.0, 0.0, 0.0, 0.0, 0.0, 1.636075679255416E9, 0.0, 2021-11-04 20:27:59.255
37.0, -273.8803535550833, -292.5798533335328, -410.2782448390499, -149.46136182919145, -0.06400000303983688, -0.06400000303983688, 1.008000047877431, 0.0, 0.0, 0.0, 0.0, 0.0, 1.636075679255416E9, 0.0, 2021-11-04 20:27:59.255
38.0, -266.2023389460519, -257.7875640457496, -286.15096530970186, -113.28530955780298, -0.06400000303983688, -0.06400000303983688, 1.008000047877431, 0.0, 0.0, 0.0, 0.0, 0.0, 1.636075679346736E9, 0.0, 2021-11-04 20:27:59.346
38.0, -274.2468637507409, -272.07772177644074, -292.0600072396919, -114.98696403764188, -0.06400000303983688, -0.06400000303983688, 1.008000047877431, 0.0, 0.0, 0.0, 0.0, 0.0, 1.636075679346736E9, 0.0, 2021-11-04 20:27:59.346
39.0, -265.2748437570408, -243.5647245142609, -318.736713623628, -90.39712182898074, -0.06400000303983688, -0.06400000303983688, 1.008000047877431, 0.0, 0.0, 0.0, 0.0, 0.0, 1.6360756793475034E9, 0.0, 2021-11-04 20:27:59.347
39.0, -252.40584800951183, -240.7485798476264, -306.2865866711363, -78.2985454723239, -0.06400000303983688, -0.06400000303983688, 1.008000047877431, 0.0, 0.0, 0.0, 0.0, 0.0, 1.6360756793475034E9, 0.0, 2021-11-04 20:27:59.347
40.0, -256.3140434632078, -220.2950669899583, -309.8581911288202, -70.08572516962886, -0.06400000303983688, -0.06400000303983688, 1.008000047877431, 0.0, 0.0, 0.0, 0.0, 0.0, 1.6360756793482227E9, 0.0, 2021-11-04 20:27:59.348
40.0, -231.27915315981954, -206.12832595780492, -294.6293185092509, -40.77986911684275, -0.06400000303983688, -0.06400000303983688, 1.008000047877431, 0.0, 0.0, 0.0, 0.0, 0.0, 1.6360756793482227E9, 0.0, 2021-11-04 20:27:59.348
41.0, -232.5918580442667, -210.31327400822192, -296.7274023843929, -70.26898026745766, -0.06400000303983688, -0.06400000303983688, 1.008000047877431, 0.0, 0.0, 0.0, 0.0, 0.0, 1.6360756793490083E9, 0.0, 2021-11-04 20:27:59.349
41.0, -242.86910312250257, -235.82687150593847, -273.4240857604891, -103.13896097801626, -0.06400000303983688, -0.06400000303983688, 1.008000047877431, 0.0, 0.0, 0.0, 0.0, 0.0, 1.6360756793490083E9, 0.0, 2021-11-04 20:27:59.349
42.0, -222.45298926439136, -200.04724862985313, -240.47556715086102, -68.75806068535894, -0.0800000037997961, -0.06400000303983688, 1.008000047877431, 0.0, 0.0, 0.0, 0.0, 0.0, 1.636075679405156E9, 0.0, 2021-11-04 20:27:59.405
42.0, -221.7386683728546, -226.5145206162706, -296.01682139281183, -53.274874868802726, -0.0800000037997961, -0.06400000303983688, 1.008000047877431, 0.0, 0.0, 0.0, 0.0, 0.0, 1.636075679405156E9, 0.0, 2021-11-04 20:27:59.405
43.0, -204.6510654753074, -186.40409359149635, -249.39148864522576, -19.32032317109406, -0.0800000037997961, -0.06400000303983688, 1.008000047877431, 0.0, 0.0, 0.0, 0.0, 0.0, 1.636075679420414E9, 0.0, 2021-11-04 20:27:59.420
43.0, -184.24243141710758, -187.79907627496868, -225.29905313067138, -17.24467869568616, -0.0800000037997961, -0.06400000303983688, 1.008000047877431, 0.0, 0.0, 0.0, 0.0, 0.0, 1.636075679420414E9, 0.0, 2021-11-04 20:27:59.420
44.0, -183.65900702401996, -151.1854557087645, -212.67689078021795, -6.335390524938703, -0.0800000037997961, -0.06400000303983688, 1.008000047877431, 0.0, 0.0, 0.0, 0.0, 0.0, 1.636075679438233E9, 0.0, 2021-11-04 20:27:59.438
44.0, -189.13422055914998, -179.59373577218503, -219.12447830382735, -59.23253549821675, -0.0800000037997961, -0.06400000303983688, 1.008000047877431, 0.0, 0.0, 0.0, 0.0, 0.0, 1.636075679438233E9, 0.0, 2021-11-04 20:27:59.438
50.0, -187.47744487877935, -174.36535563413054, -229.38676378224045, -43.38657938595861, -0.0800000037997961, -0.06400000303983688, 1.008000047877431, 0.0, 0.0, 0.0, 0.0, 0.0, 1.6360756794389124E9, 0.0, 2021-11-04 20:27:59.438
50.0, -162.35279697645456, -198.48397044837475, -198.7644629450515, -21.837275841273367, -0.0800000037997961, -0.06400000303983688, 1.008000047877431, 0.0, 0.0, 0.0, 0.0, 0.0, 1.6360756794389124E9, 0.0, 2021-11-04 20:27:59.438
51.0, -163.68046146072447, -182.72403203509748, -212.1720042861998, -25.494897997938097, -0.0800000037997961, -0.06400000303983688, 1.008000047877431, 0.0, 0.0, 0.0, 0.0, 0.0, 1.6360756794397173E9, 0.0, 2021-11-04 20:27:59.439
51.0, -149.6296573271975, -185.5663560014218, -247.43926086835563, -4.753412843681872, -0.0800000037997961, -0.06400000303983688, 1.008000047877431, 0.0, 0.0, 0.0, 0.0, 0.0, 1.6360756794397173E9, 0.0, 2021-11-04 20:27:59.439
52.0, -120.9446246670559, -162.82402437087148, -212.5123351821676, -24.840415505692363, -0.06400000303983688, -0.06400000303983688, 1.008000047877431, 0.0, 0.0, 0.0, 0.0, 0.0, 1.6360756794404092E9, 0.0, 2021-11-04 20:27:59.440
52.0, -94.09214298520237, -143.7692340966314, -213.35381267219782, -20.91726045217365, -0.06400000303983688, -0.06400000303983688, 1.008000047877431, 0.0, 0.0, 0.0, 0.0, 0.0, 1.6360756794404092E9, 0.0, 2021-11-04 20:27:59.440
53.0, -67.90536349546164, -148.0701190456748, -222.45298926439136, -46.74874944612384, -0.06400000303983688, -0.06400000303983688, 1.008000047877431, 0.0, 0.0, 0.0, 0.0, 0.0, 1.6360756794510958E9, 0.0, 2021-11-04 20:27:59.451
53.0, -50.43629080243409, -187.06979578360915, -218.89634440653026, -21.208972648717463, -0.06400000303983688, -0.06400000303983688, 1.008000047877431, 0.0, 0.0, 0.0, 0.0, 0.0, 1.6360756794510958E9, 0.0, 2021-11-04 20:27:59.451
56.0, -34.60155439004302, -218.90382420644164, -227.812265900895, -48.046494730748236, -0.06400000303983688, -0.06400000303983688, 1.008000047877431, 0.0, 0.0, 0.0, 0.0, 0.0, 1.636075679528103E9, 0.0, 2021-11-04 20:27:59.528
56.0, -11.27205846644938, -197.91550565510988, -153.87444377690554, -11.601169662550092, -0.06400000303983688, -0.06400000303983688, 1.008000047877431, 0.0, 0.0, 0.0, 0.0, 0.0, 1.636075679528103E9, 0.0, 2021-11-04 20:27:59.528
58.0, 5.987579829059541, -200.25294312741607, -156.04732565116137, 26.721585183404386, -0.06400000303983688, -0.06400000303983688, 1.008000047877431, 0.0, 0.0, 0.0, 0.0, 0.0, 1.6360756795288308E9, 0.0, 2021-11-04 20:27:59.528
58.0, -1.570757981389761, -196.10539407655597, -206.0984067581594, 24.260731012560427, -0.06400000303983688, -0.06400000303983688, 1.008000047877431, 0.0, 0.0, 0.0, 0.0, 0.0, 1.6360756795288308E9, 0.0, 2021-11-04 20:27:59.528
59.0, 15.72253941372037, -186.04132329579443, -221.31605967786163, 21.463285845704377, -0.06400000303983688, -0.06400000303983688, 1.008000047877431, 0.0, 0.0, 0.0, 0.0, 0.0, 1.636075679529574E9, 0.0, 2021-11-04 20:27:59.529
59.0, 20.259038059972227, -198.71210434567183, -207.6130662402138, 41.39321270957589, -0.06400000303983688, -0.06400000303983688, 1.008000047877431, 0.0, 0.0, 0.0, 0.0, 0.0, 1.636075679529574E9, 0.0, 2021-11-04 20:27:59.529
60.0, 29.174959554336965, -164.77625214774162, -175.36016902234405, 44.474890273064375, -0.06400000303983688, -0.06400000303983688, 1.008000047877431, 0.0, 0.0, 0.0, 0.0, 0.0, 1.6360756795303288E9, 0.0, 2021-11-04 20:27:59.530
60.0, 64.08692564070225, -185.8618080979213, -168.5236319033429, 40.17026542406529, -0.06400000303983688, -0.06400000303983688, 1.008000047877431, 0.0, 0.0, 0.0, 0.0, 0.0, 1.6360756795303288E9, 0.0, 2021-11-04 20:27:59.530
61.0, 31.968664821237326, -184.67251991201192, -154.52892626915127, 2.5543516697362065, -0.06400000303983688, -0.06400000303983688, 1.008000047877431, 0.0, 0.0, 0.0, 0.0, 0.0, 1.6360756795417879E9, 0.0, 2021-11-04 20:27:59.541
61.0, 13.69925353769213, -179.0813694782555, -172.1962136598304, 27.41346667520702, -0.06400000303983688, -0.06400000303983688, 1.008000047877431, 0.0, 0.0, 0.0, 0.0, 0.0, 1.6360756795417879E9, 0.0, 2021-11-04 20:27:59.541
62.0, 31.605894525535405, -223.58243905100971, -219.3226930014789, 25.4200999988243, -0.0800000037997961, -0.06400000303983688, 1.008000047877431, 0.0, 0.0, 0.0, 0.0, 0.0, 1.6360756795424914E9, 0.0, 2021-11-04 20:27:59.542
62.0, 16.54905730392784, -212.77412817906588, -188.6106345653534, 35.03164288494736, -0.0800000037997961, -0.06400000303983688, 1.008000047877431, 0.0, 0.0, 0.0, 0.0, 0.0, 1.6360756795424914E9, 0.0, 2021-11-04 20:27:59.542
63.0, 5.516352434642613, -190.33098854497075, -187.99729097262025, 27.963231968693435, -0.0800000037997961, -0.06400000303983688, 1.008000047877431, 0.0, 0.0, 0.0, 0.0, 0.0, 1.6360756795432608E9, 0.0, 2021-11-04 20:27:59.543
63.0, 4.319584448821843, -181.95361264422536, -229.958968475461, 21.837275841273367, -0.0800000037997961, -0.06400000303983688, 1.008000047877431, 0.0, 0.0, 0.0, 0.0, 0.0, 1.6360756795432608E9, 0.0, 2021-11-04 20:27:59.543
68.0, -4.01291265245527, -196.19141177553684, -226.44720241706818, 25.468718698248267, -0.0800000037997961, -0.06400000303983688, 1.008000047877431, 0.0, 0.0, 0.0, 0.0, 0.0, 1.6360756795440297E9, 0.0, 2021-11-04 20:27:59.544
68.0, -37.41395915672183, -183.7936434224248, -277.33228121418506, 34.65765288937837, -0.0800000037997961, -0.06400000303983688, 1.008000047877431, 0.0, 0.0, 0.0, 0.0, 0.0, 1.6360756795440297E9, 0.0, 2021-11-04 20:27:59.544
69.0, -49.351719815284014, -215.23498234990984, -281.70048436243087, 38.62194684240967, -0.0800000037997961, -0.06400000303983688, 1.008000047877431, 0.0, 0.0, 0.0, 0.0, 0.0, 1.6360756796324825E9, 0.0, 2021-11-04 20:27:59.632
69.0, -89.88849543500692, -228.9230161877349, -253.79709079302847, 19.597075767815113, -0.0800000037997961, -0.06400000303983688, 1.008000047877431, 0.0, 0.0, 0.0, 0.0, 0.0, 1.6360756796324825E9, 0.0, 2021-11-04 20:27:59.632
70.0, -104.55264316126704, -195.21155798714608, -286.52121540531516, -43.98870327882469, -0.0800000037997961, -0.06400000303983688, 1.008000047877431, 0.0, 0.0, 0.0, 0.0, 0.0, 1.6360756796331456E9, 0.0, 2021-11-04 20:27:59.633
70.0, -129.62493246421218, -208.25258913263679, -254.25335858762264, -2.5506117697805166, -0.0800000037997961, -0.06400000303983688, 1.008000047877431, 0.0, 0.0, 0.0, 0.0, 0.0, 1.6360756796331456E9, 0.0, 2021-11-04 20:27:59.633
71.0, -133.90711791347712, -220.78125398419797, -262.36520159151405, -26.50467098597437, -0.0800000037997961, -0.06400000303983688, 1.008000047877431, 0.0, 0.0, 0.0, 0.0, 0.0, 1.636075679633957E9, 0.0, 2021-11-04 20:27:59.633
71.0, -158.84103091806173, -225.00360103417188, -284.97663672361523, -16.276044607162476, -0.0800000037997961, -0.06400000303983688, 1.008000047877431, 0.0, 0.0, 0.0, 0.0, 0.0, 1.636075679633957E9, 0.0, 2021-11-04 20:27:59.633
72.0, -178.5241243848577, -205.30180806759745, -313.6205304842442, -41.84574060421437, -0.0800000037997961, -0.06400000303983688, 1.008000047877431, 0.0, 0.0, 0.0, 0.0, 0.0, 1.6360756796346583E9, 0.0, 2021-11-04 20:27:59.634
72.0, -207.97209663596004, -253.8232700927183, -301.90342392306775, -29.130080754868686, -0.0800000037997961, -0.06400000303983688, 1.008000047877431, 0.0, 0.0, 0.0, 0.0, 0.0, 1.6360756796346583E9, 0.0, 2021-11-04 20:27:59.634
73.0, -211.77557489089668, -244.3426237050444, -264.81857596244663, -75.6656559035182, -0.0800000037997961, -0.06400000303983688, 1.008000047877431, 0.0, 0.0, 0.0, 0.0, 0.0, 1.6360756796745532E9, 0.0, 2021-11-04 20:27:59.674
73.0, -227.80104620102793, -245.191580994986, -285.6610384155065, -55.5449941419065, -0.0800000037997961, -0.06400000303983688, 1.008000047877431, 0.0, 0.0, 0.0, 0.0, 0.0, 1.6360756796745532E9, 0.0, 2021-11-04 20:27:59.674
74.0, -233.336098135449, -228.54154639225453, -339.8746281731874, -43.76804918143898, -0.0800000037997961, -0.06400000303983688, 1.008000047877431, 0.0, 0.0, 0.0, 0.0, 0.0, 1.6360756797050512E9, 0.0, 2021-11-04 20:27:59.705
74.0, -271.85706767905504, -248.13488226011395, -307.04952626209706, -59.93563668988645, -0.0800000037997961, -0.06400000303983688, 1.008000047877431, 0.0, 0.0, 0.0, 0.0, 0.0, 1.6360756797050512E9, 0.0, 2021-11-04 20:27:59.705
75.0, -247.5252785673365, -230.067425574176, -312.0759518025443, -53.701223463751376, -0.0800000037997961, -0.06400000303983688, 1.008000047877431, 0.0, 0.0, 0.0, 0.0, 0.0, 1.6360756797218187E9, 0.0, 2021-11-04 20:27:59.721
75.0, -266.912919937633, -242.16600193083286, -305.6545435786247, -67.12372440472245, -0.0800000037997961, -0.06400000303983688, 1.008000047877431, 0.0, 0.0, 0.0, 0.0, 0.0, 1.6360756797218187E9, 0.0, 2021-11-04 20:27:59.721
79.0, -265.36460135597736, -255.14345477707684, -256.80771025735885, -81.98608682863414, -0.0800000037997961, -0.06400000303983688, 1.008000047877431, 0.0, 0.0, 0.0, 0.0, 0.0, 1.636075679722522E9, 0.0, 2021-11-04 20:27:59.722
79.0, -256.7927506575361, -264.32864906825125, -300.8001534361392, -81.03241233993322, -0.0800000037997961, -0.06400000303983688, 1.008000047877431, 0.0, 0.0, 0.0, 0.0, 0.0, 1.636075679722522E9, 0.0, 2021-11-04 20:27:59.722
80.0, -271.8757671788335, -267.11113463528454, -273.3904266608879, -83.36984981223941, -0.0800000037997961, -0.06400000303983688, 1.008000047877431, 0.0, 0.0, 0.0, 0.0, 0.0, 1.6360756797232444E9, 0.0, 2021-11-04 20:27:59.723
80.0, -255.7904574694112, -293.7055632201955, -277.8783066077158, -103.00432457961142, -0.0800000037997961, -0.06400000303983688, 1.008000047877431, 0.0, 0.0, 0.0, 0.0, 0.0, 1.6360756797232444E9, 0.0, 2021-11-04 20:27:59.723
81.0, -246.2686721822247, -267.5748822297901, -281.3601534664631, -141.34577892534435, -0.0800000037997961, -0.06400000303983688, 1.008000047877431, 0.0, 0.0, 0.0, 0.0, 0.0, 1.636075679724037E9, 0.0, 2021-11-04 20:27:59.724
81.0, -261.37038820330054, -261.02631740737706, -280.6869714744389, -97.83952274080366, -0.0800000037997961, -0.06400000303983688, 1.008000047877431, 0.0, 0.0, 0.0, 0.0, 0.0, 1.636075679724037E9, 0.0, 2021-11-04 20:27:59.724
82.0, -240.3409307524562, -288.00595568772405, -315.87195025756955, -115.48437073174864, -0.0800000037997961, -0.06400000303983688, 1.008000047877431, 0.0, 0.0, 0.0, 0.0, 0.0, 1.6360756798119197E9, 0.0, 2021-11-04 20:27:59.811
82.0, -222.12761796824634, -265.9704651487991, -291.5439010458067, -92.54756430350244, -0.0800000037997961, -0.06400000303983688, 1.008000047877431, 0.0, 0.0, 0.0, 0.0, 0.0, 1.6360756798119197E9, 0.0, 2021-11-04 20:27:59.811
83.0, -227.17648290842772, -264.32864906825125, -265.308502856642, -119.05971508938819, -0.0800000037997961, -0.06400000303983688, 1.008000047877431, 0.0, 0.0, 0.0, 0.0, 0.0, 1.636075679812628E9, 0.0, 2021-11-04 20:27:59.812
83.0, -245.07190419640392, -303.60133850295097, -305.41518998146057, -117.7208309052512, -0.0800000037997961, -0.06400000303983688, 1.008000047877431, 0.0, 0.0, 0.0, 0.0, 0.0, 1.636075679812628E9, 0.0, 2021-11-04 20:27:59.812
86.0, -230.57979186810553, -322.76458587590605, -290.1339587625116, -122.33212755061686, -0.0800000037997961, -0.06400000303983688, 1.008000047877431, 0.0, 0.0, 0.0, 0.0, 0.0, 1.6360756798132856E9, 0.0, 2021-11-04 20:27:59.813
86.0, -235.65109620802104, -321.8670098865405, -314.80233887024224, -132.48221603035927, -0.0800000037997961, -0.06400000303983688, 1.008000047877431, 0.0, 0.0, 0.0, 0.0, 0.0, 1.6360756798132856E9, 0.0, 2021-11-04 20:27:59.813
88.0, -238.56821817345917, -314.3984296750277, -284.4418310299516, -157.60686393268406, -0.0800000037997961, -0.06400000303983688, 1.008000047877431, 0.0, 0.0, 0.0, 0.0, 0.0, 1.6360756798140574E9, 0.0, 2021-11-04 20:27:59.814
88.0, -235.95028820447624, -336.5311576128006, -324.683154553175, -153.11524408590049, -0.0800000037997961, -0.06400000303983688, 1.008000047877431, 0.0, 0.0, 0.0, 0.0, 0.0, 1.6360756798140574E9, 0.0, 2021-11-04 20:27:59.814
89.0, -215.62767184525728, -353.29338921420276, -318.53849892597646, -111.44527877960354, -0.0800000037997961, -0.06400000303983688, 1.008000047877431, 0.0, 0.0, 0.0, 0.0, 0.0, 1.6360756798261387E9, 0.0, 2021-11-04 20:27:59.826
89.0, -231.63818355556577, -363.44721759390086, -314.49192717392, -156.52977274544537, -0.0800000037997961, -0.06400000303983688, 1.008000047877431, 0.0, 0.0, 0.0, 0.0, 0.0, 1.6360756798261387E9, 0.0, 2021-11-04 20:27:59.826
90.0, -209.49423591792583, -330.906348079443, -335.51764472480863, -144.82388588413596, -0.0800000037997961, -0.06400000303983688, 1.008000047877431, 0.0, 0.0, 0.0, 0.0, 0.0, 1.6360756798269105E9, 0.0, 2021-11-04 20:27:59.826
90.0, -207.18297774530947, -322.27839888166636, -341.3444088557735, -157.64800283219665, -0.0800000037997961, -0.06400000303983688, 1.008000047877431, 0.0, 0.0, 0.0, 0.0, 0.0, 1.6360756798269105E9, 0.0, 2021-11-04 20:27:59.826
91.0, -219.35635210108012, -314.27875287644565, -319.05460511986166, -182.0134510435164, -0.0800000037997961, -0.0800000037997961, 1.008000047877431, 0.0, 0.0, 0.0, 0.0, 0.0, 1.6360756798276663E9, 0.0, 2021-11-04 20:27:59.827
91.0, -218.82154640741646, -344.81129611469805, -276.6927583217621, -185.11008820682764, -0.0800000037997961, -0.0800000037997961, 1.008000047877431, 0.0, 0.0, 0.0, 0.0, 0.0, 1.6360756798276663E9, 0.0, 2021-11-04 20:27:59.827
97.0, -233.57545173261315, -354.6210536984727, -270.2863096976653, -207.44103084225208, -0.0800000037997961, -0.0800000037997961, 1.008000047877431, 0.0, 0.0, 0.0, 0.0, 0.0, 1.6360756798283951E9, 0.0, 2021-11-04 20:27:59.828
97.0, -227.27372030727565, -345.5256170062348, -283.59661363996565, -194.82260839175433, -0.0800000037997961, -0.0800000037997961, 1.008000047877431, 0.0, 0.0, 0.0, 0.0, 0.0, 1.6360756798283951E9, 0.0, 2021-11-04 20:27:59.828
98.0, -229.2521273838356, -351.6590529335663, -288.16303148586303, -205.30180806759745, -0.0800000037997961, -0.0800000037997961, 1.008000047877431, 0.0, 0.0, 0.0, 0.0, 0.0, 1.6360756798561473E9, 0.0, 2021-11-04 20:27:59.856
98.0, -241.9341281335801, -324.0698109604418, -256.3439626628533, -196.76735636871308, -0.0800000037997961, -0.0800000037997961, 1.008000047877431, 0.0, 0.0, 0.0, 0.0, 0.0, 1.6360756798561473E9, 0.0, 2021-11-04 20:27:59.856
99.0, -247.12510927207768, -356.07213488128036, -265.7872100509703, -205.03253527078778, -0.0800000037997961, -0.0800000037997961, 1.008000047877431, 0.0, 0.0, 0.0, 0.0, 0.0, 1.6360756798568196E9, 0.0, 2021-11-04 20:27:59.856
99.0, -246.17891458328813, -365.60513986833394, -293.23807572573423, -207.08200044650584, -0.0800000037997961, -0.0800000037997961, 1.008000047877431, 0.0, 0.0, 0.0, 0.0, 0.0, 1.6360756798568196E9, 0.0, 2021-11-04 20:27:59.856
100.0, -256.51225816085935, -329.36550929769874, -240.35215045232326, -214.03447446413338, -0.0800000037997961, -0.0800000037997961, 1.008000047877431, 0.0, 0.0, 0.0, 0.0, 0.0, 1.6360756798576217E9, 0.0, 2021-11-04 20:27:59.857
100.0, -249.45880684442818, -346.96547848917544, -261.1272947061807, -200.9111655196175, -0.0800000037997961, -0.0800000037997961, 1.008000047877431, 0.0, 0.0, 0.0, 0.0, 0.0, 1.6360756798576217E9, 0.0, 2021-11-04 20:27:59.857
0.0, 639.9567208178341, 688.610949291382, 527.2978445026092, 818.7164588999003, -0.0800000037997961, -0.0800000037997961, 1.008000047877431, 0.0, 0.0, 0.0, 0.0, 0.0, 1.6360756798583179E9, 0.0, 2021-11-04 20:27:59.858
1.0, 643.6293025743216, 710.5566822313704, 523.7225001449697, 835.4637309014797, -0.0800000037997961, -0.06400000303983688, 1.008000047877431, 0.0, 0.0, 0.0, 0.0, 0.0, 1.6360756798691795E9, 0.0, 2021-11-04 20:27:59.869
1.0, 667.8152355877683, 715.8486406686716, 578.4073172970675, 864.6723495554179, -0.0800000037997961, -0.06400000303983688, 1.008000047877431, 0.0, 0.0, 0.0, 0.0, 0.0, 1.6360756798691795E9, 0.0, 2021-11-04 20:27:59.869
2.0, 641.9613071940839, 710.1228538365103, 574.1961899469607, 879.9573206743225, -0.0800000037997961, -0.06400000303983688, 1.008000047877431, 0.0, 0.0, 0.0, 0.0, 0.0, 1.6360756799004405E9, 0.0, 2021-11-04 20:27:59.900
2.0, 645.1701413560659, 710.3173286342062, 579.99303487828, 861.1269243974239, -0.0800000037997961, -0.06400000303983688, 1.008000047877431, 0.0, 0.0, 0.0, 0.0, 0.0, 1.6360756799004405E9, 0.0, 2021-11-04 20:27:59.900
3.0, 626.0704722823575, 688.8577826884575, 568.2048702179454, 835.0074631068856, -0.0800000037997961, -0.06400000303983688, 1.008000047877431, 0.0, 0.0, 0.0, 0.0, 0.0, 1.6360756799011574E9, 0.0, 2021-11-04 20:27:59.901
3.0, 643.3749893773347, 731.0962127880193, 575.7968671279959, 843.9533038008958, -0.0800000037997961, -0.06400000303983688, 1.008000047877431, 0.0, 0.0, 0.0, 0.0, 0.0, 1.6360756799011574E9, 0.0, 2021-11-04 20:27:59.901
4.0, 636.6618689568713, 719.4389446261339, 575.0713265365921, 828.645893282257, -0.0800000037997961, -0.06400000303983688, 1.008000047877431, 0.0, 0.0, 0.0, 0.0, 0.0, 1.6360756799018955E9, 0.0, 2021-11-04 20:27:59.901
4.0, 657.2986369123682, 738.3441389021464, 618.6374211204238, 899.3823610441759, -0.0800000037997961, -0.06400000303983688, 1.008000047877431, 0.0, 0.0, 0.0, 0.0, 0.0, 1.6360756799018955E9, 0.0, 2021-11-04 20:27:59.901
5.0, 620.3072864506394, 747.8098256899975, 607.4626000528224, 853.5798062868416, -0.0800000037997961, -0.06400000303983688, 1.008000047877431, 0.0, 0.0, 0.0, 0.0, 0.0, 1.6360756799140656E9, 0.0, 2021-11-04 20:27:59.914
5.0, 631.9682945124805, 711.3121420224197, 547.3848471646197, 879.6768281776458, -0.0800000037997961, -0.06400000303983688, 1.008000047877431, 0.0, 0.0, 0.0, 0.0, 0.0, 1.6360756799140656E9, 0.0, 2021-11-04 20:27:59.914
6.0, 626.2387677803636, 702.1419073310681, 599.3582368488424, 878.7642925884575, -0.0800000037997961, -0.06400000303983688, 1.008000047877431, 0.0, 0.0, 0.0, 0.0, 0.0, 1.6360756799479632E9, 0.0, 2021-11-04 20:27:59.947
6.0, 610.9724961612374, 722.2588291927241, 568.1674712183885, 853.961276082322, -0.0800000037997961, -0.06400000303983688, 1.008000047877431, 0.0, 0.0, 0.0, 0.0, 0.0, 1.6360756799479632E9, 0.0, 2021-11-04 20:27:59.947
7.0, 613.6353049296886, 729.9518034015782, 581.8106262567453, 859.8852776121348, -0.0800000037997961, -0.06400000303983688, 1.008000047877431, 0.0, 0.0, 0.0, 0.0, 0.0, 1.636075679948645E9, 0.0, 2021-11-04 20:27:59.948
7.0, 618.4934349721298, 764.2691253949888, 608.2704184432514, 827.838074891828, -0.0800000037997961, -0.06400000303983688, 1.008000047877431, 0.0, 0.0, 0.0, 0.0, 0.0, 1.636075679948645E9, 0.0, 2021-11-04 20:27:59.948
8.0, 642.6531886858866, 762.2308799191378, 623.6376673611812, 878.8914491869509, -0.0800000037997961, -0.06400000303983688, 1.008000047877431, 0.0, 0.0, 0.0, 0.0, 0.0, 1.636075679949404E9, 0.0, 2021-11-04 20:27:59.949
8.0, 619.8884176556021, 720.0223690192215, 594.9862938006409, 875.260006329976, -0.0800000037997961, -0.06400000303983688, 1.008000047877431, 0.0, 0.0, 0.0, 0.0, 0.0, 1.636075679949404E9, 0.0, 2021-11-04 20:27:59.949
9.0, 609.9851625729352, 724.2521958691068, 596.7851856793277, 863.1502102734521, -0.0800000037997961, -0.06400000303983688, 1.008000047877431, 0.0, 0.0, 0.0, 0.0, 0.0, 1.6360756799597027E9, 0.0, 2021-11-04 20:27:59.959
9.0, 620.8383522443473, 725.51628205413, 584.9147432199679, 871.4266088753939, -0.0800000037997961, -0.06400000303983688, 1.008000047877431, 0.0, 0.0, 0.0, 0.0, 0.0, 1.6360756799597027E9, 0.0, 2021-11-04 20:27:59.959
10.0, 637.2864322494715, 759.250179654453, 628.7089717010967, 870.8544041821733, -0.0800000037997961, -0.06400000303983688, 1.008000047877431, 0.0, 0.0, 0.0, 0.0, 0.0, 1.6360756799604828E9, 0.0, 2021-11-04 20:27:59.960
10.0, 603.9676635442302, 766.666401266586, 603.4758667000569, 843.6728113042191, -0.0800000037997961, -0.06400000303983688, 1.008000047877431, 0.0, 0.0, 0.0, 0.0, 0.0, 1.6360756799604828E9, 0.0, 2021-11-04 20:27:59.960
11.0, 608.8744122860953, 757.5597448744811, 603.1205762042664, 863.3783441707492, -0.0800000037997961, -0.06400000303983688, 1.008000047877431, 0.0, 0.0, 0.0, 0.0, 0.0, 1.636075679990488E9, 0.0, 2021-11-04 20:27:59.990
11.0, 632.1739890100434, 728.9906491129659, 621.0309570920654, 886.0982364015654, -0.0800000037997961, -0.06400000303983688, 1.008000047877431, 0.0, 0.0, 0.0, 0.0, 0.0, 1.636075679990488E9, 0.0, 2021-11-04 20:27:59.990
12.0, 616.8665784914047, 735.9393832306378, 577.3863246091641, 869.6351967966184, -0.0800000037997961, -0.06400000303983688, 1.008000047877431, 0.0, 0.0, 0.0, 0.0, 0.0, 1.6360756799912329E9, 0.0, 2021-11-04 20:27:59.991
12.0, 627.1887023691088, 756.6247698855586, 636.1139736133628, 825.1266474239528, -0.0800000037997961, -0.06400000303983688, 1.008000047877431, 0.0, 0.0, 0.0, 0.0, 0.0, 1.6360756799912329E9, 0.0, 2021-11-04 20:27:59.991
13.0, 622.8092795209959, 750.0575055633672, 585.8123192093335, 845.157551586628, -0.0800000037997961, -0.06400000303983688, 1.008000047877431, 0.0, 0.0, 0.0, 0.0, 0.0, 1.636075679991881E9, 0.0, 2021-11-04 20:27:59.991
13.0, 626.5753587763757, 734.1217918521725, 609.3774288301356, 885.2006604121998, -0.0800000037997961, -0.06400000303983688, 1.008000047877431, 0.0, 0.0, 0.0, 0.0, 0.0, 1.636075679991881E9, 0.0, 2021-11-04 20:27:59.991
