%OpenBCI Raw EEG Data
%Number of channels = 4
%Sample Rate = 200.0 Hz
%First Column = SampleIndex
%Last Column = Timestamp 
%Other Columns = EEG data in microvolts followed by Accel Data (in G) interleaved with Aux Data
0, -175.63, -272.54, -1211.19, -500.88, 0.000, 0.000, 0.000, 16:26:50.988, 1602451610988
1, -139.00, -241.35, -1177.91, -548.67, 0.000, 0.000, 0.000, 16:26:51.002, 1602451611002
2, -167.06, -271.35, -1224.04, -227.98, 0.000, 0.000, 0.000, 16:26:51.002, 1602451611002
3, -181.69, -287.99, -1226.64, -352.08, 0.000, 0.000, 0.000, 16:26:51.017, 1602451611017
4, -150.51, -251.87, -1186.06, -610.66, 0.000, 0.000, 0.000, 16:26:51.017, 1602451611017
5, -157.82, -265.78, -1220.37, -349.08, 0.000, 0.000, 0.000, 16:26:51.018, 1602451611018
6, -186.03, -293.79, -1248.48, -230.09, 0.000, 0.000, 0.000, 16:26:51.018, 1602451611018
7, -160.86, -259.67, -1197.11, -593.31, 0.000, 0.000, 0.000, 16:26:51.032, 1602451611032
8, -140.17, -241.41, -1189.80, -451.64, 0.000, 0.000, 0.000, 16:26:51.032, 1602451611032
9, -178.79, -286.48, -1234.31, -182.97, 0.000, 0.000, 0.000, 16:26:51.047, 1602451611047
10, -180.84, -274.54, -1209.12, -503.91, 0.000, 0.000, 0.000, 16:26:51.047, 1602451611047
11, -140.85, -238.25, -1189.09, -559.80, 0.000, 0.000, 0.000, 16:26:51.048, 1602451611048
12, -175.06, -273.52, -1227.10, -235.70, 0.000, 0.000, 0.000, 16:26:51.048, 1602451611048
13, -187.27, -279.59, -1221.63, -353.55, 0.000, 0.000, 0.000, 16:26:51.062, 1602451611062
14, -160.73, -250.75, -1182.62, -611.54, 0.000, 0.000, 0.000, 16:26:51.062, 1602451611062
15, -151.02, -251.34, -1196.82, -335.92, 0.000, 0.000, 0.000, 16:26:51.077, 1602451611077
16, -187.08, -293.93, -1237.17, -226.73, 0.000, 0.000, 0.000, 16:26:51.077, 1602451611077
17, -164.94, -256.71, -1194.42, -598.74, 0.000, 0.000, 0.000, 16:26:51.078, 1602451611078
18, -157.21, -252.50, -1197.87, -467.41, 0.000, 0.000, 0.000, 16:26:51.078, 1602451611078
19, -186.93, -282.04, -1238.32, -186.01, 0.000, 0.000, 0.000, 16:26:51.092, 1602451611092
20, -175.97, -273.44, -1209.54, -500.85, 0.000, 0.000, 0.000, 16:26:51.092, 1602451611092
21, -150.32, -243.01, -1181.37, -559.15, 0.000, 0.000, 0.000, 16:26:51.107, 1602451611107
22, -175.06, -272.88, -1229.19, -234.67, 0.000, 0.000, 0.000, 16:26:51.107, 1602451611107
23, -199.20, -290.44, -1235.99, -363.35, 0.000, 0.000, 0.000, 16:26:51.108, 1602451611108
24, -162.24, -249.13, -1190.51, -616.15, 0.000, 0.000, 0.000, 16:26:51.108, 1602451611108
25, -154.44, -252.59, -1208.12, -340.67, 0.000, 0.000, 0.000, 16:26:51.122, 1602451611122
26, -195.25, -292.23, -1238.85, -225.25, 0.000, 0.000, 0.000, 16:26:51.122, 1602451611122
27, -171.30, -262.50, -1196.49, -599.60, 0.000, 0.000, 0.000, 16:26:51.138, 1602451611138
28, -151.93, -246.86, -1192.00, -460.38, 0.000, 0.000, 0.000, 16:26:51.138, 1602451611138
29, -175.07, -261.85, -1220.51, -172.16, 0.000, 0.000, 0.000, 16:26:51.139, 1602451611139
30, -188.74, -277.52, -1213.94, -503.12, 0.000, 0.000, 0.000, 16:26:51.139, 1602451611139
31, -147.25, -233.57, -1179.19, -556.43, 0.000, 0.000, 0.000, 16:26:51.152, 1602451611152
32, -166.81, -262.49, -1211.73, -222.23, 0.000, 0.000, 0.000, 16:26:51.152, 1602451611152
33, -191.58, -274.80, -1214.65, -347.01, 0.000, 0.000, 0.000, 16:26:51.167, 1602451611167
34, -150.46, -235.80, -1172.30, -605.93, 0.000, 0.000, 0.000, 16:26:51.167, 1602451611167
35, -162.46, -253.52, -1204.12, -342.30, 0.000, 0.000, 0.000, 16:26:51.183, 1602451611183
36, -197.11, -291.70, -1235.72, -226.48, 0.000, 0.000, 0.000, 16:26:51.183, 1602451611183
37, -169.40, -257.89, -1190.88, -588.00, 0.000, 0.000, 0.000, 16:26:51.183, 1602451611183
38, -151.63, -245.20, -1188.61, -456.39, 0.000, 0.000, 0.000, 16:26:51.183, 1602451611183
39, -190.73, -283.57, -1231.36, -180.35, 0.000, 0.000, 0.000, 16:26:51.198, 1602451611198
40, -186.74, -276.47, -1217.06, -505.51, 0.000, 0.000, 0.000, 16:26:51.198, 1602451611198
41, -149.12, -240.77, -1181.20, -558.00, 0.000, 0.000, 0.000, 16:26:51.198, 1602451611198
42, -170.60, -261.49, -1218.32, -226.82, 0.000, 0.000, 0.000, 16:26:51.199, 1602451611199
43, -185.49, -274.25, -1219.40, -348.44, 0.000, 0.000, 0.000, 16:26:51.212, 1602451611212
44, -149.45, -237.61, -1178.47, -612.29, 0.000, 0.000, 0.000, 16:26:51.212, 1602451611212
45, -153.56, -238.50, -1198.73, -336.79, 0.000, 0.000, 0.000, 16:26:51.228, 1602451611228
46, -190.62, -275.09, -1224.69, -219.85, 0.000, 0.000, 0.000, 16:26:51.228, 1602451611228
47, -169.11, -254.71, -1186.30, -597.48, 0.000, 0.000, 0.000, 16:26:51.228, 1602451611228
48, -147.41, -242.12, -1194.19, -459.30, 0.000, 0.000, 0.000, 16:26:51.228, 1602451611228
49, -181.20, -279.53, -1232.24, -177.30, 0.000, 0.000, 0.000, 16:26:51.259, 1602451611259
50, -174.09, -257.66, -1192.96, -495.90, 0.000, 0.000, 0.000, 16:26:51.259, 1602451611259
51, -138.29, -220.96, -1151.97, -545.43, 0.000, 0.000, 0.000, 16:26:51.259, 1602451611259
52, -171.13, -255.72, -1204.71, -219.37, 0.000, 0.000, 0.000, 16:26:51.259, 1602451611259
53, -184.69, -270.19, -1216.33, -343.72, 0.000, 0.000, 0.000, 16:26:51.260, 1602451611260
54, -154.39, -231.68, -1168.28, -607.45, 0.000, 0.000, 0.000, 16:26:51.260, 1602451611260
55, -147.76, -234.44, -1183.56, -325.33, 0.000, 0.000, 0.000, 16:26:51.272, 1602451611272
56, -188.91, -281.21, -1232.68, -218.56, 0.000, 0.000, 0.000, 16:26:51.272, 1602451611272
57, -173.65, -261.96, -1198.69, -603.97, 0.000, 0.000, 0.000, 16:26:51.288, 1602451611288
58, -148.84, -235.09, -1191.23, -456.28, 0.000, 0.000, 0.000, 16:26:51.288, 1602451611288
59, -192.17, -277.77, -1236.89, -179.90, 0.000, 0.000, 0.000, 16:26:51.303, 1602451611303
60, -194.11, -285.81, -1227.18, -511.44, 0.000, 0.000, 0.000, 16:26:51.303, 1602451611303
61, -151.51, -248.10, -1193.70, -563.04, 0.000, 0.000, 0.000, 16:26:51.304, 1602451611304
62, -184.73, -276.37, -1231.31, -235.70, 0.000, 0.000, 0.000, 16:26:51.304, 1602451611304
63, -204.73, -298.25, -1252.93, -366.99, 0.000, 0.000, 0.000, 16:26:51.318, 1602451611318
64, -166.31, -260.65, -1207.77, -631.81, 0.000, 0.000, 0.000, 16:26:51.318, 1602451611318
65, -170.63, -269.74, -1226.92, -351.27, 0.000, 0.000, 0.000, 16:26:51.318, 1602451611318
66, -212.30, -307.90, -1274.82, -241.78, 0.000, 0.000, 0.000, 16:26:51.318, 1602451611318
67, -187.46, -277.98, -1218.72, -615.60, 0.000, 0.000, 0.000, 16:26:51.332, 1602451611332
68, -178.59, -265.03, -1213.63, -477.03, 0.000, 0.000, 0.000, 16:26:51.332, 1602451611332
69, -213.29, -307.09, -1265.82, -198.50, 0.000, 0.000, 0.000, 16:26:51.348, 1602451611348
70, -210.14, -302.55, -1246.78, -530.02, 0.000, 0.000, 0.000, 16:26:51.348, 1602451611348
71, -182.37, -274.36, -1217.99, -585.92, 0.000, 0.000, 0.000, 16:26:51.349, 1602451611349
72, -207.61, -302.32, -1265.60, -258.84, 0.000, 0.000, 0.000, 16:26:51.349, 1602451611349
73, -210.73, -309.29, -1265.91, -372.93, 0.000, 0.000, 0.000, 16:26:51.361, 1602451611361
74, -189.53, -291.80, -1234.23, -652.84, 0.000, 0.000, 0.000, 16:26:51.361, 1602451611361
75, -195.64, -298.82, -1259.17, -370.07, 0.000, 0.000, 0.000, 16:26:51.377, 1602451611377
76, -231.05, -337.60, -1300.07, -260.34, 0.000, 0.000, 0.000, 16:26:51.377, 1602451611377
77, -203.72, -303.11, -1246.07, -633.74, 0.000, 0.000, 0.000, 16:26:51.378, 1602451611378
78, -190.03, -288.90, -1246.63, -495.39, 0.000, 0.000, 0.000, 16:26:51.378, 1602451611378
79, -229.00, -328.23, -1282.02, -217.97, 0.000, 0.000, 0.000, 16:26:51.391, 1602451611391
80, -230.47, -331.45, -1267.29, -542.28, 0.000, 0.000, 0.000, 16:26:51.391, 1602451611391
81, -205.02, -304.38, -1245.32, -605.90, 0.000, 0.000, 0.000, 16:26:51.407, 1602451611407
82, -225.52, -329.48, -1282.51, -276.49, 0.000, 0.000, 0.000, 16:26:51.407, 1602451611407
83, -251.85, -357.93, -1300.35, -403.59, 0.000, 0.000, 0.000, 16:26:51.408, 1602451611408
84, -213.19, -310.85, -1245.94, -659.65, 0.000, 0.000, 0.000, 16:26:51.408, 1602451611408
85, -223.01, -328.09, -1271.07, -398.08, 0.000, 0.000, 0.000, 16:26:51.421, 1602451611421
86, -265.30, -365.82, -1311.01, -282.45, 0.000, 0.000, 0.000, 16:26:51.421, 1602451611421
87, -230.64, -340.49, -1267.07, -647.09, 0.000, 0.000, 0.000, 16:26:51.438, 1602451611438
88, -232.74, -335.37, -1271.10, -523.77, 0.000, 0.000, 0.000, 16:26:51.438, 1602451611438
89, -259.15, -360.55, -1295.68, -250.14, 0.000, 0.000, 0.000, 16:26:51.439, 1602451611439
90, -273.85, -366.64, -1284.52, -555.72, 0.000, 0.000, 0.000, 16:26:51.439, 1602451611439
91, -237.87, -338.05, -1259.39, -617.94, 0.000, 0.000, 0.000, 16:26:51.452, 1602451611452
92, -265.28, -373.79, -1304.01, -316.37, 0.000, 0.000, 0.000, 16:26:51.452, 1602451611452
93, -282.66, -383.90, -1300.89, -421.26, 0.000, 0.000, 0.000, 16:26:51.468, 1602451611468
94, -257.16, -354.32, -1264.78, -673.52, 0.000, 0.000, 0.000, 16:26:51.468, 1602451611468
95, -249.00, -357.88, -1286.92, -424.09, 0.000, 0.000, 0.000, 16:26:51.469, 1602451611469
96, -293.53, -396.72, -1319.04, -310.14, 0.000, 0.000, 0.000, 16:26:51.469, 1602451611469
97, -269.22, -367.45, -1284.46, -648.83, 0.000, 0.000, 0.000, 16:26:51.498, 1602451611498
98, -244.24, -352.42, -1279.52, -537.98, 0.000, 0.000, 0.000, 16:26:51.498, 1602451611498
99, -276.39, -381.14, -1309.50, -276.43, 0.000, 0.000, 0.000, 16:26:51.499, 1602451611499
100, -267.91, -370.35, -1284.71, -548.66, 0.000, 0.000, 0.000, 16:26:51.499, 1602451611499
101, -229.25, -330.95, -1252.95, -610.31, 0.000, 0.000, 0.000, 16:26:51.499, 1602451611499
102, -273.02, -386.33, -1315.94, -338.51, 0.000, 0.000, 0.000, 16:26:51.499, 1602451611499
103, -283.53, -389.04, -1309.56, -419.15, 0.000, 0.000, 0.000, 16:26:51.512, 1602451611512
104, -244.41, -343.64, -1258.99, -660.06, 0.000, 0.000, 0.000, 16:26:51.512, 1602451611512
105, -255.23, -370.75, -1294.09, -435.43, 0.000, 0.000, 0.000, 16:26:51.544, 1602451611544
106, -273.04, -383.07, -1311.33, -306.41, 0.000, 0.000, 0.000, 16:26:51.544, 1602451611544
107, -260.84, -364.93, -1278.23, -640.60, 0.000, 0.000, 0.000, 16:26:51.545, 1602451611545
108, -249.66, -358.99, -1280.14, -536.09, 0.000, 0.000, 0.000, 16:26:51.545, 1602451611545
109, -271.51, -389.09, -1320.34, -280.81, 0.000, 0.000, 0.000, 16:26:51.545, 1602451611545
110, -275.17, -379.83, -1295.55, -556.80, 0.000, 0.000, 0.000, 16:26:51.545, 1602451611545
111, -241.70, -350.95, -1269.18, -624.78, 0.000, 0.000, 0.000, 16:26:51.546, 1602451611546
112, -258.84, -372.44, -1300.75, -327.86, 0.000, 0.000, 0.000, 16:26:51.546, 1602451611546
113, -272.97, -382.68, -1300.19, -411.90, 0.000, 0.000, 0.000, 16:26:51.557, 1602451611557
114, -234.76, -344.32, -1254.13, -658.11, 0.000, 0.000, 0.000, 16:26:51.557, 1602451611557
115, -240.22, -353.24, -1279.82, -423.35, 0.000, 0.000, 0.000, 16:26:51.572, 1602451611572
116, -259.27, -371.23, -1292.92, -292.68, 0.000, 0.000, 0.000, 16:26:51.572, 1602451611572
117, -245.53, -354.72, -1263.62, -633.59, 0.000, 0.000, 0.000, 16:26:51.588, 1602451611588
118, -206.13, -315.67, -1240.67, -509.83, 0.000, 0.000, 0.000, 16:26:51.588, 1602451611588
119, -267.26, -388.66, -1314.95, -279.41, 0.000, 0.000, 0.000, 16:26:51.588, 1602451611588
120, -264.74, -371.96, -1282.63, -556.19, 0.000, 0.000, 0.000, 16:26:51.588, 1602451611588
121, -223.42, -336.71, -1250.38, -618.72, 0.000, 0.000, 0.000, 16:26:51.602, 1602451611602
122, -242.14, -356.07, -1285.74, -312.82, 0.000, 0.000, 0.000, 16:26:51.602, 1602451611602
123, -269.00, -386.49, -1296.29, -410.76, 0.000, 0.000, 0.000, 16:26:51.618, 1602451611618
124, -229.52, -346.14, -1263.43, -669.48, 0.000, 0.000, 0.000, 16:26:51.618, 1602451611618
125, -233.96, -354.04, -1277.76, -418.64, 0.000, 0.000, 0.000, 16:26:51.618, 1602451611618
126, -276.23, -388.05, -1306.51, -303.55, 0.000, 0.000, 0.000, 16:26:51.618, 1602451611618
127, -233.02, -343.81, -1255.55, -642.96, 0.000, 0.000, 0.000, 16:26:51.632, 1602451611632
128, -229.43, -340.30, -1271.13, -533.72, 0.000, 0.000, 0.000, 16:26:51.632, 1602451611632
129, -273.17, -391.66, -1308.98, -263.89, 0.000, 0.000, 0.000, 16:26:51.648, 1602451611648
130, -262.84, -375.07, -1287.05, -566.82, 0.000, 0.000, 0.000, 16:26:51.648, 1602451611648
131, -252.52, -373.18, -1283.28, -648.29, 0.000, 0.000, 0.000, 16:26:51.649, 1602451611649
132, -254.78, -379.05, -1294.17, -308.11, 0.000, 0.000, 0.000, 16:26:51.649, 1602451611649
133, -281.04, -400.81, -1314.64, -427.48, 0.000, 0.000, 0.000, 16:26:51.662, 1602451611662
134, -232.21, -356.83, -1265.33, -684.47, 0.000, 0.000, 0.000, 16:26:51.662, 1602451611662
135, -242.21, -363.45, -1286.73, -418.69, 0.000, 0.000, 0.000, 16:26:51.678, 1602451611678
136, -268.97, -396.58, -1318.73, -297.05, 0.000, 0.000, 0.000, 16:26:51.678, 1602451611678
137, -250.06, -368.42, -1279.65, -669.87, 0.000, 0.000, 0.000, 16:26:51.680, 1602451611680
138, -238.93, -361.94, -1283.70, -537.49, 0.000, 0.000, 0.000, 16:26:51.680, 1602451611680
139, -274.24, -401.57, -1331.07, -267.91, 0.000, 0.000, 0.000, 16:26:51.692, 1602451611692
140, -262.89, -380.06, -1293.22, -568.07, 0.000, 0.000, 0.000, 16:26:51.692, 1602451611692
141, -230.61, -354.49, -1274.57, -632.37, 0.000, 0.000, 0.000, 16:26:51.708, 1602451611708
142, -245.57, -374.82, -1308.74, -311.26, 0.000, 0.000, 0.000, 16:26:51.708, 1602451611708
143, -272.28, -396.37, -1312.91, -428.56, 0.000, 0.000, 0.000, 16:26:51.709, 1602451611709
144, -253.50, -369.59, -1281.60, -693.21, 0.000, 0.000, 0.000, 16:26:51.709, 1602451611709
145, -248.21, -370.70, -1296.24, -428.92, 0.000, 0.000, 0.000, 16:26:51.722, 1602451611722
146, -278.97, -389.31, -1308.28, -298.03, 0.000, 0.000, 0.000, 16:26:51.722, 1602451611722
147, -245.39, -360.36, -1276.29, -656.77, 0.000, 0.000, 0.000, 16:26:51.737, 1602451611737
148, -232.25, -355.92, -1270.52, -537.39, 0.000, 0.000, 0.000, 16:26:51.737, 1602451611737
149, -260.16, -392.40, -1325.35, -267.73, 0.000, 0.000, 0.000, 16:26:51.738, 1602451611738
150, -253.44, -370.60, -1285.24, -555.37, 0.000, 0.000, 0.000, 16:26:51.738, 1602451611738
151, -222.18, -344.27, -1255.35, -623.13, 0.000, 0.000, 0.000, 16:26:51.752, 1602451611752
152, -233.67, -369.17, -1293.04, -304.33, 0.000, 0.000, 0.000, 16:26:51.752, 1602451611752
153, -266.32, -370.20, -1294.55, -412.18, 0.000, 0.000, 0.000, 16:26:51.767, 1602451611767
154, -234.47, -345.13, -1252.35, -669.17, 0.000, 0.000, 0.000, 16:26:51.767, 1602451611767
155, -232.17, -344.38, -1274.50, -417.14, 0.000, 0.000, 0.000, 16:26:51.768, 1602451611768
156, -269.49, -378.56, -1309.90, -300.05, 0.000, 0.000, 0.000, 16:26:51.768, 1602451611768
157, -216.05, -336.85, -1260.23, -631.82, 0.000, 0.000, 0.000, 16:26:51.782, 1602451611782
158, -180.59, -311.95, -1242.89, -505.27, 0.000, 0.000, 0.000, 16:26:51.782, 1602451611782
159, -228.95, -354.67, -1289.26, -250.90, 0.000, 0.000, 0.000, 16:26:51.814, 1602451611814
160, -250.62, -356.60, -1272.36, -543.46, 0.000, 0.000, 0.000, 16:26:51.814, 1602451611814
161, -224.26, -345.39, -1264.68, -621.29, 0.000, 0.000, 0.000, 16:26:51.815, 1602451611815
162, -236.97, -361.13, -1308.00, -321.78, 0.000, 0.000, 0.000, 16:26:51.815, 1602451611815
163, -236.42, -352.28, -1296.90, -395.37, 0.000, 0.000, 0.000, 16:26:51.815, 1602451611815
164, -203.68, -331.81, -1256.40, -651.14, 0.000, 0.000, 0.000, 16:26:51.815, 1602451611815
165, -203.80, -330.74, -1248.13, -405.44, 0.000, 0.000, 0.000, 16:26:51.816, 1602451611816
166, -248.93, -365.86, -1284.86, -285.04, 0.000, 0.000, 0.000, 16:26:51.816, 1602451611816
167, -231.10, -344.14, -1255.95, -626.57, 0.000, 0.000, 0.000, 16:26:51.827, 1602451611827
168, -232.41, -327.38, -1246.41, -516.12, 0.000, 0.000, 0.000, 16:26:51.827, 1602451611827
169, -251.76, -361.15, -1304.19, -261.52, 0.000, 0.000, 0.000, 16:26:51.858, 1602451611858
170, -233.51, -354.86, -1298.00, -537.76, 0.000, 0.000, 0.000, 16:26:51.858, 1602451611858
171, -194.02, -338.92, -1276.40, -609.51, 0.000, 0.000, 0.000, 16:26:51.859, 1602451611859
172, -215.13, -351.52, -1299.67, -309.83, 0.000, 0.000, 0.000, 16:26:51.859, 1602451611859
173, -247.23, -350.49, -1260.79, -386.88, 0.000, 0.000, 0.000, 16:26:51.861, 1602451611861
174, -206.01, -315.73, -1226.09, -636.76, 0.000, 0.000, 0.000, 16:26:51.861, 1602451611861
175, -205.37, -284.45, -1192.82, -379.46, 0.000, 0.000, 0.000, 16:26:51.872, 1602451611872
176, -222.27, -287.99, -1197.30, -235.50, 0.000, 0.000, 0.000, 16:26:51.872, 1602451611872
177, -205.01, -260.40, -1166.66, -577.35, 0.000, 0.000, 0.000, 16:26:51.887, 1602451611887
178, -201.51, -267.47, -1167.50, -478.44, 0.000, 0.000, 0.000, 16:26:51.887, 1602451611887
179, -255.11, -304.18, -1195.43, -217.51, 0.000, 0.000, 0.000, 16:26:51.888, 1602451611888
180, -213.39, -232.63, -1158.63, -469.84, 0.000, 0.000, 0.000, 16:26:51.888, 1602451611888
181, -233.85, -255.31, -1145.60, -566.72, 0.000, 0.000, 0.000, 16:26:51.902, 1602451611902
182, -270.24, -290.52, -1137.17, -266.95, 0.000, 0.000, 0.000, 16:26:51.902, 1602451611902
183, -265.59, -262.30, -1076.85, -319.21, 0.000, 0.000, 0.000, 16:26:51.934, 1602451611934
184, -234.30, -203.29, -1059.82, -570.35, 0.000, 0.000, 0.000, 16:26:51.934, 1602451611934
185, -227.19, -225.12, -1108.35, -343.30, 0.000, 0.000, 0.000, 16:26:51.935, 1602451611935
186, -312.50, -290.90, -1095.48, -228.32, 0.000, 0.000, 0.000, 16:26:51.935, 1602451611935
187, -280.51, -259.46, -1131.06, -586.00, 0.000, 0.000, 0.000, 16:26:51.935, 1602451611935
188, -233.13, -207.09, -1086.37, -446.39, 0.000, 0.000, 0.000, 16:26:51.935, 1602451611935
189, -256.97, -251.60, -1107.69, -177.47, 0.000, 0.000, 0.000, 16:26:51.936, 1602451611936
190, -260.22, -237.14, -1050.90, -448.29, 0.000, 0.000, 0.000, 16:26:51.936, 1602451611936
191, -235.63, -210.06, -1067.99, -534.80, 0.000, 0.000, 0.000, 16:26:51.947, 1602451611947
192, -268.31, -280.19, -1106.59, -250.37, 0.000, 0.000, 0.000, 16:26:51.947, 1602451611947
193, -265.60, -254.33, -1114.05, -322.71, 0.000, 0.000, 0.000, 16:26:51.962, 1602451611962
194, -218.76, -227.57, -1076.19, -579.41, 0.000, 0.000, 0.000, 16:26:51.962, 1602451611962
195, -246.58, -280.21, -1099.91, -360.02, 0.000, 0.000, 0.000, 16:26:51.978, 1602451611978
196, -262.82, -236.73, -1075.72, -198.51, 0.000, 0.000, 0.000, 16:26:51.978, 1602451611978
197, -234.20, -205.21, -1042.86, -541.33, 0.000, 0.000, 0.000, 16:26:51.979, 1602451611979
198, -246.30, -220.66, -1114.65, -456.69, 0.000, 0.000, 0.000, 16:26:51.979, 1602451611979
199, -293.10, -272.67, -1189.33, -210.46, 0.000, 0.000, 0.000, 16:26:52.009, 1602451612009
200, -241.45, -236.07, -1102.22, -448.57, 0.000, 0.000, 0.000, 16:26:52.009, 1602451612009
0, -200.79, -219.50, -1081.10, -521.32, 0.000, 0.000, 0.000, 16:26:52.009, 1602451612009
1, -235.31, -317.35, -1144.29, -253.88, 0.000, 0.000, 0.000, 16:26:52.024, 1602451612024
2, -248.35, -267.27, -1142.87, -321.93, 0.000, 0.000, 0.000, 16:26:52.024, 1602451612024
3, -211.86, -220.66, -1096.41, -568.17, 0.000, 0.000, 0.000, 16:26:52.025, 1602451612025
4, -239.01, -254.66, -1114.11, -345.52, 0.000, 0.000, 0.000, 16:26:52.025, 1602451612025
5, -245.40, -297.98, -1206.43, -231.81, 0.000, 0.000, 0.000, 16:26:52.025, 1602451612025
6, -182.62, -199.82, -1101.19, -529.84, 0.000, 0.000, 0.000, 16:26:52.025, 1602451612025
7, -191.85, -225.01, -1118.31, -437.57, 0.000, 0.000, 0.000, 16:26:52.054, 1602451612054
8, -235.88, -318.53, -1223.28, -215.43, 0.000, 0.000, 0.000, 16:26:52.054, 1602451612054
9, -245.49, -282.21, -1113.31, -465.23, 0.000, 0.000, 0.000, 16:26:52.056, 1602451612056
10, -205.28, -261.63, -1119.04, -543.13, 0.000, 0.000, 0.000, 16:26:52.056, 1602451612056
11, -213.76, -266.44, -1171.18, -241.92, 0.000, 0.000, 0.000, 16:26:52.057, 1602451612057
12, -206.99, -280.92, -1180.57, -324.30, 0.000, 0.000, 0.000, 16:26:52.057, 1602451612057
13, -175.86, -269.68, -1150.15, -589.63, 0.000, 0.000, 0.000, 16:26:52.067, 1602451612067
14, -182.35, -265.38, -1158.69, -350.45, 0.000, 0.000, 0.000, 16:26:52.067, 1602451612067
15, -204.71, -298.44, -1185.57, -224.19, 0.000, 0.000, 0.000, 16:26:52.098, 1602451612098
16, -191.90, -270.14, -1155.89, -562.47, 0.000, 0.000, 0.000, 16:26:52.098, 1602451612098
17, -137.81, -215.80, -1098.10, -423.91, 0.000, 0.000, 0.000, 16:26:52.099, 1602451612099
18, -191.96, -303.18, -1188.60, -194.46, 0.000, 0.000, 0.000, 16:26:52.099, 1602451612099
19, -201.52, -319.82, -1196.74, -482.11, 0.000, 0.000, 0.000, 16:26:52.100, 1602451612100
20, -162.87, -227.19, -1165.07, -537.12, 0.000, 0.000, 0.000, 16:26:52.100, 1602451612100
21, -189.50, -263.83, -1182.46, -245.50, 0.000, 0.000, 0.000, 16:26:52.101, 1602451612101
22, -188.76, -290.60, -1185.78, -327.47, 0.000, 0.000, 0.000, 16:26:52.101, 1602451612101
23, -151.10, -240.17, -1143.60, -579.28, 0.000, 0.000, 0.000, 16:26:52.127, 1602451612127
24, -154.96, -257.78, -1197.72, -350.55, 0.000, 0.000, 0.000, 16:26:52.127, 1602451612127
25, -166.49, -283.10, -1198.39, -210.43, 0.000, 0.000, 0.000, 16:26:52.128, 1602451612128
26, -140.50, -265.02, -1169.85, -560.42, 0.000, 0.000, 0.000, 16:26:52.128, 1602451612128
27, -141.70, -247.52, -1177.74, -455.27, 0.000, 0.000, 0.000, 16:26:52.142, 1602451612142
28, -182.75, -277.55, -1164.08, -184.83, 0.000, 0.000, 0.000, 16:26:52.142, 1602451612142
29, -171.54, -274.11, -1171.04, -467.49, 0.000, 0.000, 0.000, 16:26:52.144, 1602451612144
30, -150.07, -254.86, -1155.24, -545.68, 0.000, 0.000, 0.000, 16:26:52.144, 1602451612144
31, -168.02, -258.98, -1179.66, -238.78, 0.000, 0.000, 0.000, 16:26:52.157, 1602451612157
32, -170.88, -300.38, -1216.26, -340.83, 0.000, 0.000, 0.000, 16:26:52.157, 1602451612157
33, -144.83, -277.59, -1182.66, -600.56, 0.000, 0.000, 0.000, 16:26:52.172, 1602451612172
34, -141.01, -228.92, -1206.31, -346.08, 0.000, 0.000, 0.000, 16:26:52.172, 1602451612172
35, -175.19, -280.45, -1223.77, -219.04, 0.000, 0.000, 0.000, 16:26:52.173, 1602451612173
36, -147.20, -242.54, -1146.80, -553.13, 0.000, 0.000, 0.000, 16:26:52.173, 1602451612173
37, -145.10, -248.98, -1158.34, -454.44, 0.000, 0.000, 0.000, 16:26:52.187, 1602451612187
38, -193.24, -317.17, -1232.59, -214.28, 0.000, 0.000, 0.000, 16:26:52.187, 1602451612187
39, -167.25, -268.82, -1179.54, -467.24, 0.000, 0.000, 0.000, 16:26:52.202, 1602451612202
40, -168.29, -276.75, -1169.07, -562.35, 0.000, 0.000, 0.000, 16:26:52.202, 1602451612202
41, -170.41, -271.54, -1191.79, -248.71, 0.000, 0.000, 0.000, 16:26:52.203, 1602451612203
42, -149.20, -248.56, -1186.09, -323.51, 0.000, 0.000, 0.000, 16:26:52.203, 1602451612203
43, -143.07, -236.17, -1172.02, -589.29, 0.000, 0.000, 0.000, 16:26:52.217, 1602451612217
44, -142.27, -269.49, -1180.67, -353.76, 0.000, 0.000, 0.000, 16:26:52.217, 1602451612217
45, -184.12, -299.96, -1236.63, -234.07, 0.000, 0.000, 0.000, 16:26:52.232, 1602451612232
46, -166.61, -256.45, -1182.88, -567.79, 0.000, 0.000, 0.000, 16:26:52.232, 1602451612232
47, -174.29, -248.95, -1182.03, -466.94, 0.000, 0.000, 0.000, 16:26:52.233, 1602451612233
48, -181.02, -311.72, -1184.39, -194.29, 0.000, 0.000, 0.000, 16:26:52.233, 1602451612233
49, -173.93, -254.98, -1189.99, -464.07, 0.000, 0.000, 0.000, 16:26:52.247, 1602451612247
50, -106.44, -184.42, -1141.60, -510.03, 0.000, 0.000, 0.000, 16:26:52.247, 1602451612247
51, -152.92, -213.02, -1168.69, -222.25, 0.000, 0.000, 0.000, 16:26:52.262, 1602451612262
52, -183.81, -252.16, -1210.63, -325.20, 0.000, 0.000, 0.000, 16:26:52.262, 1602451612262
53, -164.42, -240.83, -1173.62, -592.23, 0.000, 0.000, 0.000, 16:26:52.264, 1602451612264
54, -160.95, -259.24, -1201.83, -363.91, 0.000, 0.000, 0.000, 16:26:52.264, 1602451612264
55, -196.90, -315.78, -1240.17, -243.50, 0.000, 0.000, 0.000, 16:26:52.277, 1602451612277
56, -174.53, -299.26, -1214.49, -587.41, 0.000, 0.000, 0.000, 16:26:52.277, 1602451612277
57, -149.92, -240.01, -1187.03, -468.64, 0.000, 0.000, 0.000, 16:26:52.292, 1602451612292
58, -181.58, -261.16, -1205.37, -195.73, 0.000, 0.000, 0.000, 16:26:52.292, 1602451612292
59, -176.99, -272.76, -1202.10, -473.25, 0.000, 0.000, 0.000, 16:26:52.293, 1602451612293
60, -155.18, -268.05, -1200.72, -566.10, 0.000, 0.000, 0.000, 16:26:52.293, 1602451612293
61, -174.59, -273.55, -1233.84, -266.28, 0.000, 0.000, 0.000, 16:26:52.307, 1602451612307
62, -189.85, -259.40, -1161.94, -326.74, 0.000, 0.000, 0.000, 16:26:52.307, 1602451612307
63, -158.78, -251.21, -1135.82, -587.03, 0.000, 0.000, 0.000, 16:26:52.323, 1602451612323
64, -167.93, -285.00, -1201.66, -369.26, 0.000, 0.000, 0.000, 16:26:52.323, 1602451612323
65, -154.53, -251.64, -1202.00, -208.05, 0.000, 0.000, 0.000, 16:26:52.324, 1602451612324
66, -146.55, -240.65, -1176.57, -563.77, 0.000, 0.000, 0.000, 16:26:52.324, 1602451612324
67, -137.18, -239.86, -1176.07, -458.57, 0.000, 0.000, 0.000, 16:26:52.337, 1602451612337
68, -155.12, -267.69, -1208.60, -187.08, 0.000, 0.000, 0.000, 16:26:52.337, 1602451612337
69, -157.34, -267.10, -1226.30, -478.74, 0.000, 0.000, 0.000, 16:26:52.369, 1602451612369
70, -144.89, -257.74, -1215.03, -566.75, 0.000, 0.000, 0.000, 16:26:52.369, 1602451612369
71, -146.27, -263.57, -1206.78, -244.37, 0.000, 0.000, 0.000, 16:26:52.370, 1602451612370
72, -140.51, -243.95, -1143.32, -296.09, 0.000, 0.000, 0.000, 16:26:52.370, 1602451612370
73, -92.38, -190.09, -1116.51, -556.54, 0.000, 0.000, 0.000, 16:26:52.370, 1602451612370
74, -138.09, -249.91, -1205.16, -351.84, 0.000, 0.000, 0.000, 16:26:52.370, 1602451612370
75, -164.76, -285.59, -1194.65, -212.65, 0.000, 0.000, 0.000, 16:26:52.371, 1602451612371
76, -119.70, -221.67, -1178.41, -552.94, 0.000, 0.000, 0.000, 16:26:52.371, 1602451612371
77, -127.57, -202.87, -1143.99, -440.73, 0.000, 0.000, 0.000, 16:26:52.382, 1602451612382
78, -108.04, -211.03, -1153.25, -144.34, 0.000, 0.000, 0.000, 16:26:52.382, 1602451612382
79, -157.54, -271.05, -1200.87, -478.07, 0.000, 0.000, 0.000, 16:26:52.397, 1602451612397
80, -112.39, -197.53, -1143.07, -527.71, 0.000, 0.000, 0.000, 16:26:52.397, 1602451612397
81, -138.94, -251.25, -1175.28, -236.78, 0.000, 0.000, 0.000, 16:26:52.413, 1602451612413
82, -150.60, -246.30, -1175.14, -308.84, 0.000, 0.000, 0.000, 16:26:52.413, 1602451612413
83, -116.88, -209.98, -1174.16, -582.35, 0.000, 0.000, 0.000, 16:26:52.414, 1602451612414
84, -167.30, -235.91, -1181.36, -349.23, 0.000, 0.000, 0.000, 16:26:52.414, 1602451612414
85, -163.02, -289.09, -1250.96, -224.36, 0.000, 0.000, 0.000, 16:26:52.427, 1602451612427
86, -137.19, -267.70, -1172.35, -563.35, 0.000, 0.000, 0.000, 16:26:52.427, 1602451612427
87, -121.67, -200.84, -1155.48, -436.88, 0.000, 0.000, 0.000, 16:26:52.443, 1602451612443
88, -126.34, -226.32, -1174.70, -153.00, 0.000, 0.000, 0.000, 16:26:52.443, 1602451612443
89, -146.28, -238.40, -1181.21, -455.10, 0.000, 0.000, 0.000, 16:26:52.444, 1602451612444
90, -143.78, -231.16, -1191.44, -552.71, 0.000, 0.000, 0.000, 16:26:52.444, 1602451612444
91, -166.80, -249.59, -1201.14, -243.91, 0.000, 0.000, 0.000, 16:26:52.458, 1602451612458
92, -161.76, -268.26, -1198.42, -322.68, 0.000, 0.000, 0.000, 16:26:52.458, 1602451612458
93, -153.69, -278.41, -1180.43, -610.02, 0.000, 0.000, 0.000, 16:26:52.472, 1602451612472
94, -135.58, -203.38, -1164.65, -330.32, 0.000, 0.000, 0.000, 16:26:52.472, 1602451612472
95, -168.78, -211.32, -1197.13, -191.94, 0.000, 0.000, 0.000, 16:26:52.473, 1602451612473
96, -160.35, -229.83, -1173.17, -568.00, 0.000, 0.000, 0.000, 16:26:52.473, 1602451612473
97, -134.45, -223.16, -1177.15, -451.37, 0.000, 0.000, 0.000, 16:26:52.486, 1602451612486
98, -199.59, -276.60, -1202.83, -197.40, 0.000, 0.000, 0.000, 16:26:52.486, 1602451612486
99, -187.27, -292.81, -1240.84, -495.77, 0.000, 0.000, 0.000, 16:26:52.502, 1602451612502
100, -130.57, -213.30, -1156.90, -535.61, 0.000, 0.000, 0.000, 16:26:52.502, 1602451612502
101, -142.03, -249.13, -1205.54, -236.11, 0.000, 0.000, 0.000, 16:26:52.503, 1602451612503
102, -184.25, -288.16, -1261.18, -345.94, 0.000, 0.000, 0.000, 16:26:52.503, 1602451612503
103, -162.17, -247.08, -1188.61, -605.02, 0.000, 0.000, 0.000, 16:26:52.517, 1602451612517
104, -144.74, -248.28, -1180.03, -347.55, 0.000, 0.000, 0.000, 16:26:52.517, 1602451612517
105, -232.52, -299.93, -1241.69, -242.92, 0.000, 0.000, 0.000, 16:26:52.532, 1602451612532
106, -182.53, -254.58, -1159.45, -571.26, 0.000, 0.000, 0.000, 16:26:52.532, 1602451612532
107, -108.27, -214.11, -1176.77, -441.40, 0.000, 0.000, 0.000, 16:26:52.533, 1602451612533
108, -138.53, -252.07, -1206.75, -169.85, 0.000, 0.000, 0.000, 16:26:52.533, 1602451612533
109, -137.82, -242.42, -1215.34, -465.66, 0.000, 0.000, 0.000, 16:26:52.547, 1602451612547
110, -118.30, -217.56, -1177.58, -543.12, 0.000, 0.000, 0.000, 16:26:52.547, 1602451612547
111, -140.78, -215.65, -1154.60, -212.55, 0.000, 0.000, 0.000, 16:26:52.562, 1602451612562
112, -178.25, -276.57, -1229.19, -341.52, 0.000, 0.000, 0.000, 16:26:52.562, 1602451612562
113, -126.86, -221.05, -1152.47, -585.15, 0.000, 0.000, 0.000, 16:26:52.563, 1602451612563
114, -125.19, -229.52, -1178.61, -338.13, 0.000, 0.000, 0.000, 16:26:52.563, 1602451612563
115, -207.29, -298.76, -1243.37, -234.67, 0.000, 0.000, 0.000, 16:26:52.577, 1602451612577
116, -145.18, -253.30, -1170.45, -566.98, 0.000, 0.000, 0.000, 16:26:52.577, 1602451612577
117, -111.88, -226.35, -1188.36, -455.38, 0.000, 0.000, 0.000, 16:26:52.609, 1602451612609
118, -151.98, -282.75, -1226.06, -192.72, 0.000, 0.000, 0.000, 16:26:52.609, 1602451612609
119, -154.80, -245.54, -1179.67, -464.99, 0.000, 0.000, 0.000, 16:26:52.609, 1602451612609
120, -123.50, -201.78, -1148.75, -539.41, 0.000, 0.000, 0.000, 16:26:52.609, 1602451612609
121, -129.88, -239.75, -1187.80, -227.38, 0.000, 0.000, 0.000, 16:26:52.610, 1602451612610
122, -163.49, -269.68, -1243.86, -337.73, 0.000, 0.000, 0.000, 16:26:52.610, 1602451612610
123, -133.79, -250.80, -1182.95, -598.96, 0.000, 0.000, 0.000, 16:26:52.611, 1602451612611
124, -138.76, -254.34, -1188.61, -353.42, 0.000, 0.000, 0.000, 16:26:52.611, 1602451612611
125, -151.75, -252.55, -1194.17, -197.12, 0.000, 0.000, 0.000, 16:26:52.622, 1602451612622
126, -160.58, -246.99, -1202.44, -579.51, 0.000, 0.000, 0.000, 16:26:52.622, 1602451612622
127, -116.08, -214.89, -1153.33, -441.21, 0.000, 0.000, 0.000, 16:26:52.637, 1602451612637
128, -145.17, -261.63, -1237.79, -183.32, 0.000, 0.000, 0.000, 16:26:52.637, 1602451612637
129, -128.55, -224.76, -1170.48, -445.91, 0.000, 0.000, 0.000, 16:26:52.653, 1602451612653
130, -112.53, -188.26, -1139.57, -520.57, 0.000, 0.000, 0.000, 16:26:52.653, 1602451612653
131, -118.12, -213.90, -1170.64, -212.46, 0.000, 0.000, 0.000, 16:26:52.654, 1602451612654
132, -152.91, -268.38, -1217.86, -324.17, 0.000, 0.000, 0.000, 16:26:52.654, 1602451612654
133, -140.03, -234.12, -1190.15, -595.79, 0.000, 0.000, 0.000, 16:26:52.667, 1602451612667
134, -126.63, -252.66, -1176.83, -347.03, 0.000, 0.000, 0.000, 16:26:52.667, 1602451612667
135, -144.51, -242.69, -1176.78, -187.09, 0.000, 0.000, 0.000, 16:26:52.683, 1602451612683
136, -134.01, -209.91, -1163.33, -550.51, 0.000, 0.000, 0.000, 16:26:52.683, 1602451612683
137, -132.82, -216.66, -1165.59, -452.50, 0.000, 0.000, 0.000, 16:26:52.683, 1602451612683
138, -149.43, -249.75, -1216.47, -177.09, 0.000, 0.000, 0.000, 16:26:52.683, 1602451612683
139, -141.52, -237.27, -1185.25, -458.59, 0.000, 0.000, 0.000, 16:26:52.697, 1602451612697
140, -126.68, -242.76, -1193.18, -555.15, 0.000, 0.000, 0.000, 16:26:52.697, 1602451612697
141, -149.76, -272.51, -1222.35, -243.19, 0.000, 0.000, 0.000, 16:26:52.713, 1602451612713
142, -177.62, -281.25, -1204.02, -331.36, 0.000, 0.000, 0.000, 16:26:52.713, 1602451612713
143, -112.88, -210.75, -1145.61, -574.59, 0.000, 0.000, 0.000, 16:26:52.713, 1602451612713
144, -133.10, -215.50, -1167.44, -336.03, 0.000, 0.000, 0.000, 16:26:52.713, 1602451612713
145, -140.82, -225.72, -1181.98, -187.09, 0.000, 0.000, 0.000, 16:26:52.728, 1602451612728
146, -132.40, -235.04, -1164.61, -555.80, 0.000, 0.000, 0.000, 16:26:52.728, 1602451612728
147, -130.23, -228.28, -1169.08, -451.88, 0.000, 0.000, 0.000, 16:26:52.743, 1602451612743
148, -155.93, -256.92, -1226.48, -180.15, 0.000, 0.000, 0.000, 16:26:52.743, 1602451612743
149, -167.30, -241.14, -1203.44, -466.30, 0.000, 0.000, 0.000, 16:26:52.743, 1602451612743
150, -128.61, -246.03, -1168.04, -549.51, 0.000, 0.000, 0.000, 16:26:52.743, 1602451612743
151, -165.62, -265.82, -1220.64, -247.45, 0.000, 0.000, 0.000, 16:26:52.757, 1602451612757
152, -181.54, -274.67, -1226.78, -335.14, 0.000, 0.000, 0.000, 16:26:52.757, 1602451612757
153, -164.37, -266.34, -1192.27, -622.08, 0.000, 0.000, 0.000, 16:26:52.773, 1602451612773
154, -166.08, -254.03, -1183.63, -357.55, 0.000, 0.000, 0.000, 16:26:52.773, 1602451612773
155, -194.39, -280.01, -1237.25, -222.02, 0.000, 0.000, 0.000, 16:26:52.773, 1602451612773
156, -163.62, -257.94, -1202.05, -587.52, 0.000, 0.000, 0.000, 16:26:52.773, 1602451612773
157, -175.93, -253.19, -1202.09, -481.82, 0.000, 0.000, 0.000, 16:26:52.787, 1602451612787
158, -213.50, -304.01, -1244.80, -211.50, 0.000, 0.000, 0.000, 16:26:52.787, 1602451612787
159, -195.22, -307.64, -1209.07, -494.88, 0.000, 0.000, 0.000, 16:26:52.803, 1602451612803
160, -139.02, -221.65, -1195.80, -554.00, 0.000, 0.000, 0.000, 16:26:52.803, 1602451612803
161, -170.69, -258.90, -1231.87, -251.05, 0.000, 0.000, 0.000, 16:26:52.804, 1602451612804
162, -176.98, -263.07, -1213.47, -324.45, 0.000, 0.000, 0.000, 16:26:52.804, 1602451612804
163, -169.08, -269.10, -1205.42, -618.32, 0.000, 0.000, 0.000, 16:26:52.817, 1602451612817
164, -171.38, -264.88, -1178.58, -361.34, 0.000, 0.000, 0.000, 16:26:52.817, 1602451612817
165, -215.18, -311.50, -1243.52, -236.94, 0.000, 0.000, 0.000, 16:26:52.833, 1602451612833
166, -176.23, -249.71, -1187.76, -576.35, 0.000, 0.000, 0.000, 16:26:52.833, 1602451612833
167, -165.40, -227.01, -1183.12, -469.42, 0.000, 0.000, 0.000, 16:26:52.834, 1602451612834
168, -198.06, -266.59, -1229.46, -193.96, 0.000, 0.000, 0.000, 16:26:52.834, 1602451612834
169, -166.23, -244.11, -1188.35, -466.40, 0.000, 0.000, 0.000, 16:26:52.846, 1602451612846
170, -151.50, -239.52, -1170.92, -552.07, 0.000, 0.000, 0.000, 16:26:52.846, 1602451612846
171, -176.43, -258.33, -1200.46, -242.33, 0.000, 0.000, 0.000, 16:26:52.862, 1602451612862
172, -194.90, -279.25, -1251.19, -336.77, 0.000, 0.000, 0.000, 16:26:52.862, 1602451612862
173, -144.17, -239.48, -1196.63, -606.15, 0.000, 0.000, 0.000, 16:26:52.863, 1602451612863
174, -152.18, -264.06, -1202.80, -358.37, 0.000, 0.000, 0.000, 16:26:52.863, 1602451612863
175, -179.58, -251.78, -1197.43, -203.32, 0.000, 0.000, 0.000, 16:26:52.893, 1602451612893
176, -153.36, -242.50, -1185.00, -567.16, 0.000, 0.000, 0.000, 16:26:52.893, 1602451612893
177, -154.21, -242.89, -1192.96, -465.32, 0.000, 0.000, 0.000, 16:26:52.894, 1602451612894
178, -179.98, -275.00, -1232.19, -192.33, 0.000, 0.000, 0.000, 16:26:52.894, 1602451612894
179, -182.03, -284.29, -1211.52, -482.02, 0.000, 0.000, 0.000, 16:26:52.895, 1602451612895
180, -146.50, -247.85, -1203.25, -566.10, 0.000, 0.000, 0.000, 16:26:52.895, 1602451612895
181, -166.02, -270.72, -1214.78, -248.80, 0.000, 0.000, 0.000, 16:26:52.923, 1602451612923
182, -184.09, -280.46, -1234.24, -334.94, 0.000, 0.000, 0.000, 16:26:52.923, 1602451612923
183, -139.50, -221.69, -1171.39, -591.50, 0.000, 0.000, 0.000, 16:26:52.924, 1602451612924
184, -154.07, -248.50, -1189.93, -353.93, 0.000, 0.000, 0.000, 16:26:52.924, 1602451612924
185, -179.49, -275.92, -1221.48, -220.93, 0.000, 0.000, 0.000, 16:26:52.924, 1602451612924
186, -157.06, -248.03, -1194.82, -572.98, 0.000, 0.000, 0.000, 16:26:52.924, 1602451612924
187, -120.31, -252.76, -1204.44, -465.87, 0.000, 0.000, 0.000, 16:26:52.937, 1602451612937
188, -166.51, -265.59, -1199.11, -181.20, 0.000, 0.000, 0.000, 16:26:52.937, 1602451612937
189, -165.34, -257.64, -1187.39, -463.03, 0.000, 0.000, 0.000, 16:26:52.952, 1602451612952
190, -143.90, -243.83, -1189.23, -562.93, 0.000, 0.000, 0.000, 16:26:52.952, 1602451612952
191, -174.69, -296.25, -1241.85, -264.34, 0.000, 0.000, 0.000, 16:26:52.967, 1602451612967
192, -192.19, -274.36, -1225.14, -329.31, 0.000, 0.000, 0.000, 16:26:52.967, 1602451612967
193, -146.06, -240.09, -1171.71, -600.18, 0.000, 0.000, 0.000, 16:26:52.968, 1602451612968
194, -138.33, -252.26, -1200.97, -356.86, 0.000, 0.000, 0.000, 16:26:52.968, 1602451612968
195, -185.29, -284.83, -1222.75, -219.33, 0.000, 0.000, 0.000, 16:26:52.982, 1602451612982
196, -142.98, -242.22, -1193.02, -570.63, 0.000, 0.000, 0.000, 16:26:52.982, 1602451612982
197, -148.39, -228.90, -1172.65, -461.30, 0.000, 0.000, 0.000, 16:26:52.983, 1602451612983
198, -178.67, -268.76, -1208.63, -189.98, 0.000, 0.000, 0.000, 16:26:52.983, 1602451612983
199, -149.83, -247.21, -1178.64, -455.24, 0.000, 0.000, 0.000, 16:26:52.998, 1602451612998
200, -140.07, -225.61, -1145.05, -543.69, 0.000, 0.000, 0.000, 16:26:52.998, 1602451612998
0, -157.87, -245.05, -1202.56, -241.63, 0.000, 0.000, 0.000, 16:26:52.998, 1602451612998
1, -217.26, -271.30, -1242.78, -344.72, 0.000, 0.000, 0.000, 16:26:53.012, 1602451613012
2, -149.91, -251.91, -1162.44, -607.21, 0.000, 0.000, 0.000, 16:26:53.012, 1602451613012
3, -131.21, -220.44, -1178.12, -339.68, 0.000, 0.000, 0.000, 16:26:53.028, 1602451613028
4, -151.82, -237.77, -1206.57, -197.38, 0.000, 0.000, 0.000, 16:26:53.028, 1602451613028
5, -142.73, -224.05, -1154.36, -556.49, 0.000, 0.000, 0.000, 16:26:53.028, 1602451613028
6, -145.90, -254.01, -1186.69, -477.07, 0.000, 0.000, 0.000, 16:26:53.028, 1602451613028
7, -167.41, -256.57, -1210.42, -191.38, 0.000, 0.000, 0.000, 16:26:53.042, 1602451613042
8, -161.68, -241.57, -1164.20, -461.70, 0.000, 0.000, 0.000, 16:26:53.042, 1602451613042
9, -154.96, -223.02, -1153.40, -554.43, 0.000, 0.000, 0.000, 16:26:53.059, 1602451613059
10, -156.89, -234.63, -1203.50, -244.74, 0.000, 0.000, 0.000, 16:26:53.059, 1602451613059
11, -170.34, -255.86, -1230.13, -328.87, 0.000, 0.000, 0.000, 16:26:53.060, 1602451613060
12, -119.49, -175.76, -1093.43, -563.20, 0.000, 0.000, 0.000, 16:26:53.060, 1602451613060
13, -120.28, -178.19, -1096.53, -309.28, 0.000, 0.000, 0.000, 16:26:53.072, 1602451613072
14, -161.09, -217.96, -1161.08, -188.88, 0.000, 0.000, 0.000, 16:26:53.072, 1602451613072
15, -112.02, -187.16, -1140.49, -537.69, 0.000, 0.000, 0.000, 16:26:53.089, 1602451613089
16, -105.00, -144.62, -1119.98, -423.95, 0.000, 0.000, 0.000, 16:26:53.089, 1602451613089
17, -145.53, -163.56, -1134.55, -142.22, 0.000, 0.000, 0.000, 16:26:53.090, 1602451613090
18, -80.78, -105.78, -1046.62, -373.72, 0.000, 0.000, 0.000, 16:26:53.090, 1602451613090
19, -42.11, -87.52, -1028.21, -461.21, 0.000, 0.000, 0.000, 16:26:53.102, 1602451613102
20, -63.09, -110.54, -1069.28, -166.27, 0.000, 0.000, 0.000, 16:26:53.102, 1602451613102
21, -107.02, -151.44, -1134.68, -268.99, 0.000, 0.000, 0.000, 16:26:53.118, 1602451613118
22, -54.08, -100.44, -1095.15, -525.96, 0.000, 0.000, 0.000, 16:26:53.118, 1602451613118
23, -62.86, -110.84, -1052.10, -282.85, 0.000, 0.000, 0.000, 16:26:53.119, 1602451613119
24, -105.80, -122.41, -1097.20, -144.71, 0.000, 0.000, 0.000, 16:26:53.119, 1602451613119
25, -89.00, -117.58, -1069.66, -490.74, 0.000, 0.000, 0.000, 16:26:53.132, 1602451613132
26, -65.87, -118.71, -1039.28, -392.89, 0.000, 0.000, 0.000, 16:26:53.132, 1602451613132
27, -103.60, -146.50, -1136.37, -146.56, 0.000, 0.000, 0.000, 16:26:53.165, 1602451613165
28, -120.62, -165.89, -1114.53, -411.89, 0.000, 0.000, 0.000, 16:26:53.165, 1602451613165
29, -76.00, -121.03, -1079.18, -489.91, 0.000, 0.000, 0.000, 16:26:53.166, 1602451613166
30, -117.65, -142.96, -1160.59, -211.06, 0.000, 0.000, 0.000, 16:26:53.166, 1602451613166
31, -144.78, -180.39, -1155.05, -281.46, 0.000, 0.000, 0.000, 16:26:53.166, 1602451613166
32, -107.17, -163.51, -1093.95, -540.48, 0.000, 0.000, 0.000, 16:26:53.166, 1602451613166
33, -124.55, -185.46, -1075.17, -313.33, 0.000, 0.000, 0.000, 16:26:53.168, 1602451613168
34, -123.41, -163.94, -1133.28, -162.51, 0.000, 0.000, 0.000, 16:26:53.168, 1602451613168
35, -121.85, -170.63, -1116.62, -513.85, 0.000, 0.000, 0.000, 16:26:53.177, 1602451613177
36, -106.29, -158.82, -1105.17, -414.19, 0.000, 0.000, 0.000, 16:26:53.177, 1602451613177
37, -125.57, -192.47, -1166.58, -144.66, 0.000, 0.000, 0.000, 16:26:53.192, 1602451613192
38, -168.74, -226.05, -1177.87, -441.51, 0.000, 0.000, 0.000, 16:26:53.192, 1602451613192
39, -137.98, -197.68, -1169.72, -529.71, 0.000, 0.000, 0.000, 16:26:53.208, 1602451613208
40, -124.50, -211.18, -1148.08, -206.74, 0.000, 0.000, 0.000, 16:26:53.208, 1602451613208
41, -159.30, -244.03, -1178.21, -293.05, 0.000, 0.000, 0.000, 16:26:53.209, 1602451613209
42, -148.51, -222.39, -1160.95, -575.36, 0.000, 0.000, 0.000, 16:26:53.209, 1602451613209
43, -162.41, -246.10, -1170.28, -339.39, 0.000, 0.000, 0.000, 16:26:53.221, 1602451613221
44, -158.10, -231.77, -1208.28, -174.85, 0.000, 0.000, 0.000, 16:26:53.221, 1602451613221
45, -133.16, -218.49, -1132.70, -523.39, 0.000, 0.000, 0.000, 16:26:53.237, 1602451613237
46, -116.59, -213.31, -1176.40, -426.62, 0.000, 0.000, 0.000, 16:26:53.237, 1602451613237
47, -173.34, -255.68, -1206.95, -155.13, 0.000, 0.000, 0.000, 16:26:53.238, 1602451613238
48, -167.47, -248.12, -1176.08, -425.89, 0.000, 0.000, 0.000, 16:26:53.238, 1602451613238
49, -124.02, -226.42, -1135.33, -509.67, 0.000, 0.000, 0.000, 16:26:53.252, 1602451613252
50, -184.35, -261.95, -1245.10, -227.12, 0.000, 0.000, 0.000, 16:26:53.252, 1602451613252
51, -198.64, -269.29, -1223.75, -295.13, 0.000, 0.000, 0.000, 16:26:53.267, 1602451613267
52, -196.16, -290.94, -1177.44, -589.42, 0.000, 0.000, 0.000, 16:26:53.267, 1602451613267
53, -203.62, -312.27, -1235.78, -351.78, 0.000, 0.000, 0.000, 16:26:53.268, 1602451613268
54, -188.43, -299.68, -1245.09, -184.75, 0.000, 0.000, 0.000, 16:26:53.268, 1602451613268
55, -174.35, -250.35, -1198.76, -531.85, 0.000, 0.000, 0.000, 16:26:53.282, 1602451613282
56, -176.14, -240.65, -1189.60, -425.85, 0.000, 0.000, 0.000, 16:26:53.282, 1602451613282
57, -213.02, -309.85, -1263.59, -155.86, 0.000, 0.000, 0.000, 16:26:53.298, 1602451613298
58, -204.86, -313.79, -1215.53, -420.89, 0.000, 0.000, 0.000, 16:26:53.298, 1602451613298
59, -177.13, -256.22, -1193.69, -484.89, 0.000, 0.000, 0.000, 16:26:53.298, 1602451613298
60, -204.55, -306.49, -1260.77, -166.38, 0.000, 0.000, 0.000, 16:26:53.299, 1602451613299
61, -225.58, -327.16, -1261.04, -228.00, 0.000, 0.000, 0.000, 16:26:53.312, 1602451613312
62, -227.62, -299.74, -1222.35, -497.63, 0.000, 0.000, 0.000, 16:26:53.312, 1602451613312
63, -229.74, -323.70, -1260.61, -253.43, 0.000, 0.000, 0.000, 16:26:53.327, 1602451613327
64, -265.48, -370.16, -1303.66, -110.19, 0.000, 0.000, 0.000, 16:26:53.327, 1602451613327
65, -253.37, -322.18, -1261.03, -470.34, 0.000, 0.000, 0.000, 16:26:53.329, 1602451613329
66, -235.10, -328.08, -1248.54, -361.98, 0.000, 0.000, 0.000, 16:26:53.329, 1602451613329
67, -249.02, -345.03, -1286.58, -70.00, 0.000, 0.000, 0.000, 16:26:53.342, 1602451613342
68, -249.28, -360.75, -1292.99, -376.67, 0.000, 0.000, 0.000, 16:26:53.342, 1602451613342
69, -246.11, -345.70, -1279.63, -479.61, 0.000, 0.000, 0.000, 16:26:53.357, 1602451613357
70, -243.03, -347.99, -1291.32, -157.42, 0.000, 0.000, 0.000, 16:26:53.357, 1602451613357
71, -270.88, -379.07, -1347.39, -262.24, 0.000, 0.000, 0.000, 16:26:53.358, 1602451613358
72, -241.24, -347.80, -1277.42, -540.97, 0.000, 0.000, 0.000, 16:26:53.358, 1602451613358
73, -243.96, -337.46, -1228.68, -282.52, 0.000, 0.000, 0.000, 16:26:53.372, 1602451613372
74, -253.69, -339.58, -1265.92, -142.06, 0.000, 0.000, 0.000, 16:26:53.372, 1602451613372
75, -231.03, -305.84, -1258.64, -512.99, 0.000, 0.000, 0.000, 16:26:53.404, 1602451613404
76, -213.73, -325.29, -1288.21, -447.73, 0.000, 0.000, 0.000, 16:26:53.404, 1602451613404
77, -232.44, -338.32, -1249.43, -147.46, 0.000, 0.000, 0.000, 16:26:53.405, 1602451613405
78, -207.49, -328.34, -1225.76, -434.12, 0.000, 0.000, 0.000, 16:26:53.405, 1602451613405
79, -175.16, -269.62, -1209.12, -533.94, 0.000, 0.000, 0.000, 16:26:53.406, 1602451613406
80, -219.68, -307.18, -1237.19, -250.20, 0.000, 0.000, 0.000, 16:26:53.406, 1602451613406
81, -238.98, -321.67, -1280.38, -346.89, 0.000, 0.000, 0.000, 16:26:53.406, 1602451613406
82, -214.03, -307.13, -1252.31, -646.94, 0.000, 0.000, 0.000, 16:26:53.406, 1602451613406
83, -162.77, -256.24, -1163.93, -381.16, 0.000, 0.000, 0.000, 16:26:53.418, 1602451613418
84, -179.41, -286.61, -1233.68, -255.90, 0.000, 0.000, 0.000, 16:26:53.418, 1602451613418
85, -190.34, -288.31, -1207.39, -638.49, 0.000, 0.000, 0.000, 16:26:53.432, 1602451613432
86, -146.12, -252.72, -1190.01, -547.05, 0.000, 0.000, 0.000, 16:26:53.432, 1602451613432
87, -164.99, -268.35, -1189.81, -281.92, 0.000, 0.000, 0.000, 16:26:53.448, 1602451613448
88, -152.42, -259.47, -1188.88, -564.05, 0.000, 0.000, 0.000, 16:26:53.448, 1602451613448
89, -159.82, -289.57, -1213.71, -714.38, 0.000, 0.000, 0.000, 16:26:53.448, 1602451613448
90, -139.32, -235.48, -1162.97, -361.22, 0.000, 0.000, 0.000, 16:26:53.448, 1602451613448
91, -160.77, -237.04, -1189.72, -402.76, 0.000, 0.000, 0.000, 16:26:53.478, 1602451613478
92, -123.98, -199.17, -1131.56, -656.84, 0.000, 0.000, 0.000, 16:26:53.478, 1602451613478
93, -126.77, -240.03, -1153.88, -445.66, 0.000, 0.000, 0.000, 16:26:53.479, 1602451613479
94, -164.15, -255.52, -1197.27, -297.73, 0.000, 0.000, 0.000, 16:26:53.479, 1602451613479
95, -151.89, -239.44, -1162.64, -626.62, 0.000, 0.000, 0.000, 16:26:53.480, 1602451613480
96, -146.05, -247.01, -1171.53, -557.09, 0.000, 0.000, 0.000, 16:26:53.480, 1602451613480
97, -171.77, -282.17, -1246.00, -300.39, 0.000, 0.000, 0.000, 16:26:53.492, 1602451613492
98, -151.35, -254.07, -1171.63, -525.56, 0.000, 0.000, 0.000, 16:26:53.492, 1602451613492
99, -144.94, -246.29, -1161.07, -629.83, 0.000, 0.000, 0.000, 16:26:53.508, 1602451613508
100, -159.65, -260.06, -1203.82, -337.49, 0.000, 0.000, 0.000, 16:26:53.508, 1602451613508
101, -179.51, -261.48, -1211.09, -392.65, 0.000, 0.000, 0.000, 16:26:53.509, 1602451613509
102, -135.66, -225.64, -1162.62, -647.49, 0.000, 0.000, 0.000, 16:26:53.509, 1602451613509
103, -124.44, -231.55, -1149.22, -420.15, 0.000, 0.000, 0.000, 16:26:53.522, 1602451613522
104, -171.59, -287.85, -1238.09, -297.58, 0.000, 0.000, 0.000, 16:26:53.522, 1602451613522
105, -162.20, -263.46, -1170.13, -620.22, 0.000, 0.000, 0.000, 16:26:53.538, 1602451613538
106, -153.59, -229.49, -1173.70, -534.15, 0.000, 0.000, 0.000, 16:26:53.538, 1602451613538
107, -168.90, -274.26, -1215.12, -269.04, 0.000, 0.000, 0.000, 16:26:53.539, 1602451613539
108, -167.54, -280.65, -1225.96, -525.51, 0.000, 0.000, 0.000, 16:26:53.539, 1602451613539
109, -133.96, -230.99, -1161.38, -604.34, 0.000, 0.000, 0.000, 16:26:53.552, 1602451613552
110, -161.92, -261.48, -1191.00, -320.96, 0.000, 0.000, 0.000, 16:26:53.552, 1602451613552
111, -175.72, -298.82, -1268.28, -398.23, 0.000, 0.000, 0.000, 16:26:53.568, 1602451613568
112, -152.33, -249.89, -1193.70, -646.40, 0.000, 0.000, 0.000, 16:26:53.568, 1602451613568
113, -150.99, -242.73, -1140.03, -406.59, 0.000, 0.000, 0.000, 16:26:53.569, 1602451613569
114, -166.27, -250.40, -1185.13, -256.96, 0.000, 0.000, 0.000, 16:26:53.569, 1602451613569
115, -145.05, -250.78, -1203.49, -596.81, 0.000, 0.000, 0.000, 16:26:53.582, 1602451613582
116, -186.38, -273.85, -1239.41, -549.80, 0.000, 0.000, 0.000, 16:26:53.582, 1602451613582
117, -172.24, -261.07, -1175.11, -241.11, 0.000, 0.000, 0.000, 16:26:53.597, 1602451613597
118, -163.09, -262.23, -1179.74, -488.11, 0.000, 0.000, 0.000, 16:26:53.597, 1602451613597
119, -131.23, -259.69, -1204.96, -603.88, 0.000, 0.000, 0.000, 16:26:53.598, 1602451613598
120, -155.00, -256.10, -1216.38, -311.87, 0.000, 0.000, 0.000, 16:26:53.598, 1602451613598
121, -175.56, -265.59, -1179.42, -346.40, 0.000, 0.000, 0.000, 16:26:53.611, 1602451613611
122, -140.19, -231.99, -1160.64, -605.84, 0.000, 0.000, 0.000, 16:26:53.611, 1602451613611
123, -149.09, -247.57, -1186.62, -408.42, 0.000, 0.000, 0.000, 16:26:53.627, 1602451613627
124, -188.93, -278.55, -1220.09, -273.76, 0.000, 0.000, 0.000, 16:26:53.627, 1602451613627
125, -174.46, -271.92, -1227.42, -589.85, 0.000, 0.000, 0.000, 16:26:53.628, 1602451613628
126, -162.38, -266.71, -1184.05, -518.09, 0.000, 0.000, 0.000, 16:26:53.628, 1602451613628
127, -157.13, -282.79, -1200.12, -255.41, 0.000, 0.000, 0.000, 16:26:53.642, 1602451613642
128, -155.72, -256.13, -1184.46, -454.04, 0.000, 0.000, 0.000, 16:26:53.642, 1602451613642
129, -143.41, -251.58, -1245.07, -583.11, 0.000, 0.000, 0.000, 16:26:53.674, 1602451613674
130, -190.44, -269.37, -1237.56, -336.71, 0.000, 0.000, 0.000, 16:26:53.674, 1602451613674
131, -175.84, -269.56, -1148.97, -326.80, 0.000, 0.000, 0.000, 16:26:53.675, 1602451613675
132, -151.23, -248.37, -1170.99, -592.18, 0.000, 0.000, 0.000, 16:26:53.675, 1602451613675
133, -173.53, -271.12, -1219.02, -424.13, 0.000, 0.000, 0.000, 16:26:53.676, 1602451613676
134, -168.86, -297.48, -1235.81, -265.03, 0.000, 0.000, 0.000, 16:26:53.676, 1602451613676
135, -158.24, -280.46, -1226.03, -575.43, 0.000, 0.000, 0.000, 16:26:53.677, 1602451613677
136, -136.12, -233.22, -1127.46, -476.22, 0.000, 0.000, 0.000, 16:26:53.677, 1602451613677
137, -156.05, -251.44, -1179.32, -216.08, 0.000, 0.000, 0.000, 16:26:53.687, 1602451613687
138, -175.13, -295.01, -1237.72, -484.91, 0.000, 0.000, 0.000, 16:26:53.687, 1602451613687
139, -195.57, -275.59, -1244.49, -606.80, 0.000, 0.000, 0.000, 16:26:53.718, 1602451613718
140, -139.36, -249.62, -1196.09, -283.60, 0.000, 0.000, 0.000, 16:26:53.718, 1602451613718
141, -157.55, -256.21, -1154.89, -309.61, 0.000, 0.000, 0.000, 16:26:53.720, 1602451613720
142, -132.03, -240.14, -1152.61, -585.93, 0.000, 0.000, 0.000, 16:26:53.720, 1602451613720
143, -151.31, -269.77, -1236.50, -406.87, 0.000, 0.000, 0.000, 16:26:53.720, 1602451613720
144, -174.91, -295.25, -1222.84, -246.01, 0.000, 0.000, 0.000, 16:26:53.720, 1602451613720
145, -172.99, -283.93, -1218.85, -579.92, 0.000, 0.000, 0.000, 16:26:53.732, 1602451613732
146, -162.22, -235.23, -1160.45, -486.88, 0.000, 0.000, 0.000, 16:26:53.732, 1602451613732
0, -196.57, -285.82, -1244.56, -541.30, 0.000, 0.000, 0.000, 16:27:00.078, 1602451620078
1, -223.09, -312.86, -1249.50, -208.68, 0.000, 0.000, 0.000, 16:27:00.092, 1602451620092
2, -196.38, -298.62, -1210.17, -431.74, 0.000, 0.000, 0.000, 16:27:00.092, 1602451620092
3, -184.08, -285.69, -1275.53, -636.39, 0.000, 0.000, 0.000, 16:27:00.108, 1602451620108
4, -177.81, -297.68, -1240.88, -296.02, 0.000, 0.000, 0.000, 16:27:00.108, 1602451620108
5, -183.33, -305.11, -1255.69, -289.10, 0.000, 0.000, 0.000, 16:27:00.108, 1602451620108
6, -185.16, -271.04, -1182.69, -638.00, 0.000, 0.000, 0.000, 16:27:00.108, 1602451620108
7, -148.86, -233.29, -1199.53, -400.38, 0.000, 0.000, 0.000, 16:27:00.139, 1602451620139
8, -162.96, -272.83, -1227.52, -184.25, 0.000, 0.000, 0.000, 16:27:00.139, 1602451620139
9, -170.89, -281.25, -1223.19, -592.91, 0.000, 0.000, 0.000, 16:27:00.139, 1602451620139
10, -131.68, -259.12, -1234.25, -537.40, 0.000, 0.000, 0.000, 16:27:00.139, 1602451620139
11, -197.93, -309.72, -1253.72, -223.67, 0.000, 0.000, 0.000, 16:27:00.140, 1602451620140
12, -176.78, -277.27, -1231.67, -447.31, 0.000, 0.000, 0.000, 16:27:00.140, 1602451620140
13, -152.60, -254.24, -1189.85, -619.36, 0.000, 0.000, 0.000, 16:27:00.152, 1602451620152
14, -167.76, -269.80, -1203.81, -287.56, 0.000, 0.000, 0.000, 16:27:00.152, 1602451620152
15, -179.31, -304.30, -1262.86, -302.34, 0.000, 0.000, 0.000, 16:27:00.168, 1602451620168
16, -138.30, -255.52, -1211.71, -641.14, 0.000, 0.000, 0.000, 16:27:00.168, 1602451620168
17, -177.36, -270.20, -1224.62, -423.94, 0.000, 0.000, 0.000, 16:27:00.169, 1602451620169
18, -180.29, -280.17, -1251.17, -191.69, 0.000, 0.000, 0.000, 16:27:00.169, 1602451620169
19, -157.59, -250.62, -1184.28, -566.06, 0.000, 0.000, 0.000, 16:27:00.182, 1602451620182
20, -143.59, -267.68, -1200.49, -528.76, 0.000, 0.000, 0.000, 16:27:00.182, 1602451620182
21, -175.57, -296.30, -1234.86, -198.08, 0.000, 0.000, 0.000, 16:27:00.198, 1602451620198
22, -170.67, -294.27, -1255.43, -447.50, 0.000, 0.000, 0.000, 16:27:00.198, 1602451620198
23, -175.85, -270.83, -1229.05, -623.26, 0.000, 0.000, 0.000, 16:27:00.199, 1602451620199
24, -179.33, -284.76, -1213.34, -283.02, 0.000, 0.000, 0.000, 16:27:00.199, 1602451620199
25, -211.87, -311.51, -1276.51, -294.71, 0.000, 0.000, 0.000, 16:27:00.212, 1602451620212
26, -153.99, -266.97, -1218.41, -628.74, 0.000, 0.000, 0.000, 16:27:00.212, 1602451620212
27, -160.87, -277.30, -1251.72, -407.88, 0.000, 0.000, 0.000, 16:27:00.228, 1602451620228
28, -204.43, -320.35, -1267.37, -197.34, 0.000, 0.000, 0.000, 16:27:00.228, 1602451620228
29, -155.81, -255.90, -1192.39, -550.06, 0.000, 0.000, 0.000, 16:27:00.229, 1602451620229
30, -161.23, -268.01, -1209.75, -522.34, 0.000, 0.000, 0.000, 16:27:00.229, 1602451620229
31, -167.50, -290.86, -1243.15, -178.36, 0.000, 0.000, 0.000, 16:27:00.242, 1602451620242
32, -168.71, -289.03, -1249.13, -429.74, 0.000, 0.000, 0.000, 16:27:00.242, 1602451620242
33, -189.83, -300.29, -1318.50, -648.90, 0.000, 0.000, 0.000, 16:27:00.258, 1602451620258
34, -212.14, -304.18, -1241.56, -296.38, 0.000, 0.000, 0.000, 16:27:00.258, 1602451620258
35, -192.58, -287.09, -1219.32, -268.56, 0.000, 0.000, 0.000, 16:27:00.259, 1602451620259
36, -152.37, -244.55, -1189.82, -623.00, 0.000, 0.000, 0.000, 16:27:00.259, 1602451620259
37, -156.59, -284.45, -1253.45, -422.57, 0.000, 0.000, 0.000, 16:27:00.272, 1602451620272
38, -202.84, -313.57, -1273.10, -204.66, 0.000, 0.000, 0.000, 16:27:00.272, 1602451620272
39, -180.43, -284.68, -1197.59, -579.43, 0.000, 0.000, 0.000, 16:27:00.288, 1602451620288
40, -141.20, -244.18, -1192.05, -523.31, 0.000, 0.000, 0.000, 16:27:00.288, 1602451620288
41, -173.88, -302.32, -1246.60, -203.13, 0.000, 0.000, 0.000, 16:27:00.289, 1602451620289
42, -184.88, -298.61, -1276.59, -459.75, 0.000, 0.000, 0.000, 16:27:00.289, 1602451620289
43, -154.45, -268.32, -1254.16, -638.80, 0.000, 0.000, 0.000, 16:27:00.302, 1602451620302
44, -157.05, -258.73, -1193.22, -276.54, 0.000, 0.000, 0.000, 16:27:00.302, 1602451620302
45, -176.18, -289.03, -1212.78, -275.17, 0.000, 0.000, 0.000, 16:27:00.335, 1602451620335
46, -142.85, -247.12, -1210.65, -636.47, 0.000, 0.000, 0.000, 16:27:00.335, 1602451620335
47, -167.26, -288.42, -1251.09, -428.34, 0.000, 0.000, 0.000, 16:27:00.335, 1602451620335
48, -190.63, -298.47, -1220.02, -192.19, 0.000, 0.000, 0.000, 16:27:00.335, 1602451620335
49, -193.13, -285.34, -1238.85, -592.60, 0.000, 0.000, 0.000, 16:27:00.335, 1602451620335
50, -140.38, -271.01, -1257.47, -548.13, 0.000, 0.000, 0.000, 16:27:00.335, 1602451620335
51, -149.40, -295.01, -1210.59, -187.93, 0.000, 0.000, 0.000, 16:27:00.336, 1602451620336
52, -133.54, -253.41, -1214.89, -418.61, 0.000, 0.000, 0.000, 16:27:00.336, 1602451620336
53, -126.09, -237.68, -1174.32, -601.00, 0.000, 0.000, 0.000, 16:27:00.347, 1602451620347
54, -188.29, -284.91, -1227.49, -294.31, 0.000, 0.000, 0.000, 16:27:00.347, 1602451620347
55, -211.75, -288.18, -1236.26, -287.83, 0.000, 0.000, 0.000, 16:27:00.362, 1602451620362
56, -177.36, -291.30, -1237.06, -657.81, 0.000, 0.000, 0.000, 16:27:00.362, 1602451620362
57, -124.29, -263.83, -1231.18, -409.11, 0.000, 0.000, 0.000, 16:27:00.377, 1602451620377
58, -157.02, -296.27, -1234.52, -176.51, 0.000, 0.000, 0.000, 16:27:00.377, 1602451620377
59, -173.69, -305.96, -1255.57, -589.87, 0.000, 0.000, 0.000, 16:27:00.378, 1602451620378
60, -140.64, -263.62, -1205.76, -523.41, 0.000, 0.000, 0.000, 16:27:00.378, 1602451620378
61, -178.39, -317.89, -1266.88, -205.34, 0.000, 0.000, 0.000, 16:27:00.392, 1602451620392
62, -199.82, -299.00, -1253.00, -442.38, 0.000, 0.000, 0.000, 16:27:00.392, 1602451620392
63, -151.37, -256.98, -1218.12, -618.12, 0.000, 0.000, 0.000, 16:27:00.408, 1602451620408
64, -183.14, -307.78, -1231.13, -296.66, 0.000, 0.000, 0.000, 16:27:00.408, 1602451620408
65, -189.44, -309.88, -1254.47, -288.41, 0.000, 0.000, 0.000, 16:27:00.408, 1602451620408
66, -153.26, -273.36, -1226.52, -639.87, 0.000, 0.000, 0.000, 16:27:00.408, 1602451620408
67, -146.06, -275.93, -1225.69, -411.43, 0.000, 0.000, 0.000, 16:27:00.422, 1602451620422
68, -184.57, -327.06, -1286.86, -209.15, 0.000, 0.000, 0.000, 16:27:00.422, 1602451620422
69, -160.50, -274.53, -1212.07, -570.66, 0.000, 0.000, 0.000, 16:27:00.437, 1602451620437
70, -135.40, -259.72, -1219.31, -526.10, 0.000, 0.000, 0.000, 16:27:00.437, 1602451620437
71, -161.91, -303.51, -1251.48, -196.52, 0.000, 0.000, 0.000, 16:27:00.438, 1602451620438
72, -200.78, -316.94, -1263.47, -453.59, 0.000, 0.000, 0.000, 16:27:00.438, 1602451620438
73, -157.73, -278.99, -1233.04, -634.71, 0.000, 0.000, 0.000, 16:27:00.452, 1602451620452
74, -131.97, -278.18, -1200.69, -267.88, 0.000, 0.000, 0.000, 16:27:00.452, 1602451620452
75, -169.29, -308.40, -1251.10, -275.56, 0.000, 0.000, 0.000, 16:27:00.468, 1602451620468
76, -109.15, -237.16, -1186.26, -613.64, 0.000, 0.000, 0.000, 16:27:00.468, 1602451620468
77, -106.67, -245.86, -1207.39, -390.98, 0.000, 0.000, 0.000, 16:27:00.469, 1602451620469
78, -150.25, -278.52, -1253.12, -176.31, 0.000, 0.000, 0.000, 16:27:00.469, 1602451620469
79, -133.58, -247.75, -1208.31, -558.30, 0.000, 0.000, 0.000, 16:27:00.483, 1602451620483
80, -114.90, -249.34, -1216.79, -520.31, 0.000, 0.000, 0.000, 16:27:00.483, 1602451620483
81, -140.02, -277.81, -1208.52, -174.67, 0.000, 0.000, 0.000, 16:27:00.498, 1602451620498
82, -149.58, -271.92, -1237.01, -422.60, 0.000, 0.000, 0.000, 16:27:00.498, 1602451620498
83, -105.34, -217.82, -1161.59, -583.94, 0.000, 0.000, 0.000, 16:27:00.499, 1602451620499
84, -144.51, -263.61, -1222.58, -278.24, 0.000, 0.000, 0.000, 16:27:00.499, 1602451620499
85, -159.95, -295.41, -1230.65, -268.41, 0.000, 0.000, 0.000, 16:27:00.512, 1602451620512
86, -150.73, -271.94, -1236.15, -637.73, 0.000, 0.000, 0.000, 16:27:00.512, 1602451620512
87, -117.25, -243.52, -1212.29, -392.63, 0.000, 0.000, 0.000, 16:27:00.528, 1602451620528
88, -154.73, -291.88, -1255.79, -178.30, 0.000, 0.000, 0.000, 16:27:00.528, 1602451620528
89, -131.50, -247.45, -1197.67, -544.58, 0.000, 0.000, 0.000, 16:27:00.528, 1602451620528
90, -121.86, -234.59, -1155.22, -500.61, 0.000, 0.000, 0.000, 16:27:00.528, 1602451620528
91, -194.76, -310.70, -1248.17, -204.91, 0.000, 0.000, 0.000, 16:27:00.542, 1602451620542
92, -155.59, -282.92, -1229.74, -426.13, 0.000, 0.000, 0.000, 16:27:00.542, 1602451620542
93, -101.34, -224.24, -1179.37, -584.16, 0.000, 0.000, 0.000, 16:27:00.558, 1602451620558
94, -137.65, -268.28, -1234.63, -282.67, 0.000, 0.000, 0.000, 16:27:00.558, 1602451620558
95, -186.89, -312.88, -1258.00, -289.77, 0.000, 0.000, 0.000, 16:27:00.558, 1602451620558
96, -125.02, -242.03, -1184.22, -603.89, 0.000, 0.000, 0.000, 16:27:00.558, 1602451620558
97, -149.25, -251.08, -1201.42, -408.28, 0.000, 0.000, 0.000, 16:27:00.572, 1602451620572
98, -161.45, -288.60, -1238.77, -187.23, 0.000, 0.000, 0.000, 16:27:00.572, 1602451620572
99, -154.75, -263.91, -1197.07, -550.63, 0.000, 0.000, 0.000, 16:27:00.588, 1602451620588
100, -135.64, -260.96, -1221.66, -522.77, 0.000, 0.000, 0.000, 16:27:00.588, 1602451620588
101, -168.65, -298.40, -1251.05, -216.83, 0.000, 0.000, 0.000, 16:27:00.588, 1602451620588
102, -152.77, -273.27, -1235.22, -410.76, 0.000, 0.000, 0.000, 16:27:00.588, 1602451620588
103, -143.82, -255.28, -1201.35, -596.37, 0.000, 0.000, 0.000, 16:27:00.602, 1602451620602
104, -144.93, -261.59, -1203.29, -298.19, 0.000, 0.000, 0.000, 16:27:00.602, 1602451620602
105, -182.91, -299.62, -1210.20, -286.86, 0.000, 0.000, 0.000, 16:27:00.618, 1602451620618
106, -148.96, -264.98, -1219.67, -600.80, 0.000, 0.000, 0.000, 16:27:00.618, 1602451620618
107, -149.25, -285.68, -1225.56, -431.83, 0.000, 0.000, 0.000, 16:27:00.619, 1602451620619
108, -175.92, -282.32, -1242.10, -216.55, 0.000, 0.000, 0.000, 16:27:00.619, 1602451620619
109, -162.16, -267.68, -1214.39, -535.82, 0.000, 0.000, 0.000, 16:27:00.632, 1602451620632
110, -137.26, -261.02, -1217.08, -525.36, 0.000, 0.000, 0.000, 16:27:00.632, 1602451620632
111, -169.73, -300.29, -1243.81, -245.08, 0.000, 0.000, 0.000, 16:27:00.649, 1602451620649
112, -153.56, -284.46, -1219.32, -406.68, 0.000, 0.000, 0.000, 16:27:00.649, 1602451620649
113, -128.54, -245.47, -1196.36, -574.82, 0.000, 0.000, 0.000, 16:27:00.663, 1602451620663
114, -153.62, -275.49, -1208.91, -314.33, 0.000, 0.000, 0.000, 16:27:00.663, 1602451620663
115, -166.06, -280.30, -1217.34, -282.72, 0.000, 0.000, 0.000, 16:27:00.664, 1602451620664
116, -133.56, -232.86, -1200.54, -580.97, 0.000, 0.000, 0.000, 16:27:00.664, 1602451620664
117, -157.61, -268.72, -1226.17, -430.70, 0.000, 0.000, 0.000, 16:27:00.695, 1602451620695
118, -154.51, -280.58, -1227.53, -211.29, 0.000, 0.000, 0.000, 16:27:00.695, 1602451620695
119, -143.53, -256.80, -1194.49, -520.97, 0.000, 0.000, 0.000, 16:27:00.696, 1602451620696
120, -153.81, -259.06, -1183.86, -520.55, 0.000, 0.000, 0.000, 16:27:00.696, 1602451620696
121, -156.04, -281.53, -1261.89, -232.46, 0.000, 0.000, 0.000, 16:27:00.696, 1602451620696
122, -142.00, -262.35, -1187.34, -391.10, 0.000, 0.000, 0.000, 16:27:00.696, 1602451620696
123, -141.90, -259.49, -1186.72, -583.75, 0.000, 0.000, 0.000, 16:27:00.697, 1602451620697
124, -147.34, -280.15, -1228.89, -318.69, 0.000, 0.000, 0.000, 16:27:00.697, 1602451620697
125, -173.55, -287.21, -1240.99, -283.53, 0.000, 0.000, 0.000, 16:27:00.707, 1602451620707
126, -134.56, -242.73, -1189.71, -582.22, 0.000, 0.000, 0.000, 16:27:00.707, 1602451620707
127, -135.34, -261.68, -1199.38, -416.30, 0.000, 0.000, 0.000, 16:27:00.722, 1602451620722
128, -164.09, -286.21, -1251.20, -216.68, 0.000, 0.000, 0.000, 16:27:00.722, 1602451620722
129, -153.95, -276.27, -1214.62, -533.15, 0.000, 0.000, 0.000, 16:27:00.738, 1602451620738
130, -125.76, -237.81, -1156.44, -497.73, 0.000, 0.000, 0.000, 16:27:00.738, 1602451620738
131, -157.94, -296.22, -1239.59, -233.98, 0.000, 0.000, 0.000, 16:27:00.738, 1602451620738
132, -152.80, -272.14, -1235.35, -406.66, 0.000, 0.000, 0.000, 16:27:00.738, 1602451620738
133, -135.92, -246.46, -1209.47, -588.59, 0.000, 0.000, 0.000, 16:27:00.751, 1602451620751
134, -136.65, -265.72, -1209.86, -302.84, 0.000, 0.000, 0.000, 16:27:00.751, 1602451620751
135, -173.47, -287.75, -1213.07, -274.45, 0.000, 0.000, 0.000, 16:27:00.768, 1602451620768
136, -137.78, -254.36, -1206.53, -595.05, 0.000, 0.000, 0.000, 16:27:00.768, 1602451620768
137, -114.79, -240.22, -1204.13, -409.40, 0.000, 0.000, 0.000, 16:27:00.768, 1602451620768
138, -153.32, -273.57, -1233.09, -206.50, 0.000, 0.000, 0.000, 16:27:00.768, 1602451620768
139, -159.28, -263.56, -1204.60, -529.87, 0.000, 0.000, 0.000, 16:27:00.782, 1602451620782
140, -150.96, -262.84, -1210.73, -521.70, 0.000, 0.000, 0.000, 16:27:00.782, 1602451620782
141, -161.60, -299.04, -1233.60, -226.62, 0.000, 0.000, 0.000, 16:27:00.798, 1602451620798
142, -161.43, -278.53, -1214.67, -397.87, 0.000, 0.000, 0.000, 16:27:00.798, 1602451620798
143, -141.20, -255.49, -1211.03, -587.03, 0.000, 0.000, 0.000, 16:27:00.798, 1602451620798
144, -121.53, -251.06, -1194.61, -296.78, 0.000, 0.000, 0.000, 16:27:00.798, 1602451620798
145, -170.41, -286.32, -1233.09, -269.13, 0.000, 0.000, 0.000, 16:27:00.812, 1602451620812
146, -132.84, -251.53, -1211.94, -585.00, 0.000, 0.000, 0.000, 16:27:00.812, 1602451620812
147, -141.90, -266.60, -1254.25, -436.89, 0.000, 0.000, 0.000, 16:27:00.828, 1602451620828
148, -158.58, -285.35, -1217.76, -204.08, 0.000, 0.000, 0.000, 16:27:00.828, 1602451620828
149, -158.12, -267.79, -1214.64, -523.55, 0.000, 0.000, 0.000, 16:27:00.829, 1602451620829
150, -141.91, -253.70, -1179.60, -513.10, 0.000, 0.000, 0.000, 16:27:00.829, 1602451620829
151, -149.11, -269.16, -1195.95, -223.09, 0.000, 0.000, 0.000, 16:27:00.842, 1602451620842
152, -155.35, -262.75, -1197.28, -383.95, 0.000, 0.000, 0.000, 16:27:00.842, 1602451620842
153, -139.19, -248.28, -1201.21, -583.18, 0.000, 0.000, 0.000, 16:27:00.858, 1602451620858
154, -158.77, -281.88, -1247.75, -327.61, 0.000, 0.000, 0.000, 16:27:00.858, 1602451620858
155, -147.15, -271.81, -1252.98, -270.07, 0.000, 0.000, 0.000, 16:27:00.859, 1602451620859
156, -132.77, -257.90, -1180.22, -578.27, 0.000, 0.000, 0.000, 16:27:00.859, 1602451620859
157, -127.45, -256.43, -1171.66, -412.12, 0.000, 0.000, 0.000, 16:27:00.872, 1602451620872
158, -153.58, -273.99, -1209.48, -200.07, 0.000, 0.000, 0.000, 16:27:00.872, 1602451620872
159, -145.23, -266.48, -1203.81, -522.50, 0.000, 0.000, 0.000, 16:27:00.888, 1602451620888
160, -138.67, -245.14, -1180.52, -510.30, 0.000, 0.000, 0.000, 16:27:00.888, 1602451620888
161, -178.59, -285.65, -1236.23, -235.04, 0.000, 0.000, 0.000, 16:27:00.889, 1602451620889
162, -169.91, -290.29, -1296.38, -425.34, 0.000, 0.000, 0.000, 16:27:00.889, 1602451620889
163, -126.39, -234.45, -1156.40, -567.23, 0.000, 0.000, 0.000, 16:27:00.902, 1602451620902
164, -127.34, -250.54, -1183.01, -292.07, 0.000, 0.000, 0.000, 16:27:00.902, 1602451620902
165, -144.68, -261.24, -1200.96, -256.33, 0.000, 0.000, 0.000, 16:27:00.918, 1602451620918
166, -139.31, -270.04, -1220.79, -602.56, 0.000, 0.000, 0.000, 16:27:00.918, 1602451620918
167, -150.10, -272.71, -1216.07, -426.00, 0.000, 0.000, 0.000, 16:27:00.919, 1602451620919
168, -134.93, -264.29, -1216.06, -190.36, 0.000, 0.000, 0.000, 16:27:00.919, 1602451620919
169, -123.00, -245.03, -1189.45, -514.32, 0.000, 0.000, 0.000, 16:27:00.932, 1602451620932
170, -119.50, -245.05, -1203.25, -514.04, 0.000, 0.000, 0.000, 16:27:00.932, 1602451620932
171, -151.99, -282.25, -1208.18, -216.50, 0.000, 0.000, 0.000, 16:27:00.948, 1602451620948
172, -166.90, -281.17, -1222.28, -407.90, 0.000, 0.000, 0.000, 16:27:00.948, 1602451620948
173, -125.25, -237.58, -1216.07, -588.04, 0.000, 0.000, 0.000, 16:27:00.949, 1602451620949
174, -126.65, -266.73, -1194.96, -294.11, 0.000, 0.000, 0.000, 16:27:00.949, 1602451620949
175, -157.76, -280.09, -1228.94, -270.75, 0.000, 0.000, 0.000, 16:27:00.963, 1602451620963
176, -160.56, -267.78, -1233.44, -611.59, 0.000, 0.000, 0.000, 16:27:00.963, 1602451620963
177, -144.54, -259.95, -1210.78, -422.48, 0.000, 0.000, 0.000, 16:27:00.993, 1602451620993
178, -161.24, -280.69, -1213.83, -199.16, 0.000, 0.000, 0.000, 16:27:00.993, 1602451620993
179, -143.99, -265.95, -1192.84, -526.84, 0.000, 0.000, 0.000, 16:27:01.009, 1602451621009
180, -112.47, -255.68, -1197.69, -513.88, 0.000, 0.000, 0.000, 16:27:01.009, 1602451621009
181, -145.74, -285.07, -1223.07, -218.67, 0.000, 0.000, 0.000, 16:27:01.010, 1602451621010
182, -157.67, -277.52, -1232.30, -406.40, 0.000, 0.000, 0.000, 16:27:01.010, 1602451621010
183, -108.01, -232.17, -1217.05, -580.56, 0.000, 0.000, 0.000, 16:27:01.011, 1602451621011
184, -147.52, -269.89, -1227.12, -313.10, 0.000, 0.000, 0.000, 16:27:01.011, 1602451621011
185, -164.03, -283.50, -1205.89, -262.19, 0.000, 0.000, 0.000, 16:27:01.012, 1602451621012
186, -140.35, -258.68, -1186.93, -587.13, 0.000, 0.000, 0.000, 16:27:01.012, 1602451621012
187, -149.56, -258.34, -1190.64, -419.20, 0.000, 0.000, 0.000, 16:27:01.023, 1602451621023
188, -161.70, -292.45, -1246.64, -210.95, 0.000, 0.000, 0.000, 16:27:01.023, 1602451621023
189, -153.26, -260.37, -1227.97, -534.12, 0.000, 0.000, 0.000, 16:27:01.038, 1602451621038
190, -141.62, -257.26, -1199.65, -523.34, 0.000, 0.000, 0.000, 16:27:01.038, 1602451621038
191, -151.77, -286.68, -1231.02, -227.44, 0.000, 0.000, 0.000, 16:27:01.039, 1602451621039
192, -153.46, -272.50, -1194.16, -391.16, 0.000, 0.000, 0.000, 16:27:01.039, 1602451621039
193, -125.35, -239.46, -1178.03, -575.72, 0.000, 0.000, 0.000, 16:27:01.053, 1602451621053
194, -128.51, -245.01, -1188.65, -294.20, 0.000, 0.000, 0.000, 16:27:01.053, 1602451621053
195, -145.73, -281.15, -1235.74, -265.64, 0.000, 0.000, 0.000, 16:27:01.068, 1602451621068
196, -137.33, -245.45, -1209.44, -588.76, 0.000, 0.000, 0.000, 16:27:01.068, 1602451621068
197, -140.06, -270.64, -1210.16, -424.68, 0.000, 0.000, 0.000, 16:27:01.069, 1602451621069
198, -157.17, -280.63, -1209.88, -196.82, 0.000, 0.000, 0.000, 16:27:01.069, 1602451621069
199, -150.79, -266.27, -1209.05, -530.80, 0.000, 0.000, 0.000, 16:27:01.083, 1602451621083
200, -130.07, -242.72, -1202.66, -516.52, 0.000, 0.000, 0.000, 16:27:01.083, 1602451621083
0, -142.05, -248.04, -1209.27, -204.90, 0.000, 0.000, 0.000, 16:27:01.083, 1602451621083
1, -153.13, -289.98, -1222.01, -405.06, 0.000, 0.000, 0.000, 16:27:01.097, 1602451621097
2, -147.00, -245.91, -1191.35, -592.38, 0.000, 0.000, 0.000, 16:27:01.097, 1602451621097
3, -142.05, -270.17, -1227.38, -311.21, 0.000, 0.000, 0.000, 16:27:01.112, 1602451621112
4, -150.68, -267.65, -1195.87, -256.95, 0.000, 0.000, 0.000, 16:27:01.112, 1602451621112
5, -128.94, -235.65, -1166.70, -574.60, 0.000, 0.000, 0.000, 16:27:01.113, 1602451621113
6, -138.22, -254.30, -1194.90, -418.95, 0.000, 0.000, 0.000, 16:27:01.113, 1602451621113
7, -164.26, -283.56, -1236.88, -208.81, 0.000, 0.000, 0.000, 16:27:01.127, 1602451621127
8, -139.19, -269.21, -1243.17, -532.51, 0.000, 0.000, 0.000, 16:27:01.127, 1602451621127
9, -105.26, -242.42, -1173.05, -501.46, 0.000, 0.000, 0.000, 16:27:01.142, 1602451621142
10, -140.31, -275.57, -1212.79, -212.85, 0.000, 0.000, 0.000, 16:27:01.142, 1602451621142
11, -132.11, -249.65, -1204.20, -383.42, 0.000, 0.000, 0.000, 16:27:01.143, 1602451621143
12, -133.75, -254.31, -1204.72, -584.95, 0.000, 0.000, 0.000, 16:27:01.143, 1602451621143
13, -145.24, -266.55, -1229.18, -308.67, 0.000, 0.000, 0.000, 16:27:01.157, 1602451621157
14, -173.56, -289.39, -1241.64, -275.15, 0.000, 0.000, 0.000, 16:27:01.157, 1602451621157
15, -143.20, -248.11, -1193.82, -591.91, 0.000, 0.000, 0.000, 16:27:01.173, 1602451621173
16, -136.92, -246.40, -1178.82, -407.80, 0.000, 0.000, 0.000, 16:27:01.173, 1602451621173
17, -136.75, -253.06, -1211.92, -184.42, 0.000, 0.000, 0.000, 16:27:01.173, 1602451621173
18, -131.52, -246.86, -1191.63, -518.91, 0.000, 0.000, 0.000, 16:27:01.173, 1602451621173
19, -134.45, -243.85, -1182.55, -513.25, 0.000, 0.000, 0.000, 16:27:01.187, 1602451621187
20, -153.89, -275.23, -1214.40, -207.06, 0.000, 0.000, 0.000, 16:27:01.187, 1602451621187
21, -156.39, -272.94, -1219.23, -402.45, 0.000, 0.000, 0.000, 16:27:01.203, 1602451621203
22, -140.59, -239.81, -1199.89, -592.42, 0.000, 0.000, 0.000, 16:27:01.203, 1602451621203
23, -127.61, -236.33, -1170.15, -281.79, 0.000, 0.000, 0.000, 16:27:01.204, 1602451621204
24, -158.93, -282.73, -1219.45, -260.76, 0.000, 0.000, 0.000, 16:27:01.204, 1602451621204
25, -125.41, -236.37, -1186.43, -589.35, 0.000, 0.000, 0.000, 16:27:01.218, 1602451621218
26, -143.86, -243.99, -1212.54, -416.76, 0.000, 0.000, 0.000, 16:27:01.218, 1602451621218
27, -148.86, -276.31, -1223.82, -186.34, 0.000, 0.000, 0.000, 16:27:01.249, 1602451621249
28, -143.20, -261.27, -1204.37, -531.12, 0.000, 0.000, 0.000, 16:27:01.249, 1602451621249
29, -122.05, -231.57, -1186.11, -511.07, 0.000, 0.000, 0.000, 16:27:01.250, 1602451621250
30, -155.21, -274.09, -1211.48, -207.77, 0.000, 0.000, 0.000, 16:27:01.250, 1602451621250
31, -172.09, -267.94, -1209.86, -401.98, 0.000, 0.000, 0.000, 16:27:01.251, 1602451621251
32, -151.91, -241.50, -1184.55, -595.64, 0.000, 0.000, 0.000, 16:27:01.251, 1602451621251
33, -135.10, -254.78, -1196.53, -294.59, 0.000, 0.000, 0.000, 16:27:01.251, 1602451621251
34, -129.96, -257.50, -1195.40, -239.93, 0.000, 0.000, 0.000, 16:27:01.251, 1602451621251
35, -123.53, -239.14, -1187.01, -584.76, 0.000, 0.000, 0.000, 16:27:01.262, 1602451621262
36, -111.80, -244.46, -1188.91, -405.78, 0.000, 0.000, 0.000, 16:27:01.262, 1602451621262
37, -173.15, -288.95, -1217.78, -202.90, 0.000, 0.000, 0.000, 16:27:01.277, 1602451621277
38, -153.22, -254.16, -1196.13, -525.08, 0.000, 0.000, 0.000, 16:27:01.277, 1602451621277
39, -120.84, -225.07, -1200.76, -508.10, 0.000, 0.000, 0.000, 16:27:01.293, 1602451621293
40, -135.61, -259.72, -1176.98, -191.63, 0.000, 0.000, 0.000, 16:27:01.293, 1602451621293
41, -149.41, -263.20, -1177.84, -383.45, 0.000, 0.000, 0.000, 16:27:01.294, 1602451621294
42, -136.19, -254.04, -1180.67, -586.65, 0.000, 0.000, 0.000, 16:27:01.294, 1602451621294
43, -149.84, -264.68, -1193.49, -297.46, 0.000, 0.000, 0.000, 16:27:01.307, 1602451621307
44, -156.82, -265.54, -1211.05, -250.11, 0.000, 0.000, 0.000, 16:27:01.307, 1602451621307
45, -116.62, -240.99, -1196.53, -587.84, 0.000, 0.000, 0.000, 16:27:01.323, 1602451621323
46, -128.62, -256.23, -1220.13, -419.39, 0.000, 0.000, 0.000, 16:27:01.323, 1602451621323
47, -177.54, -321.81, -1288.24, -224.91, 0.000, 0.000, 0.000, 16:27:01.324, 1602451621324
48, -162.50, -263.98, -1182.14, -524.76, 0.000, 0.000, 0.000, 16:27:01.324, 1602451621324
49, -147.83, -243.72, -1155.10, -513.68, 0.000, 0.000, 0.000, 16:27:01.337, 1602451621337
50, -158.16, -282.02, -1224.55, -213.52, 0.000, 0.000, 0.000, 16:27:01.337, 1602451621337
51, -158.73, -277.22, -1243.22, -404.99, 0.000, 0.000, 0.000, 16:27:01.355, 1602451621355
52, -141.59, -237.82, -1193.17, -590.46, 0.000, 0.000, 0.000, 16:27:01.355, 1602451621355
53, -131.18, -248.15, -1195.15, -292.48, 0.000, 0.000, 0.000, 16:27:01.355, 1602451621355
54, -147.98, -275.43, -1226.20, -261.91, 0.000, 0.000, 0.000, 16:27:01.355, 1602451621355
55, -130.67, -228.98, -1134.88, -572.91, 0.000, 0.000, 0.000, 16:27:01.367, 1602451621367
56, -162.81, -259.16, -1194.54, -422.85, 0.000, 0.000, 0.000, 16:27:01.367, 1602451621367
57, -159.20, -274.60, -1206.21, -191.25, 0.000, 0.000, 0.000, 16:27:01.383, 1602451621383
58, -140.59, -254.45, -1179.26, -520.49, 0.000, 0.000, 0.000, 16:27:01.383, 1602451621383
59, -109.77, -224.39, -1157.53, -498.99, 0.000, 0.000, 0.000, 16:27:01.384, 1602451621384
60, -140.95, -267.98, -1201.71, -206.40, 0.000, 0.000, 0.000, 16:27:01.384, 1602451621384
61, -136.40, -249.57, -1186.38, -384.10, 0.000, 0.000, 0.000, 16:27:01.397, 1602451621397
62, -128.87, -237.48, -1177.12, -576.91, 0.000, 0.000, 0.000, 16:27:01.397, 1602451621397
63, -122.64, -238.79, -1192.93, -287.50, 0.000, 0.000, 0.000, 16:27:01.413, 1602451621413
64, -165.54, -282.75, -1259.20, -272.16, 0.000, 0.000, 0.000, 16:27:01.413, 1602451621413
65, -136.20, -261.50, -1206.35, -598.20, 0.000, 0.000, 0.000, 16:27:01.414, 1602451621414
66, -146.05, -261.28, -1209.44, -424.87, 0.000, 0.000, 0.000, 16:27:01.414, 1602451621414
67, -152.59, -269.39, -1181.50, -180.41, 0.000, 0.000, 0.000, 16:27:01.427, 1602451621427
68, -125.39, -242.78, -1172.74, -508.77, 0.000, 0.000, 0.000, 16:27:01.427, 1602451621427
69, -149.88, -242.73, -1177.86, -519.57, 0.000, 0.000, 0.000, 16:27:01.443, 1602451621443
70, -175.82, -287.28, -1264.52, -238.14, 0.000, 0.000, 0.000, 16:27:01.443, 1602451621443
71, -138.75, -266.42, -1195.59, -391.31, 0.000, 0.000, 0.000, 16:27:01.444, 1602451621444
72, -109.16, -225.80, -1156.67, -567.30, 0.000, 0.000, 0.000, 16:27:01.444, 1602451621444
73, -136.57, -256.28, -1184.83, -292.44, 0.000, 0.000, 0.000, 16:27:01.456, 1602451621456
74, -170.97, -285.59, -1211.85, -262.46, 0.000, 0.000, 0.000, 16:27:01.456, 1602451621456
75, -134.94, -242.23, -1195.70, -590.02, 0.000, 0.000, 0.000, 16:27:01.489, 1602451621489
76, -125.86, -247.05, -1183.39, -411.40, 0.000, 0.000, 0.000, 16:27:01.489, 1602451621489
77, -138.15, -266.10, -1202.19, -185.19, 0.000, 0.000, 0.000, 16:27:01.490, 1602451621490
78, -132.28, -246.09, -1201.74, -519.83, 0.000, 0.000, 0.000, 16:27:01.490, 1602451621490
79, -119.91, -236.23, -1193.82, -516.29, 0.000, 0.000, 0.000, 16:27:01.491, 1602451621491
80, -159.90, -265.96, -1217.66, -210.83, 0.000, 0.000, 0.000, 16:27:01.491, 1602451621491
81, -164.14, -278.67, -1202.75, -392.29, 0.000, 0.000, 0.000, 16:27:01.491, 1602451621491
82, -110.83, -223.10, -1134.25, -564.11, 0.000, 0.000, 0.000, 16:27:01.491, 1602451621491
83, -140.18, -269.70, -1219.66, -307.32, 0.000, 0.000, 0.000, 16:27:01.502, 1602451621502
84, -138.57, -263.16, -1217.65, -248.84, 0.000, 0.000, 0.000, 16:27:01.502, 1602451621502
85, -119.13, -223.03, -1154.52, -571.52, 0.000, 0.000, 0.000, 16:27:01.517, 1602451621517
86, -120.74, -238.58, -1169.47, -400.41, 0.000, 0.000, 0.000, 16:27:01.517, 1602451621517
87, -138.95, -265.23, -1188.07, -175.32, 0.000, 0.000, 0.000, 16:27:01.532, 1602451621532
88, -136.79, -256.73, -1213.00, -523.87, 0.000, 0.000, 0.000, 16:27:01.532, 1602451621532
89, -133.11, -233.53, -1179.52, -515.64, 0.000, 0.000, 0.000, 16:27:01.533, 1602451621533
90, -140.56, -254.63, -1203.89, -205.18, 0.000, 0.000, 0.000, 16:27:01.533, 1602451621533
91, -132.66, -258.05, -1210.47, -382.68, 0.000, 0.000, 0.000, 16:27:01.547, 1602451621547
92, -133.17, -246.91, -1186.54, -582.73, 0.000, 0.000, 0.000, 16:27:01.547, 1602451621547
93, -163.10, -260.69, -1198.31, -307.54, 0.000, 0.000, 0.000, 16:27:01.562, 1602451621562
94, -181.45, -264.55, -1221.97, -266.19, 0.000, 0.000, 0.000, 16:27:01.562, 1602451621562
95, -130.10, -240.85, -1170.76, -578.09, 0.000, 0.000, 0.000, 16:27:01.563, 1602451621563
96, -128.06, -235.27, -1161.78, -405.42, 0.000, 0.000, 0.000, 16:27:01.563, 1602451621563
97, -141.58, -278.13, -1228.27, -197.78, 0.000, 0.000, 0.000, 16:27:01.577, 1602451621577
98, -135.78, -242.37, -1178.18, -508.30, 0.000, 0.000, 0.000, 16:27:01.577, 1602451621577
99, -97.95, -208.83, -1146.94, -485.74, 0.000, 0.000, 0.000, 16:27:01.593, 1602451621593
100, -169.13, -296.28, -1261.58, -240.30, 0.000, 0.000, 0.000, 16:27:01.593, 1602451621593
101, -176.30, -275.13, -1276.73, -413.84, 0.000, 0.000, 0.000, 16:27:01.594, 1602451621594
102, -111.91, -216.62, -1124.00, -555.13, 0.000, 0.000, 0.000, 16:27:01.594, 1602451621594
103, -122.18, -232.25, -1146.26, -281.70, 0.000, 0.000, 0.000, 16:27:01.607, 1602451621607
104, -152.46, -254.34, -1182.11, -246.90, 0.000, 0.000, 0.000, 16:27:01.607, 1602451621607
105, -120.68, -230.35, -1168.80, -573.99, 0.000, 0.000, 0.000, 16:27:01.623, 1602451621623
106, -146.86, -251.86, -1200.24, -425.84, 0.000, 0.000, 0.000, 16:27:01.623, 1602451621623
107, -170.64, -280.71, -1213.58, -199.92, 0.000, 0.000, 0.000, 16:27:01.623, 1602451621623
108, -160.50, -257.99, -1198.65, -524.30, 0.000, 0.000, 0.000, 16:27:01.623, 1602451621623
109, -140.19, -237.95, -1165.65, -510.29, 0.000, 0.000, 0.000, 16:27:01.637, 1602451621637
110, -158.38, -258.90, -1165.37, -203.25, 0.000, 0.000, 0.000, 16:27:01.637, 1602451621637
111, -195.71, -299.10, -1229.69, -415.36, 0.000, 0.000, 0.000, 16:27:01.653, 1602451621653
112, -168.06, -254.23, -1164.37, -592.20, 0.000, 0.000, 0.000, 16:27:01.653, 1602451621653
113, -159.14, -258.87, -1168.14, -301.84, 0.000, 0.000, 0.000, 16:27:01.654, 1602451621654
114, -198.97, -297.13, -1232.30, -278.24, 0.000, 0.000, 0.000, 16:27:01.654, 1602451621654
115, -165.15, -249.57, -1173.92, -592.05, 0.000, 0.000, 0.000, 16:27:01.667, 1602451621667
116, -164.36, -264.34, -1189.79, -427.78, 0.000, 0.000, 0.000, 16:27:01.667, 1602451621667
117, -182.49, -286.70, -1192.94, -196.89, 0.000, 0.000, 0.000, 16:27:01.683, 1602451621683
118, -164.77, -263.06, -1169.18, -522.42, 0.000, 0.000, 0.000, 16:27:01.683, 1602451621683
119, -157.61, -263.81, -1175.72, -527.37, 0.000, 0.000, 0.000, 16:27:01.684, 1602451621684
120, -149.48, -273.75, -1200.71, -213.64, 0.000, 0.000, 0.000, 16:27:01.684, 1602451621684
121, -183.34, -289.70, -1221.46, -406.92, 0.000, 0.000, 0.000, 16:27:01.697, 1602451621697
122, -171.77, -254.84, -1155.17, -594.10, 0.000, 0.000, 0.000, 16:27:01.697, 1602451621697
123, -159.24, -285.33, -1191.08, -315.34, 0.000, 0.000, 0.000, 16:27:01.730, 1602451621730
124, -169.05, -275.26, -1177.23, -252.25, 0.000, 0.000, 0.000, 16:27:01.730, 1602451621730
125, -125.12, -221.33, -1167.94, -576.86, 0.000, 0.000, 0.000, 16:27:01.731, 1602451621731
126, -150.92, -257.64, -1197.81, -423.03, 0.000, 0.000, 0.000, 16:27:01.731, 1602451621731
127, -178.85, -288.45, -1196.79, -198.12, 0.000, 0.000, 0.000, 16:27:01.731, 1602451621731
128, -174.53, -263.31, -1196.16, -532.26, 0.000, 0.000, 0.000, 16:27:01.731, 1602451621731
129, -142.34, -249.36, -1165.52, -519.73, 0.000, 0.000, 0.000, 16:27:01.732, 1602451621732
130, -168.06, -288.09, -1202.71, -222.51, 0.000, 0.000, 0.000, 16:27:01.732, 1602451621732
131, -179.22, -282.38, -1194.33, -400.55, 0.000, 0.000, 0.000, 16:27:01.742, 1602451621742
132, -144.58, -262.22, -1199.08, -606.52, 0.000, 0.000, 0.000, 16:27:01.742, 1602451621742
133, -155.07, -274.02, -1199.35, -311.92, 0.000, 0.000, 0.000, 16:27:01.758, 1602451621758
134, -165.48, -276.06, -1179.13, -252.45, 0.000, 0.000, 0.000, 16:27:01.758, 1602451621758
135, -143.68, -260.81, -1176.70, -594.84, 0.000, 0.000, 0.000, 16:27:01.773, 1602451621773
136, -153.56, -265.14, -1186.75, -423.48, 0.000, 0.000, 0.000, 16:27:01.773, 1602451621773
137, -171.80, -288.86, -1213.70, -198.49, 0.000, 0.000, 0.000, 16:27:01.774, 1602451621774
138, -170.03, -276.13, -1203.41, -536.12, 0.000, 0.000, 0.000, 16:27:01.774, 1602451621774
139, -158.87, -251.88, -1197.11, -532.30, 0.000, 0.000, 0.000, 16:27:01.804, 1602451621804
140, -159.93, -288.37, -1239.46, -232.70, 0.000, 0.000, 0.000, 16:27:01.804, 1602451621804
141, -150.71, -278.60, -1212.83, -395.34, 0.000, 0.000, 0.000, 16:27:01.806, 1602451621806
142, -119.64, -250.63, -1150.30, -579.24, 0.000, 0.000, 0.000, 16:27:01.806, 1602451621806
143, -131.73, -262.70, -1176.83, -295.05, 0.000, 0.000, 0.000, 16:27:01.806, 1602451621806
144, -150.85, -268.28, -1180.60, -247.52, 0.000, 0.000, 0.000, 16:27:01.806, 1602451621806
145, -127.09, -244.38, -1168.59, -582.42, 0.000, 0.000, 0.000, 16:27:01.818, 1602451621818
146, -136.85, -252.42, -1194.37, -422.29, 0.000, 0.000, 0.000, 16:27:01.818, 1602451621818
147, -174.61, -291.69, -1243.78, -205.44, 0.000, 0.000, 0.000, 16:27:01.832, 1602451621832
148, -160.62, -267.11, -1184.67, -523.69, 0.000, 0.000, 0.000, 16:27:01.832, 1602451621832
149, -129.57, -232.09, -1148.39, -509.68, 0.000, 0.000, 0.000, 16:27:01.833, 1602451621833
150, -148.57, -253.79, -1185.36, -199.32, 0.000, 0.000, 0.000, 16:27:01.833, 1602451621833
151, -164.37, -273.08, -1207.39, -391.85, 0.000, 0.000, 0.000, 16:27:01.847, 1602451621847
152, -152.92, -246.97, -1179.75, -593.92, 0.000, 0.000, 0.000, 16:27:01.847, 1602451621847
153, -145.97, -240.70, -1155.00, -287.58, 0.000, 0.000, 0.000, 16:27:01.862, 1602451621862
154, -166.35, -290.08, -1218.06, -262.62, 0.000, 0.000, 0.000, 16:27:01.862, 1602451621862
155, -123.11, -229.43, -1187.68, -586.74, 0.000, 0.000, 0.000, 16:27:01.863, 1602451621863
156, -110.71, -235.31, -1177.07, -402.42, 0.000, 0.000, 0.000, 16:27:01.863, 1602451621863
157, -123.67, -242.15, -1193.01, -168.45, 0.000, 0.000, 0.000, 16:27:01.877, 1602451621877
158, -105.15, -225.59, -1195.51, -502.12, 0.000, 0.000, 0.000, 16:27:01.877, 1602451621877
159, -95.66, -208.72, -1176.49, -495.74, 0.000, 0.000, 0.000, 16:27:01.893, 1602451621893
160, -126.97, -241.46, -1240.46, -203.66, 0.000, 0.000, 0.000, 16:27:01.893, 1602451621893
161, -156.90, -249.39, -1230.12, -388.56, 0.000, 0.000, 0.000, 16:27:01.893, 1602451621893
162, -100.80, -225.06, -1148.19, -567.64, 0.000, 0.000, 0.000, 16:27:01.893, 1602451621893
163, -109.04, -233.67, -1194.75, -288.67, 0.000, 0.000, 0.000, 16:27:01.907, 1602451621907
164, -142.69, -263.87, -1223.59, -250.90, 0.000, 0.000, 0.000, 16:27:01.907, 1602451621907
165, -120.33, -222.30, -1186.05, -575.22, 0.000, 0.000, 0.000, 16:27:01.923, 1602451621923
166, -93.33, -218.68, -1179.27, -394.51, 0.000, 0.000, 0.000, 16:27:01.923, 1602451621923
167, -152.38, -271.58, -1241.90, -194.90, 0.000, 0.000, 0.000, 16:27:01.925, 1602451621925
168, -141.31, -254.17, -1199.03, -518.88, 0.000, 0.000, 0.000, 16:27:01.925, 1602451621925
169, -110.54, -218.79, -1178.18, -504.60, 0.000, 0.000, 0.000, 16:27:01.937, 1602451621937
170, -139.67, -254.20, -1208.12, -195.56, 0.000, 0.000, 0.000, 16:27:01.937, 1602451621937
171, -137.96, -245.70, -1191.44, -372.99, 0.000, 0.000, 0.000, 16:27:01.953, 1602451621953
172, -101.37, -212.23, -1164.27, -566.65, 0.000, 0.000, 0.000, 16:27:01.953, 1602451621953
173, -131.81, -253.92, -1225.80, -299.93, 0.000, 0.000, 0.000, 16:27:01.954, 1602451621954
174, -155.98, -274.54, -1227.85, -254.22, 0.000, 0.000, 0.000, 16:27:01.954, 1602451621954
175, -122.41, -240.05, -1179.50, -585.50, 0.000, 0.000, 0.000, 16:27:01.967, 1602451621967
176, -111.66, -226.23, -1192.70, -405.12, 0.000, 0.000, 0.000, 16:27:01.967, 1602451621967
177, -136.39, -256.46, -1212.32, -173.06, 0.000, 0.000, 0.000, 16:27:01.983, 1602451621983
178, -131.10, -243.51, -1195.55, -514.73, 0.000, 0.000, 0.000, 16:27:01.983, 1602451621983
179, -118.37, -227.28, -1199.61, -518.21, 0.000, 0.000, 0.000, 16:27:01.984, 1602451621984
180, -138.94, -263.08, -1203.63, -196.92, 0.000, 0.000, 0.000, 16:27:01.984, 1602451621984
181, -143.02, -260.85, -1209.72, -384.88, 0.000, 0.000, 0.000, 16:27:01.998, 1602451621998
182, -129.68, -240.11, -1184.70, -592.09, 0.000, 0.000, 0.000, 16:27:01.998, 1602451621998
183, -130.39, -244.36, -1202.72, -295.74, 0.000, 0.000, 0.000, 16:27:02.013, 1602451622013
184, -144.63, -275.48, -1211.72, -243.65, 0.000, 0.000, 0.000, 16:27:02.013, 1602451622013
185, -119.10, -240.28, -1171.68, -583.31, 0.000, 0.000, 0.000, 16:27:02.013, 1602451622013
186, -114.93, -231.16, -1196.72, -404.10, 0.000, 0.000, 0.000, 16:27:02.013, 1602451622013
187, -138.88, -260.44, -1229.46, -178.08, 0.000, 0.000, 0.000, 16:27:02.028, 1602451622028
188, -122.00, -238.11, -1206.30, -515.14, 0.000, 0.000, 0.000, 16:27:02.028, 1602451622028
189, -121.60, -225.78, -1171.62, -511.33, 0.000, 0.000, 0.000, 16:27:02.043, 1602451622043
190, -152.14, -268.25, -1207.80, -200.15, 0.000, 0.000, 0.000, 16:27:02.043, 1602451622043
191, -139.54, -255.25, -1202.77, -374.86, 0.000, 0.000, 0.000, 16:27:02.044, 1602451622044
192, -110.55, -226.35, -1160.66, -577.07, 0.000, 0.000, 0.000, 16:27:02.044, 1602451622044
193, -143.88, -268.96, -1204.11, -306.60, 0.000, 0.000, 0.000, 16:27:02.057, 1602451622057
194, -156.62, -287.60, -1223.97, -255.53, 0.000, 0.000, 0.000, 16:27:02.057, 1602451622057
195, -115.68, -228.95, -1178.26, -585.82, 0.000, 0.000, 0.000, 16:27:02.075, 1602451622075
196, -111.69, -228.59, -1186.26, -403.43, 0.000, 0.000, 0.000, 16:27:02.075, 1602451622075
197, -140.57, -268.88, -1229.57, -178.33, 0.000, 0.000, 0.000, 16:27:02.075, 1602451622075
198, -146.51, -248.22, -1210.64, -525.11, 0.000, 0.000, 0.000, 16:27:02.075, 1602451622075
199, -119.11, -227.85, -1163.09, -508.49, 0.000, 0.000, 0.000, 16:27:02.120, 1602451622120
200, -135.19, -250.16, -1177.83, -183.67, 0.000, 0.000, 0.000, 16:27:02.120, 1602451622120
0, -139.32, -272.39, -1200.01, -381.26, 0.000, 0.000, 0.000, 16:27:02.121, 1602451622121
1, -133.33, -246.00, -1184.57, -596.82, 0.000, 0.000, 0.000, 16:27:02.123, 1602451622123
2, -135.36, -247.98, -1194.94, -291.17, 0.000, 0.000, 0.000, 16:27:02.123, 1602451622123
3, -162.40, -274.27, -1229.14, -250.22, 0.000, 0.000, 0.000, 16:27:02.124, 1602451622124
4, -148.67, -247.83, -1208.77, -604.76, 0.000, 0.000, 0.000, 16:27:02.124, 1602451622124
5, -124.04, -246.06, -1184.03, -410.44, 0.000, 0.000, 0.000, 16:27:02.133, 1602451622133
6, -155.22, -262.48, -1187.95, -172.84, 0.000, 0.000, 0.000, 16:27:02.133, 1602451622133
7, -128.55, -249.59, -1178.06, -508.79, 0.000, 0.000, 0.000, 16:27:02.134, 1602451622134
8, -146.59, -259.72, -1195.65, -528.39, 0.000, 0.000, 0.000, 16:27:02.134, 1602451622134
9, -199.62, -284.95, -1246.64, -231.53, 0.000, 0.000, 0.000, 16:27:02.148, 1602451622148
10, -156.40, -270.01, -1205.70, -386.58, 0.000, 0.000, 0.000, 16:27:02.148, 1602451622148
11, -114.92, -238.05, -1169.05, -580.47, 0.000, 0.000, 0.000, 16:27:02.149, 1602451622149
12, -108.11, -234.19, -1170.94, -281.55, 0.000, 0.000, 0.000, 16:27:02.149, 1602451622149
13, -155.97, -271.28, -1217.24, -250.67, 0.000, 0.000, 0.000, 16:27:02.162, 1602451622162
14, -142.30, -253.86, -1206.30, -599.28, 0.000, 0.000, 0.000, 16:27:02.162, 1602451622162
15, -129.51, -239.42, -1194.13, -415.46, 0.000, 0.000, 0.000, 16:27:02.178, 1602451622178
16, -171.03, -277.67, -1241.94, -196.14, 0.000, 0.000, 0.000, 16:27:02.178, 1602451622178
17, -160.80, -271.23, -1204.62, -526.49, 0.000, 0.000, 0.000, 16:27:02.179, 1602451622179
18, -135.66, -250.74, -1187.17, -527.25, 0.000, 0.000, 0.000, 16:27:02.179, 1602451622179
19, -139.34, -248.31, -1167.65, -187.28, 0.000, 0.000, 0.000, 16:27:02.193, 1602451622193
20, -134.68, -231.87, -1172.33, -361.77, 0.000, 0.000, 0.000, 16:27:02.193, 1602451622193
21, -126.39, -241.11, -1194.93, -596.44, 0.000, 0.000, 0.000, 16:27:02.207, 1602451622207
22, -150.59, -262.62, -1226.72, -312.29, 0.000, 0.000, 0.000, 16:27:02.207, 1602451622207
23, -175.09, -275.83, -1214.24, -251.46, 0.000, 0.000, 0.000, 16:27:02.208, 1602451622208
24, -121.11, -221.66, -1164.12, -578.29, 0.000, 0.000, 0.000, 16:27:02.208, 1602451622208
25, -134.77, -259.32, -1214.90, -428.33, 0.000, 0.000, 0.000, 16:27:02.222, 1602451622222
26, -169.71, -277.59, -1233.30, -191.16, 0.000, 0.000, 0.000, 16:27:02.222, 1602451622222
27, -153.88, -260.97, -1201.42, -528.62, 0.000, 0.000, 0.000, 16:27:02.237, 1602451622237
28, -128.16, -235.13, -1176.30, -525.54, 0.000, 0.000, 0.000, 16:27:02.237, 1602451622237
29, -165.19, -262.06, -1192.61, -201.43, 0.000, 0.000, 0.000, 16:27:02.238, 1602451622238
30, -177.10, -270.70, -1187.67, -385.01, 0.000, 0.000, 0.000, 16:27:02.238, 1602451622238
31, -154.93, -246.11, -1160.25, -599.84, 0.000, 0.000, 0.000, 16:27:02.252, 1602451622252
32, -151.50, -233.63, -1145.67, -281.74, 0.000, 0.000, 0.000, 16:27:02.252, 1602451622252
33, -182.80, -271.55, -1193.14, -243.58, 0.000, 0.000, 0.000, 16:27:02.285, 1602451622285
34, -160.86, -253.27, -1206.66, -612.43, 0.000, 0.000, 0.000, 16:27:02.285, 1602451622285
35, -163.09, -259.00, -1199.65, -425.31, 0.000, 0.000, 0.000, 16:27:02.285, 1602451622285
36, -198.63, -287.43, -1213.83, -192.86, 0.000, 0.000, 0.000, 16:27:02.285, 1602451622285
37, -173.71, -254.29, -1190.17, -527.70, 0.000, 0.000, 0.000, 16:27:02.285, 1602451622285
38, -139.99, -237.03, -1157.71, -522.29, 0.000, 0.000, 0.000, 16:27:02.285, 1602451622285
39, -168.86, -263.26, -1188.74, -200.65, 0.000, 0.000, 0.000, 16:27:02.286, 1602451622286
40, -179.38, -275.72, -1190.98, -386.71, 0.000, 0.000, 0.000, 16:27:02.286, 1602451622286
41, -149.03, -253.12, -1171.23, -595.35, 0.000, 0.000, 0.000, 16:27:02.297, 1602451622297
42, -152.46, -276.16, -1201.12, -308.93, 0.000, 0.000, 0.000, 16:27:02.297, 1602451622297
43, -174.45, -273.09, -1230.41, -255.30, 0.000, 0.000, 0.000, 16:27:02.312, 1602451622312
44, -145.74, -237.97, -1145.62, -581.21, 0.000, 0.000, 0.000, 16:27:02.312, 1602451622312
45, -152.56, -265.69, -1165.71, -426.62, 0.000, 0.000, 0.000, 16:27:02.328, 1602451622328
46, -181.94, -291.56, -1226.15, -201.48, 0.000, 0.000, 0.000, 16:27:02.328, 1602451622328
47, -155.41, -249.36, -1174.58, -503.22, 0.000, 0.000, 0.000, 16:27:02.328, 1602451622328
48, -136.82, -236.97, -1139.84, -511.21, 0.000, 0.000, 0.000, 16:27:02.328, 1602451622328
49, -181.65, -271.63, -1215.51, -232.83, 0.000, 0.000, 0.000, 16:27:02.358, 1602451622358
50, -163.75, -276.56, -1221.11, -386.66, 0.000, 0.000, 0.000, 16:27:02.358, 1602451622358
51, -137.25, -240.62, -1160.57, -571.45, 0.000, 0.000, 0.000, 16:27:02.359, 1602451622359
52, -149.23, -251.95, -1173.58, -315.14, 0.000, 0.000, 0.000, 16:27:02.359, 1602451622359
53, -171.73, -279.45, -1241.48, -273.50, 0.000, 0.000, 0.000, 16:27:02.360, 1602451622360
54, -141.67, -252.53, -1166.26, -553.78, 0.000, 0.000, 0.000, 16:27:02.360, 1602451622360
55, -138.07, -237.98, -1163.41, -419.07, 0.000, 0.000, 0.000, 16:27:02.372, 1602451622372
56, -146.34, -281.33, -1194.54, -225.02, 0.000, 0.000, 0.000, 16:27:02.372, 1602451622372
57, -184.70, -269.65, -1188.43, -466.56, 0.000, 0.000, 0.000, 16:27:02.388, 1602451622388
58, -147.74, -240.93, -1164.17, -488.86, 0.000, 0.000, 0.000, 16:27:02.388, 1602451622388
59, -130.03, -248.20, -1182.28, -327.19, 0.000, 0.000, 0.000, 16:27:02.389, 1602451622389
60, -144.92, -249.57, -1206.52, -323.71, 0.000, 0.000, 0.000, 16:27:02.389, 1602451622389
61, -149.52, -260.69, -1211.62, -455.12, 0.000, 0.000, 0.000, 16:27:02.402, 1602451622402
62, -148.10, -257.26, -1188.48, -457.23, 0.000, 0.000, 0.000, 16:27:02.402, 1602451622402
63, -135.02, -236.01, -1130.31, -342.54, 0.000, 0.000, 0.000, 16:27:02.418, 1602451622418
64, -150.67, -262.74, -1194.70, -292.69, 0.000, 0.000, 0.000, 16:27:02.418, 1602451622418
65, -152.83, -259.42, -1181.80, -489.95, 0.000, 0.000, 0.000, 16:27:02.419, 1602451622419
66, -142.01, -246.51, -1168.49, -463.89, 0.000, 0.000, 0.000, 16:27:02.419, 1602451622419
67, -147.33, -265.75, -1194.47, -233.21, 0.000, 0.000, 0.000, 16:27:02.432, 1602451622432
68, -170.59, -273.49, -1209.32, -438.76, 0.000, 0.000, 0.000, 16:27:02.432, 1602451622432
69, -143.44, -249.88, -1192.20, -542.81, 0.000, 0.000, 0.000, 16:27:02.448, 1602451622448
70, -142.13, -254.68, -1185.52, -263.45, 0.000, 0.000, 0.000, 16:27:02.448, 1602451622448
71, -145.22, -255.53, -1180.85, -326.44, 0.000, 0.000, 0.000, 16:27:02.449, 1602451622449
72, -129.20, -236.56, -1149.69, -526.98, 0.000, 0.000, 0.000, 16:27:02.449, 1602451622449
73, -126.31, -232.86, -1150.40, -354.42, 0.000, 0.000, 0.000, 16:27:02.462, 1602451622462
74, -166.23, -272.45, -1210.63, -264.02, 0.000, 0.000, 0.000, 16:27:02.462, 1602451622462
75, -126.85, -241.09, -1171.83, -484.17, 0.000, 0.000, 0.000, 16:27:02.478, 1602451622478
76, -112.69, -218.00, -1163.29, -463.64, 0.000, 0.000, 0.000, 16:27:02.478, 1602451622478
77, -141.69, -240.97, -1195.21, -210.60, 0.000, 0.000, 0.000, 16:27:02.479, 1602451622479
78, -144.32, -240.63, -1169.31, -411.67, 0.000, 0.000, 0.000, 16:27:02.479, 1602451622479
79, -64.43, -135.99, -1065.04, -471.50, 0.000, 0.000, 0.000, 16:27:02.493, 1602451622493
80, -105.36, -163.67, -1085.75, -204.11, 0.000, 0.000, 0.000, 16:27:02.493, 1602451622493
81, -120.13, -175.29, -1136.66, -282.50, 0.000, 0.000, 0.000, 16:27:02.508, 1602451622508
82, -41.05, -127.04, -1060.92, -464.41, 0.000, 0.000, 0.000, 16:27:02.508, 1602451622508
83, 9.27, -100.12, -1078.01, -273.47, 0.000, 0.000, 0.000, 16:27:02.509, 1602451622509
84, -9.66, -107.42, -1091.63, -151.28, 0.000, 0.000, 0.000, 16:27:02.509, 1602451622509
85, -13.14, -92.44, -1062.14, -393.17, 0.000, 0.000, 0.000, 16:27:02.522, 1602451622522
86, -7.53, -83.58, -1030.07, -371.21, 0.000, 0.000, 0.000, 16:27:02.522, 1602451622522
87, -29.33, -97.03, -1084.85, -121.98, 0.000, 0.000, 0.000, 16:27:02.538, 1602451622538
88, -30.11, -99.38, -1130.58, -333.75, 0.000, 0.000, 0.000, 16:27:02.538, 1602451622538
89, -22.72, -109.18, -1069.44, -458.77, 0.000, 0.000, 0.000, 16:27:02.539, 1602451622539
90, -28.50, -131.64, -1062.44, -175.39, 0.000, 0.000, 0.000, 16:27:02.539, 1602451622539
91, -95.91, -164.38, -1131.36, -272.60, 0.000, 0.000, 0.000, 16:27:02.552, 1602451622552
92, -30.90, -123.38, -1093.26, -461.91, 0.000, 0.000, 0.000, 16:27:02.552, 1602451622552
93, -27.94, -97.87, -1098.55, -286.48, 0.000, 0.000, 0.000, 16:27:02.567, 1602451622567
94, -57.80, -144.77, -1129.82, -183.63, 0.000, 0.000, 0.000, 16:27:02.567, 1602451622567
95, -81.09, -175.54, -1156.52, -453.42, 0.000, 0.000, 0.000, 16:27:02.568, 1602451622568
96, -91.03, -173.05, -1153.22, -444.54, 0.000, 0.000, 0.000, 16:27:02.568, 1602451622568
97, -91.90, -202.37, -1161.98, -179.16, 0.000, 0.000, 0.000, 16:27:02.598, 1602451622598
98, -98.98, -226.56, -1167.77, -395.85, 0.000, 0.000, 0.000, 16:27:02.598, 1602451622598
99, -73.64, -175.21, -1113.12, -499.44, 0.000, 0.000, 0.000, 16:27:02.614, 1602451622614
100, -93.81, -185.59, -1146.77, -225.19, 0.000, 0.000, 0.000, 16:27:02.614, 1602451622614
101, -145.02, -259.10, -1203.61, -331.62, 0.000, 0.000, 0.000, 16:27:02.615, 1602451622615
102, -113.22, -220.72, -1183.10, -531.03, 0.000, 0.000, 0.000, 16:27:02.615, 1602451622615
103, -81.44, -205.33, -1175.83, -348.53, 0.000, 0.000, 0.000, 16:27:02.615, 1602451622615
104, -132.17, -254.52, -1200.03, -242.56, 0.000, 0.000, 0.000, 16:27:02.615, 1602451622615
105, -136.24, -241.01, -1179.85, -487.28, 0.000, 0.000, 0.000, 16:27:02.616, 1602451622616
106, -117.72, -227.62, -1177.06, -469.20, 0.000, 0.000, 0.000, 16:27:02.616, 1602451622616
107, -143.74, -244.36, -1173.63, -208.99, 0.000, 0.000, 0.000, 16:27:02.627, 1602451622627
108, -148.49, -269.18, -1221.63, -431.82, 0.000, 0.000, 0.000, 16:27:02.627, 1602451622627
109, -113.77, -260.78, -1207.56, -549.11, 0.000, 0.000, 0.000, 16:27:02.675, 1602451622675
110, -107.40, -243.90, -1191.91, -252.10, 0.000, 0.000, 0.000, 16:27:02.675, 1602451622675
111, -140.38, -254.52, -1212.40, -331.52, 0.000, 0.000, 0.000, 16:27:02.675, 1602451622675
112, -130.35, -254.73, -1216.47, -546.50, 0.000, 0.000, 0.000, 16:27:02.675, 1602451622675
113, -119.67, -243.01, -1172.06, -358.63, 0.000, 0.000, 0.000, 16:27:02.676, 1602451622676
114, -178.67, -291.75, -1217.27, -270.38, 0.000, 0.000, 0.000, 16:27:02.676, 1602451622676
115, -178.53, -294.38, -1223.41, -524.29, 0.000, 0.000, 0.000, 16:27:02.677, 1602451622677
116, -145.55, -269.05, -1196.77, -489.70, 0.000, 0.000, 0.000, 16:27:02.677, 1602451622677
117, -163.85, -297.20, -1239.61, -246.08, 0.000, 0.000, 0.000, 16:27:02.688, 1602451622688
118, -161.15, -291.58, -1246.04, -447.47, 0.000, 0.000, 0.000, 16:27:02.688, 1602451622688
119, -145.01, -287.27, -1231.87, -571.34, 0.000, 0.000, 0.000, 16:27:02.689, 1602451622689
120, -147.39, -256.67, -1181.04, -263.61, 0.000, 0.000, 0.000, 16:27:02.689, 1602451622689
121, -185.74, -306.83, -1234.27, -355.14, 0.000, 0.000, 0.000, 16:27:02.702, 1602451622702
122, -153.21, -284.08, -1194.99, -557.78, 0.000, 0.000, 0.000, 16:27:02.702, 1602451622702
123, -136.60, -268.61, -1193.21, -379.93, 0.000, 0.000, 0.000, 16:27:02.718, 1602451622718
124, -173.63, -295.85, -1224.04, -272.64, 0.000, 0.000, 0.000, 16:27:02.718, 1602451622718
125, -177.59, -295.01, -1284.25, -535.29, 0.000, 0.000, 0.000, 16:27:02.719, 1602451622719
126, -159.00, -266.74, -1206.05, -496.77, 0.000, 0.000, 0.000, 16:27:02.719, 1602451622719
127, -166.47, -308.75, -1209.55, -240.96, 0.000, 0.000, 0.000, 16:27:02.733, 1602451622733
128, -191.57, -308.52, -1232.77, -450.32, 0.000, 0.000, 0.000, 16:27:02.733, 1602451622733
129, -171.95, -291.94, -1222.65, -576.83, 0.000, 0.000, 0.000, 16:27:02.748, 1602451622748
130, -157.01, -279.28, -1201.16, -277.25, 0.000, 0.000, 0.000, 16:27:02.748, 1602451622748
131, -182.00, -322.09, -1294.24, -375.89, 0.000, 0.000, 0.000, 16:27:02.748, 1602451622748
132, -178.98, -292.94, -1214.41, -571.71, 0.000, 0.000, 0.000, 16:27:02.748, 1602451622748
133, -156.60, -271.40, -1166.94, -377.16, 0.000, 0.000, 0.000, 16:27:02.762, 1602451622762
134, -194.10, -302.51, -1225.85, -282.19, 0.000, 0.000, 0.000, 16:27:02.762, 1602451622762
135, -147.86, -273.40, -1208.92, -506.81, 0.000, 0.000, 0.000, 16:27:02.778, 1602451622778
136, -142.70, -262.10, -1220.38, -492.81, 0.000, 0.000, 0.000, 16:27:02.778, 1602451622778
137, -184.90, -297.49, -1232.35, -241.43, 0.000, 0.000, 0.000, 16:27:02.779, 1602451622779
138, -192.84, -311.45, -1244.56, -457.95, 0.000, 0.000, 0.000, 16:27:02.779, 1602451622779
139, -150.60, -267.56, -1177.30, -554.23, 0.000, 0.000, 0.000, 16:27:02.792, 1602451622792
140, -142.75, -259.34, -1182.92, -262.53, 0.000, 0.000, 0.000, 16:27:02.792, 1602451622792
141, -176.44, -289.32, -1222.41, -350.19, 0.000, 0.000, 0.000, 16:27:02.808, 1602451622808
142, -160.17, -273.06, -1217.40, -562.51, 0.000, 0.000, 0.000, 16:27:02.808, 1602451622808
143, -129.91, -258.59, -1202.14, -376.92, 0.000, 0.000, 0.000, 16:27:02.809, 1602451622809
144, -168.74, -285.70, -1230.30, -268.51, 0.000, 0.000, 0.000, 16:27:02.809, 1602451622809
145, -176.41, -292.84, -1216.94, -520.14, 0.000, 0.000, 0.000, 16:27:02.823, 1602451622823
146, -158.49, -276.70, -1212.15, -502.65, 0.000, 0.000, 0.000, 16:27:02.823, 1602451622823
147, -176.31, -294.19, -1219.10, -241.54, 0.000, 0.000, 0.000, 16:27:02.838, 1602451622838
148, -174.97, -289.16, -1230.45, -440.72, 0.000, 0.000, 0.000, 16:27:02.838, 1602451622838
149, -144.22, -261.93, -1199.67, -559.40, 0.000, 0.000, 0.000, 16:27:02.839, 1602451622839
150, -156.76, -263.18, -1207.91, -281.06, 0.000, 0.000, 0.000, 16:27:02.839, 1602451622839
151, -187.45, -298.76, -1246.50, -355.64, 0.000, 0.000, 0.000, 16:27:02.853, 1602451622853
152, -162.37, -292.04, -1215.64, -565.06, 0.000, 0.000, 0.000, 16:27:02.853, 1602451622853
153, -157.66, -291.71, -1228.47, -402.08, 0.000, 0.000, 0.000, 16:27:02.869, 1602451622869
154, -180.41, -301.01, -1228.82, -273.77, 0.000, 0.000, 0.000, 16:27:02.869, 1602451622869
155, -163.33, -267.93, -1182.98, -505.45, 0.000, 0.000, 0.000, 16:27:02.869, 1602451622869
156, -161.44, -268.03, -1190.39, -495.55, 0.000, 0.000, 0.000, 16:27:02.869, 1602451622869
157, -180.04, -288.20, -1225.71, -241.12, 0.000, 0.000, 0.000, 16:27:02.882, 1602451622882
158, -181.55, -283.35, -1240.81, -445.15, 0.000, 0.000, 0.000, 16:27:02.882, 1602451622882
159, -154.69, -268.39, -1174.78, -555.22, 0.000, 0.000, 0.000, 16:27:02.898, 1602451622898
160, -164.53, -259.46, -1202.20, -270.88, 0.000, 0.000, 0.000, 16:27:02.898, 1602451622898
161, -205.07, -315.22, -1260.73, -365.56, 0.000, 0.000, 0.000, 16:27:02.913, 1602451622913
162, -167.27, -292.44, -1218.66, -572.58, 0.000, 0.000, 0.000, 16:27:02.913, 1602451622913
163, -139.35, -251.56, -1163.14, -371.67, 0.000, 0.000, 0.000, 16:27:02.914, 1602451622914
164, -182.02, -306.94, -1230.80, -271.69, 0.000, 0.000, 0.000, 16:27:02.914, 1602451622914
165, -169.93, -287.39, -1216.49, -515.02, 0.000, 0.000, 0.000, 16:27:02.928, 1602451622928
166, -160.92, -302.79, -1222.13, -514.55, 0.000, 0.000, 0.000, 16:27:02.928, 1602451622928
167, -183.56, -288.81, -1216.97, -234.83, 0.000, 0.000, 0.000, 16:27:02.929, 1602451622929
168, -191.04, -298.20, -1235.93, -447.76, 0.000, 0.000, 0.000, 16:27:02.929, 1602451622929
169, -144.43, -266.14, -1181.70, -555.58, 0.000, 0.000, 0.000, 16:27:02.942, 1602451622942
170, -155.46, -276.52, -1215.95, -278.81, 0.000, 0.000, 0.000, 16:27:02.942, 1602451622942
171, -187.74, -301.80, -1228.51, -354.04, 0.000, 0.000, 0.000, 16:27:02.957, 1602451622957
172, -150.47, -269.99, -1199.60, -559.83, 0.000, 0.000, 0.000, 16:27:02.957, 1602451622957
173, -138.68, -244.48, -1179.08, -378.00, 0.000, 0.000, 0.000, 16:27:02.958, 1602451622958
174, -194.27, -303.51, -1221.25, -277.95, 0.000, 0.000, 0.000, 16:27:02.958, 1602451622958
175, -182.07, -302.62, -1205.64, -527.06, 0.000, 0.000, 0.000, 16:27:02.972, 1602451622972
176, -152.37, -269.17, -1202.41, -499.02, 0.000, 0.000, 0.000, 16:27:02.972, 1602451622972
177, -158.55, -296.52, -1230.18, -238.46, 0.000, 0.000, 0.000, 16:27:02.988, 1602451622988
178, -175.55, -296.11, -1240.79, -447.49, 0.000, 0.000, 0.000, 16:27:02.988, 1602451622988
179, -159.39, -272.05, -1203.97, -568.78, 0.000, 0.000, 0.000, 16:27:02.988, 1602451622988
180, -151.94, -261.22, -1183.80, -266.69, 0.000, 0.000, 0.000, 16:27:02.988, 1602451622988
181, -183.39, -300.49, -1214.50, -350.28, 0.000, 0.000, 0.000, 16:27:03.002, 1602451623002
182, -177.82, -297.62, -1211.54, -571.49, 0.000, 0.000, 0.000, 16:27:03.002, 1602451623002
183, -175.88, -276.45, -1192.96, -395.31, 0.000, 0.000, 0.000, 16:27:03.018, 1602451623018
184, -159.68, -268.06, -1188.03, -251.33, 0.000, 0.000, 0.000, 16:27:03.018, 1602451623018
185, -152.93, -260.84, -1198.58, -500.26, 0.000, 0.000, 0.000, 16:27:03.018, 1602451623018
186, -152.10, -266.30, -1207.47, -503.07, 0.000, 0.000, 0.000, 16:27:03.018, 1602451623018
187, -181.67, -291.10, -1212.33, -236.73, 0.000, 0.000, 0.000, 16:27:03.033, 1602451623033
188, -174.99, -303.53, -1260.51, -448.86, 0.000, 0.000, 0.000, 16:27:03.033, 1602451623033
189, -144.20, -263.32, -1181.71, -557.44, 0.000, 0.000, 0.000, 16:27:03.048, 1602451623048
190, -152.45, -246.49, -1154.41, -260.68, 0.000, 0.000, 0.000, 16:27:03.048, 1602451623048
191, -197.53, -296.13, -1234.31, -353.34, 0.000, 0.000, 0.000, 16:27:03.048, 1602451623048
192, -185.57, -298.96, -1210.77, -575.82, 0.000, 0.000, 0.000, 16:27:03.048, 1602451623048
193, -139.60, -244.73, -1156.65, -366.48, 0.000, 0.000, 0.000, 16:27:03.063, 1602451623063
194, -162.51, -266.46, -1192.71, -252.59, 0.000, 0.000, 0.000, 16:27:03.063, 1602451623063
195, -178.90, -290.71, -1258.51, -532.29, 0.000, 0.000, 0.000, 16:27:03.078, 1602451623078
196, -143.58, -268.60, -1203.64, -500.73, 0.000, 0.000, 0.000, 16:27:03.078, 1602451623078
197, -186.03, -296.20, -1204.61, -240.90, 0.000, 0.000, 0.000, 16:27:03.078, 1602451623078
198, -200.14, -296.84, -1206.72, -439.72, 0.000, 0.000, 0.000, 16:27:03.078, 1602451623078
199, -170.92, -267.02, -1194.54, -567.22, 0.000, 0.000, 0.000, 16:27:03.093, 1602451623093
200, -147.76, -252.09, -1176.20, -261.77, 0.000, 0.000, 0.000, 16:27:03.093, 1602451623093
0, -175.39, -301.18, -1234.16, -351.72, 0.000, 0.000, 0.000, 16:27:03.094, 1602451623094
1, -145.06, -257.88, -1204.69, -557.03, 0.000, 0.000, 0.000, 16:27:03.107, 1602451623107
2, -155.21, -263.71, -1213.13, -395.20, 0.000, 0.000, 0.000, 16:27:03.107, 1602451623107
3, -179.65, -285.53, -1207.68, -263.65, 0.000, 0.000, 0.000, 16:27:03.123, 1602451623123
4, -186.75, -293.87, -1212.52, -519.94, 0.000, 0.000, 0.000, 16:27:03.123, 1602451623123
5, -145.03, -260.21, -1178.33, -492.50, 0.000, 0.000, 0.000, 16:27:03.124, 1602451623124
6, -157.29, -262.16, -1203.42, -224.80, 0.000, 0.000, 0.000, 16:27:03.124, 1602451623124
7, -159.09, -263.08, -1194.73, -421.72, 0.000, 0.000, 0.000, 16:27:03.137, 1602451623137
8, -116.23, -243.93, -1184.70, -549.65, 0.000, 0.000, 0.000, 16:27:03.137, 1602451623137
9, -151.81, -266.73, -1189.31, -276.61, 0.000, 0.000, 0.000, 16:27:03.153, 1602451623153
10, -200.86, -311.40, -1239.96, -364.88, 0.000, 0.000, 0.000, 16:27:03.153, 1602451623153
11, -154.75, -263.83, -1218.57, -559.29, 0.000, 0.000, 0.000, 16:27:03.154, 1602451623154
12, -114.51, -232.32, -1172.89, -367.75, 0.000, 0.000, 0.000, 16:27:03.154, 1602451623154
13, -155.96, -275.43, -1205.53, -257.08, 0.000, 0.000, 0.000, 16:27:03.168, 1602451623168
14, -161.30, -259.58, -1185.68, -495.35, 0.000, 0.000, 0.000, 16:27:03.168, 1602451623168
15, -147.66, -238.04, -1166.43, -483.93, 0.000, 0.000, 0.000, 16:27:03.183, 1602451623183
16, -165.51, -290.85, -1218.44, -242.70, 0.000, 0.000, 0.000, 16:27:03.183, 1602451623183
17, -154.37, -264.84, -1222.65, -430.03, 0.000, 0.000, 0.000, 16:27:03.184, 1602451623184
18, -132.41, -237.36, -1182.84, -541.12, 0.000, 0.000, 0.000, 16:27:03.184, 1602451623184
19, -169.02, -270.41, -1217.13, -289.54, 0.000, 0.000, 0.000, 16:27:03.197, 1602451623197
20, -189.22, -295.96, -1209.69, -355.62, 0.000, 0.000, 0.000, 16:27:03.197, 1602451623197
21, -171.28, -276.52, -1209.85, -560.07, 0.000, 0.000, 0.000, 16:27:03.229, 1602451623229
22, -128.44, -263.45, -1181.30, -380.50, 0.000, 0.000, 0.000, 16:27:03.229, 1602451623229
23, -158.20, -283.73, -1226.84, -268.75, 0.000, 0.000, 0.000, 16:27:03.230, 1602451623230
24, -164.23, -270.51, -1185.77, -502.88, 0.000, 0.000, 0.000, 16:27:03.230, 1602451623230
25, -151.12, -261.34, -1209.30, -499.77, 0.000, 0.000, 0.000, 16:27:03.231, 1602451623231
26, -160.88, -265.42, -1186.40, -226.21, 0.000, 0.000, 0.000, 16:27:03.231, 1602451623231
27, -163.28, -270.87, -1196.10, -426.94, 0.000, 0.000, 0.000, 16:27:03.231, 1602451623231
28, -140.83, -254.14, -1184.38, -551.41, 0.000, 0.000, 0.000, 16:27:03.231, 1602451623231
29, -152.05, -257.92, -1184.92, -273.12, 0.000, 0.000, 0.000, 16:27:03.242, 1602451623242
30, -193.12, -319.54, -1255.55, -364.06, 0.000, 0.000, 0.000, 16:27:03.242, 1602451623242
31, -157.43, -268.97, -1212.91, -558.99, 0.000, 0.000, 0.000, 16:27:03.257, 1602451623257
32, -135.47, -244.56, -1176.58, -374.67, 0.000, 0.000, 0.000, 16:27:03.257, 1602451623257
33, -175.89, -302.88, -1253.42, -280.79, 0.000, 0.000, 0.000, 16:27:03.273, 1602451623273
34, -167.60, -269.26, -1191.97, -506.19, 0.000, 0.000, 0.000, 16:27:03.273, 1602451623273
35, -134.35, -247.60, -1163.20, -483.80, 0.000, 0.000, 0.000, 16:27:03.274, 1602451623274
36, -172.01, -283.26, -1201.91, -233.00, 0.000, 0.000, 0.000, 16:27:03.274, 1602451623274
37, -186.66, -301.66, -1213.47, -444.79, 0.000, 0.000, 0.000, 16:27:03.287, 1602451623287
38, -163.54, -259.26, -1190.23, -560.82, 0.000, 0.000, 0.000, 16:27:03.287, 1602451623287
39, -157.84, -269.01, -1196.57, -279.67, 0.000, 0.000, 0.000, 16:27:03.303, 1602451623303
40, -184.02, -292.70, -1232.58, -347.75, 0.000, 0.000, 0.000, 16:27:03.303, 1602451623303
41, -168.97, -290.02, -1246.83, -576.54, 0.000, 0.000, 0.000, 16:27:03.304, 1602451623304
42, -130.93, -243.85, -1144.15, -367.19, 0.000, 0.000, 0.000, 16:27:03.304, 1602451623304
43, -180.54, -291.00, -1203.06, -268.28, 0.000, 0.000, 0.000, 16:27:03.317, 1602451623317
44, -189.74, -309.57, -1240.94, -530.71, 0.000, 0.000, 0.000, 16:27:03.317, 1602451623317
45, -138.16, -242.50, -1163.92, -482.04, 0.000, 0.000, 0.000, 16:27:03.333, 1602451623333
46, -184.44, -290.53, -1210.76, -241.13, 0.000, 0.000, 0.000, 16:27:03.333, 1602451623333
47, -197.10, -318.11, -1256.97, -458.48, 0.000, 0.000, 0.000, 16:27:03.333, 1602451623333
48, -159.22, -266.94, -1173.06, -557.93, 0.000, 0.000, 0.000, 16:27:03.333, 1602451623333
49, -130.24, -234.67, -1168.28, -260.63, 0.000, 0.000, 0.000, 16:27:03.347, 1602451623347
50, -164.31, -261.19, -1203.95, -329.52, 0.000, 0.000, 0.000, 16:27:03.347, 1602451623347
51, -177.72, -303.98, -1225.43, -577.18, 0.000, 0.000, 0.000, 16:27:03.363, 1602451623363
52, -154.72, -265.44, -1175.59, -391.30, 0.000, 0.000, 0.000, 16:27:03.363, 1602451623363
53, -189.47, -284.85, -1217.07, -270.96, 0.000, 0.000, 0.000, 16:27:03.363, 1602451623363
54, -184.43, -289.74, -1215.23, -517.35, 0.000, 0.000, 0.000, 16:27:03.363, 1602451623363
55, -154.06, -261.26, -1192.58, -501.54, 0.000, 0.000, 0.000, 16:27:03.377, 1602451623377
56, -163.37, -266.79, -1208.88, -226.80, 0.000, 0.000, 0.000, 16:27:03.377, 1602451623377
57, -194.43, -301.00, -1242.28, -447.36, 0.000, 0.000, 0.000, 16:27:03.393, 1602451623393
58, -141.91, -250.20, -1187.25, -559.63, 0.000, 0.000, 0.000, 16:27:03.393, 1602451623393
59, -157.98, -254.06, -1193.50, -276.35, 0.000, 0.000, 0.000, 16:27:03.393, 1602451623393
60, -191.43, -302.19, -1259.49, -362.29, 0.000, 0.000, 0.000, 16:27:03.393, 1602451623393
61, -163.27, -282.77, -1216.51, -564.34, 0.000, 0.000, 0.000, 16:27:03.407, 1602451623407
62, -156.83, -265.70, -1188.06, -387.73, 0.000, 0.000, 0.000, 16:27:03.407, 1602451623407
63, -174.24, -279.57, -1200.65, -259.60, 0.000, 0.000, 0.000, 16:27:03.423, 1602451623423
64, -173.46, -273.51, -1201.90, -506.27, 0.000, 0.000, 0.000, 16:27:03.423, 1602451623423
65, -136.49, -237.20, -1175.89, -483.67, 0.000, 0.000, 0.000, 16:27:03.423, 1602451623423
66, -154.10, -248.44, -1190.05, -217.19, 0.000, 0.000, 0.000, 16:27:03.423, 1602451623423
67, -182.80, -286.68, -1230.28, -440.13, 0.000, 0.000, 0.000, 16:27:03.437, 1602451623437
68, -152.66, -264.35, -1183.65, -562.36, 0.000, 0.000, 0.000, 16:27:03.437, 1602451623437
69, -144.70, -261.41, -1198.71, -277.09, 0.000, 0.000, 0.000, 16:27:03.469, 1602451623469
70, -165.81, -280.20, -1209.91, -333.37, 0.000, 0.000, 0.000, 16:27:03.469, 1602451623469
71, -154.02, -289.11, -1209.64, -562.34, 0.000, 0.000, 0.000, 16:27:03.470, 1602451623470
72, -156.77, -275.17, -1211.27, -403.84, 0.000, 0.000, 0.000, 16:27:03.470, 1602451623470
73, -170.83, -273.77, -1207.25, -259.43, 0.000, 0.000, 0.000, 16:27:03.470, 1602451623470
74, -157.20, -268.69, -1205.34, -505.28, 0.000, 0.000, 0.000, 16:27:03.470, 1602451623470
75, -122.57, -222.85, -1150.38, -473.09, 0.000, 0.000, 0.000, 16:27:03.471, 1602451623471
76, -152.39, -264.72, -1191.91, -223.35, 0.000, 0.000, 0.000, 16:27:03.471, 1602451623471
77, -159.34, -273.69, -1218.07, -427.15, 0.000, 0.000, 0.000, 16:27:03.482, 1602451623482
78, -155.06, -264.04, -1186.95, -562.72, 0.000, 0.000, 0.000, 16:27:03.482, 1602451623482
79, -142.85, -246.18, -1187.02, -269.26, 0.000, 0.000, 0.000, 16:27:03.497, 1602451623497
80, -162.48, -277.79, -1247.55, -343.40, 0.000, 0.000, 0.000, 16:27:03.497, 1602451623497
81, -154.16, -267.81, -1223.70, -563.90, 0.000, 0.000, 0.000, 16:27:03.513, 1602451623513
82, -143.97, -253.48, -1158.25, -378.95, 0.000, 0.000, 0.000, 16:27:03.513, 1602451623513
83, -200.95, -314.80, -1231.39, -280.17, 0.000, 0.000, 0.000, 16:27:03.514, 1602451623514
84, -181.17, -299.27, -1217.50, -519.24, 0.000, 0.000, 0.000, 16:27:03.514, 1602451623514
85, -130.11, -247.27, -1202.95, -495.48, 0.000, 0.000, 0.000, 16:27:03.527, 1602451623527
86, -125.46, -228.94, -1176.72, -203.65, 0.000, 0.000, 0.000, 16:27:03.527, 1602451623527
87, -173.79, -285.75, -1215.74, -433.09, 0.000, 0.000, 0.000, 16:27:03.543, 1602451623543
88, -149.00, -253.33, -1166.31, -556.36, 0.000, 0.000, 0.000, 16:27:03.543, 1602451623543
89, -124.06, -233.12, -1158.51, -253.90, 0.000, 0.000, 0.000, 16:27:03.544, 1602451623544
90, -178.96, -289.53, -1210.54, -338.35, 0.000, 0.000, 0.000, 16:27:03.544, 1602451623544
91, -166.50, -287.90, -1227.22, -569.20, 0.000, 0.000, 0.000, 16:27:03.557, 1602451623557
92, -151.85, -247.36, -1195.94, -390.38, 0.000, 0.000, 0.000, 16:27:03.557, 1602451623557
93, -181.64, -281.67, -1216.46, -262.82, 0.000, 0.000, 0.000, 16:27:03.573, 1602451623573
94, -168.09, -285.16, -1222.45, -513.01, 0.000, 0.000, 0.000, 16:27:03.573, 1602451623573
95, -122.90, -232.63, -1179.41, -486.89, 0.000, 0.000, 0.000, 16:27:03.574, 1602451623574
96, -157.63, -266.54, -1192.26, -221.90, 0.000, 0.000, 0.000, 16:27:03.574, 1602451623574
97, -165.29, -276.97, -1213.75, -431.42, 0.000, 0.000, 0.000, 16:27:03.587, 1602451623587
98, -151.83, -281.53, -1194.60, -573.28, 0.000, 0.000, 0.000, 16:27:03.587, 1602451623587
99, -143.08, -259.18, -1184.59, -275.48, 0.000, 0.000, 0.000, 16:27:03.603, 1602451623603
100, -170.59, -264.13, -1183.89, -323.99, 0.000, 0.000, 0.000, 16:27:03.603, 1602451623603
101, -160.38, -257.11, -1207.39, -553.42, 0.000, 0.000, 0.000, 16:27:03.604, 1602451623604
102, -148.24, -241.47, -1169.00, -384.72, 0.000, 0.000, 0.000, 16:27:03.604, 1602451623604
103, -166.34, -268.44, -1184.57, -246.84, 0.000, 0.000, 0.000, 16:27:03.617, 1602451623617
104, -149.58, -252.86, -1188.69, -487.11, 0.000, 0.000, 0.000, 16:27:03.617, 1602451623617
105, -131.83, -238.39, -1188.68, -486.82, 0.000, 0.000, 0.000, 16:27:03.633, 1602451623633
106, -161.24, -269.36, -1199.64, -228.80, 0.000, 0.000, 0.000, 16:27:03.633, 1602451623633
107, -158.68, -270.17, -1203.01, -425.06, 0.000, 0.000, 0.000, 16:27:03.634, 1602451623634
108, -132.59, -235.66, -1168.83, -542.01, 0.000, 0.000, 0.000, 16:27:03.634, 1602451623634
109, -136.56, -240.97, -1174.15, -262.54, 0.000, 0.000, 0.000, 16:27:03.647, 1602451623647
110, -176.12, -291.28, -1222.04, -337.48, 0.000, 0.000, 0.000, 16:27:03.647, 1602451623647
111, -159.28, -280.96, -1237.11, -571.93, 0.000, 0.000, 0.000, 16:27:03.663, 1602451623663
112, -143.88, -239.43, -1173.51, -385.61, 0.000, 0.000, 0.000, 16:27:03.663, 1602451623663
113, -147.09, -255.00, -1185.48, -237.04, 0.000, 0.000, 0.000, 16:27:03.664, 1602451623664
114, -147.09, -268.82, -1222.75, -506.29, 0.000, 0.000, 0.000, 16:27:03.664, 1602451623664
115, -134.11, -254.40, -1158.45, -489.34, 0.000, 0.000, 0.000, 16:27:03.677, 1602451623677
116, -149.11, -265.10, -1188.89, -215.62, 0.000, 0.000, 0.000, 16:27:03.677, 1602451623677
117, -144.76, -263.35, -1205.21, -417.23, 0.000, 0.000, 0.000, 16:27:03.709, 1602451623709
118, -134.63, -243.96, -1171.05, -547.72, 0.000, 0.000, 0.000, 16:27:03.709, 1602451623709
119, -152.44, -236.62, -1179.75, -273.49, 0.000, 0.000, 0.000, 16:27:03.709, 1602451623709
120, -190.11, -276.45, -1221.02, -344.47, 0.000, 0.000, 0.000, 16:27:03.709, 1602451623709
121, -150.09, -260.20, -1199.74, -551.00, 0.000, 0.000, 0.000, 16:27:03.710, 1602451623710
122, -121.93, -240.89, -1192.26, -386.60, 0.000, 0.000, 0.000, 16:27:03.710, 1602451623710
123, -163.21, -284.94, -1231.68, -263.99, 0.000, 0.000, 0.000, 16:27:03.711, 1602451623711
124, -147.94, -262.60, -1178.95, -491.90, 0.000, 0.000, 0.000, 16:27:03.711, 1602451623711
125, -126.65, -228.13, -1141.42, -471.23, 0.000, 0.000, 0.000, 16:27:03.722, 1602451623722
126, -170.85, -263.04, -1206.34, -225.46, 0.000, 0.000, 0.000, 16:27:03.722, 1602451623722
127, -157.35, -256.71, -1224.25, -424.93, 0.000, 0.000, 0.000, 16:27:03.737, 1602451623737
128, -130.19, -245.81, -1193.60, -556.70, 0.000, 0.000, 0.000, 16:27:03.737, 1602451623737
129, -138.20, -252.93, -1202.61, -277.50, 0.000, 0.000, 0.000, 16:27:03.752, 1602451623752
130, -154.01, -275.03, -1213.22, -326.56, 0.000, 0.000, 0.000, 16:27:03.752, 1602451623752
131, -166.73, -264.80, -1175.59, -550.44, 0.000, 0.000, 0.000, 16:27:03.753, 1602451623753
132, -144.00, -233.50, -1157.72, -377.47, 0.000, 0.000, 0.000, 16:27:03.753, 1602451623753
133, -134.69, -243.99, -1205.00, -236.67, 0.000, 0.000, 0.000, 16:27:03.783, 1602451623783
134, -152.88, -251.00, -1202.50, -491.53, 0.000, 0.000, 0.000, 16:27:03.783, 1602451623783
135, -129.93, -238.20, -1170.98, -486.63, 0.000, 0.000, 0.000, 16:27:03.784, 1602451623784
136, -155.60, -273.88, -1213.09, -225.01, 0.000, 0.000, 0.000, 16:27:03.784, 1602451623784
137, -181.41, -289.99, -1224.66, -437.62, 0.000, 0.000, 0.000, 16:27:03.784, 1602451623784
138, -146.81, -243.04, -1178.09, -556.10, 0.000, 0.000, 0.000, 16:27:03.784, 1602451623784
139, -127.70, -227.60, -1160.23, -256.65, 0.000, 0.000, 0.000, 16:27:03.798, 1602451623798
140, -149.59, -243.96, -1192.19, -315.10, 0.000, 0.000, 0.000, 16:27:03.798, 1602451623798
141, -150.08, -253.54, -1194.70, -550.78, 0.000, 0.000, 0.000, 16:27:03.813, 1602451623813
142, -146.37, -260.01, -1194.31, -400.24, 0.000, 0.000, 0.000, 16:27:03.813, 1602451623813
143, -162.11, -276.86, -1221.71, -261.20, 0.000, 0.000, 0.000, 16:27:03.813, 1602451623813
144, -158.81, -266.77, -1198.56, -504.91, 0.000, 0.000, 0.000, 16:27:03.813, 1602451623813
145, -123.94, -219.88, -1157.10, -484.47, 0.000, 0.000, 0.000, 16:27:03.827, 1602451623827
146, -150.86, -249.99, -1180.48, -212.25, 0.000, 0.000, 0.000, 16:27:03.827, 1602451623827
147, -170.91, -262.90, -1203.33, -424.75, 0.000, 0.000, 0.000, 16:27:03.843, 1602451623843
148, -137.53, -240.15, -1173.50, -556.15, 0.000, 0.000, 0.000, 16:27:03.843, 1602451623843
149, -142.22, -249.09, -1178.79, -273.96, 0.000, 0.000, 0.000, 16:27:03.844, 1602451623844
150, -185.34, -284.86, -1245.31, -347.76, 0.000, 0.000, 0.000, 16:27:03.844, 1602451623844
151, -151.89, -261.52, -1203.32, -558.92, 0.000, 0.000, 0.000, 16:27:03.857, 1602451623857
152, -129.53, -239.51, -1154.98, -380.05, 0.000, 0.000, 0.000, 16:27:03.857, 1602451623857
153, -165.92, -254.01, -1206.82, -250.00, 0.000, 0.000, 0.000, 16:27:03.873, 1602451623873
154, -155.48, -258.53, -1196.65, -500.60, 0.000, 0.000, 0.000, 16:27:03.873, 1602451623873
155, -138.40, -252.13, -1170.80, -504.46, 0.000, 0.000, 0.000, 16:27:03.874, 1602451623874
156, -155.59, -244.24, -1198.40, -216.08, 0.000, 0.000, 0.000, 16:27:03.874, 1602451623874
157, -153.19, -251.84, -1203.60, -410.83, 0.000, 0.000, 0.000, 16:27:03.887, 1602451623887
158, -128.68, -233.63, -1170.40, -554.68, 0.000, 0.000, 0.000, 16:27:03.887, 1602451623887
159, -146.31, -275.45, -1203.59, -284.73, 0.000, 0.000, 0.000, 16:27:03.903, 1602451623903
160, -181.84, -286.58, -1211.65, -331.40, 0.000, 0.000, 0.000, 16:27:03.903, 1602451623903
161, -150.04, -235.90, -1163.86, -540.39, 0.000, 0.000, 0.000, 16:27:03.904, 1602451623904
162, -111.92, -208.02, -1142.66, -363.43, 0.000, 0.000, 0.000, 16:27:03.904, 1602451623904
163, -167.76, -289.85, -1218.75, -249.44, 0.000, 0.000, 0.000, 16:27:03.917, 1602451623917
164, -158.17, -249.84, -1213.36, -495.77, 0.000, 0.000, 0.000, 16:27:03.917, 1602451623917
165, -126.70, -230.45, -1204.38, -498.76, 0.000, 0.000, 0.000, 16:27:03.933, 1602451623933
166, -159.49, -253.53, -1184.94, -211.79, 0.000, 0.000, 0.000, 16:27:03.933, 1602451623933
167, -163.35, -272.31, -1185.06, -418.23, 0.000, 0.000, 0.000, 16:27:03.934, 1602451623934
168, -133.55, -244.76, -1164.60, -551.86, 0.000, 0.000, 0.000, 16:27:03.934, 1602451623934
169, -147.08, -251.82, -1187.28, -269.25, 0.000, 0.000, 0.000, 16:27:03.947, 1602451623947
170, -142.04, -250.33, -1208.36, -309.76, 0.000, 0.000, 0.000, 16:27:03.947, 1602451623947
171, -124.30, -253.68, -1210.66, -545.70, 0.000, 0.000, 0.000, 16:27:03.963, 1602451623963
172, -116.35, -241.61, -1190.72, -382.35, 0.000, 0.000, 0.000, 16:27:03.963, 1602451623963
