%OpenBCI Raw EEG Data
%Number of channels = 4
%Sample Rate = 200 Hz
%Board = OpenBCI_GUI$BoardGanglionBLE
Sample Index, EXG Channel 0, EXG Channel 1, EXG Channel 2, EXG Channel 3, Accel Channel 0, Accel Channel 1, Accel Channel 2, Other, Other, Other, Other, Other, Timestamp, Other, Timestamp (Formatted)
0.0, 2409.546483351849, 1158.9819066184573, 1138.6256311596371, 1448.3566656899638, 0.0, 0.0, 0.0, 0.0, 0.0, 0.0, 0.0, 0.0, 1.645062123662364E9, 0.0, 2022-02-16 19:42:03.662
1.0, 2433.2050904715434, 1152.0817912002094, 1119.5035226861946, 1450.6492243628018, 0.0, 0.0800000037997961, 0.0, 0.0, 0.0, 0.0, 0.0, 0.0, 1.6450621236630948E9, 0.0, 2022-02-16 19:42:03.663
1.0, 2533.322212285362, 1143.7193748992868, 1120.7863083709963, 1452.4219369417988, 0.0, 0.0800000037997961, 0.0, 0.0, 0.0, 0.0, 0.0, 0.0, 1.6450621236630948E9, 0.0, 2022-02-16 19:42:03.663
2.0, 2629.482519946061, 1132.9447231269442, 1121.8895788579248, 1495.4719253317453, 0.09600000455975533, 0.0800000037997961, 0.0, 0.0, 0.0, 0.0, 0.0, 0.0, 1.6450621236777189E9, 0.0, 2022-02-16 19:42:03.677
2.0, 2721.0053516617045, 1113.9909101515077, 1111.6983514786698, 1610.9226369638927, 0.09600000455975533, 0.0800000037997961, 0.0, 0.0, 0.0, 0.0, 0.0, 0.0, 1.6450621236777189E9, 0.0, 2022-02-16 19:42:03.677
3.0, 2806.0918155536056, 1105.7818297487684, 1086.1062160818838, 1609.314479982946, 0.09600000455975533, 0.0800000037997961, 0.0, 0.0, 0.0, 0.0, 0.0, 0.0, 1.6450621236791751E9, 0.0, 2022-02-16 19:42:03.679
3.0, 2983.6697452496737, 1130.065000161063, 1097.5540498462506, 1574.387554296758, 0.09600000455975533, 0.0800000037997961, 0.0, 0.0, 0.0, 0.0, 0.0, 0.0, 1.6450621236791751E9, 0.0, 2022-02-16 19:42:03.679
4.0, 3018.907082632184, 1108.0631687217392, 1080.9488940429874, 1497.0651227128692, 0.09600000455975533, 0.0800000037997961, 0.0, 0.0, 0.0, 0.0, 0.0, 0.0, 1.6450621237079773E9, 0.0, 2022-02-16 19:42:03.707
4.0, 3055.9545315932482, 1090.650194528047, 1073.0464854366146, 1503.8156421328895, 0.09600000455975533, 0.0800000037997961, 0.0, 0.0, 0.0, 0.0, 0.0, 0.0, 1.6450621237079773E9, 0.0, 2022-02-16 19:42:03.707
5.0, 3027.867882926017, 1093.5598366935737, 1070.593111065682, 1669.8858996652998, 0.09600000455975533, 0.0800000037997961, 0.0, 0.0, 0.0, 0.0, 0.0, 0.0, 1.6450621237085972E9, 0.0, 2022-02-16 19:42:03.708
5.0, 2922.529860774055, 1084.5803368999623, 1071.5056466548704, 1558.51541888481, 0.09600000455975533, 0.0800000037997961, 0.0, 0.0, 0.0, 0.0, 0.0, 0.0, 1.6450621237085972E9, 0.0, 2022-02-16 19:42:03.708
6.0, 2821.3132083732635, 1077.7624992807396, 1062.5822453605942, 1640.684760811273, 0.09600000455975533, 0.0800000037997961, 0.0, 0.0, 0.0, 0.0, 0.0, 0.0, 1.6450621237093742E9, 0.0, 2022-02-16 19:42:03.709
6.0, 2784.796825205907, 1079.120082964655, 1062.6383438599296, 1570.7673311396502, 0.09600000455975533, 0.0800000037997961, 0.0, 0.0, 0.0, 0.0, 0.0, 0.0, 1.6450621237093742E9, 0.0, 2022-02-16 19:42:03.709
7.0, 2736.256663681008, 1091.712326115463, 1069.4374819793738, 1498.852794891689, 0.09600000455975533, 0.0800000037997961, 0.0, 0.0, 0.0, 0.0, 0.0, 0.0, 1.6450621237214391E9, 0.0, 2022-02-16 19:42:03.721
7.0, 2704.4974332572892, 1086.9776127715595, 1054.1225916608237, 1536.4387894463725, 0.09600000455975533, 0.0800000037997961, 0.0, 0.0, 0.0, 0.0, 0.0, 0.0, 1.6450621237214391E9, 0.0, 2022-02-16 19:42:03.721
8.0, 2673.261788827367, 1072.7024146406911, 1050.9810756980442, 1566.4814057904296, 0.09600000455975533, 0.0800000037997961, 0.0, 0.0, 0.0, 0.0, 0.0, 0.0, 1.6450621237372527E9, 0.0, 2022-02-16 19:42:03.737
8.0, 2697.9226891351864, 1078.2935650744475, 1065.1253773304634, 1626.1963883829303, 0.09600000455975533, 0.0800000037997961, 0.0, 0.0, 0.0, 0.0, 0.0, 0.0, 1.6450621237372527E9, 0.0, 2022-02-16 19:42:03.737
9.0, 2588.5343553312123, 1089.4010679428466, 1063.6368971480988, 1601.3260536775924, 0.09600000455975533, 0.0800000037997961, 0.0, 0.0, 0.0, 0.0, 0.0, 0.0, 1.645062123737995E9, 0.0, 2022-02-16 19:42:03.737
9.0, 2570.9381260396913, 1080.7880783448927, 1049.3355197175406, 1689.2959804353304, 0.09600000455975533, 0.0800000037997961, 0.0, 0.0, 0.0, 0.0, 0.0, 0.0, 1.645062123737995E9, 0.0, 2022-02-16 19:42:03.737
10.0, 2594.929584255442, 1069.0784515836276, 1054.0253542619757, 1593.9173118653707, 0.09600000455975533, 0.0800000037997961, 1.008000047877431, 0.0, 0.0, 0.0, 0.0, 0.0, 1.6450621237514575E9, 0.0, 2022-02-16 19:42:03.751
10.0, 2518.721642858349, 1077.0631379890256, 1066.527839813847, 1620.7323945476674, 0.09600000455975533, 0.0800000037997961, 1.008000047877431, 0.0, 0.0, 0.0, 0.0, 0.0, 1.6450621237514575E9, 0.0, 2022-02-16 19:42:03.751
11.0, 2452.78346673958, 1079.7970048566349, 1048.8755120229907, 1595.6414057449438, 0.09600000455975533, 0.03200000151991844, 1.008000047877431, 0.0, 0.0, 0.0, 0.0, 0.0, 1.6450621237672493E9, 0.0, 2022-02-16 19:42:03.767
11.0, 2433.874532563612, 1085.0216450947337, 1048.871772123035, 1581.4634450129233, 0.09600000455975533, 0.03200000151991844, 1.008000047877431, 0.0, 0.0, 0.0, 0.0, 0.0, 1.6450621237672493E9, 0.0, 2022-02-16 19:42:03.767
12.0, 2412.082135521807, 1098.6161814336665, 1056.5722261318006, 1726.1676540984772, 0.04800000227987766, 0.03200000151991844, 1.008000047877431, 0.0, 0.0, 0.0, 0.0, 0.0, 1.6450621237679474E9, 0.0, 2022-02-16 19:42:03.767
12.0, 2398.199626886286, 1095.6878397683613, 1049.548694015015, 1635.957527267281, 0.04800000227987766, 0.03200000151991844, 1.008000047877431, 0.0, 0.0, 0.0, 0.0, 0.0, 1.6450621237679474E9, 0.0, 2022-02-16 19:42:03.767
13.0, 2345.627853209153, 1092.1872934098355, 1046.5268548508175, 1659.4328792891465, 0.04800000227987766, 0.03200000151991844, 1.008000047877431, 0.0, 0.0, 0.0, 0.0, 0.0, 1.6450621237814395E9, 0.0, 2022-02-16 19:42:03.781
13.0, 2291.1749098543078, 1095.4559659711085, 1060.4841614854522, 1586.4412518539466, 0.04800000227987766, 0.03200000151991844, 1.008000047877431, 0.0, 0.0, 0.0, 0.0, 0.0, 1.6450621237814395E9, 0.0, 2022-02-16 19:42:03.781
14.0, 2242.1373416353017, 1097.3296558489092, 1057.507201120723, 1639.4842529254965, 0.04800000227987766, 0.03200000151991844, 1.008000047877431, 0.0, 0.0, 0.0, 0.0, 0.0, 1.6450621237971988E9, 0.0, 2022-02-16 19:42:03.797
14.0, 2216.683582536876, 1076.9472010903992, 1045.472203063313, 1703.5711785661988, 0.04800000227987766, 0.03200000151991844, 1.008000047877431, 0.0, 0.0, 0.0, 0.0, 0.0, 1.6450621237971988E9, 0.0, 2022-02-16 19:42:03.797
15.0, 2172.122674564831, 1081.8015912328847, 1056.0075012384914, 1690.0626599262469, 0.04800000227987766, 0.03200000151991844, 1.008000047877431, 0.0, 0.0, 0.0, 0.0, 0.0, 1.6450621237979147E9, 0.0, 2022-02-16 19:42:03.797
15.0, 2182.732770739123, 1102.6290940861218, 1069.8488709744997, 1627.815765063744, 0.04800000227987766, 0.03200000151991844, 1.008000047877431, 0.0, 0.0, 0.0, 0.0, 0.0, 1.6450621237979147E9, 0.0, 2022-02-16 19:42:03.797
16.0, 2218.179542519152, 1094.4050540835597, 1060.4280629861169, 1731.7924636318348, 0.04800000227987766, 0.03200000151991844, 1.008000047877431, 0.0, 0.0, 0.0, 0.0, 0.0, 1.6450621238114703E9, 0.0, 2022-02-16 19:42:03.811
16.0, 2157.4136480391026, 1092.4191672070883, 1054.7396751535125, 1688.892071240116, 0.04800000227987766, 0.03200000151991844, 1.008000047877431, 0.0, 0.0, 0.0, 0.0, 0.0, 1.6450621238114703E9, 0.0, 2022-02-16 19:42:03.811
17.0, 2145.74516017735, 1108.2314642197452, 1060.9105100804009, 1637.0271386546083, 0.04800000227987766, 0.03200000151991844, 1.008000047877431, 0.0, 0.0, 0.0, 0.0, 0.0, 1.645062123843615E9, 0.0, 2022-02-16 19:42:03.843
17.0, 2277.157764820382, 1089.782537738327, 1048.557620526757, 1688.5704398439266, 0.04800000227987766, 0.03200000151991844, 1.008000047877431, 0.0, 0.0, 0.0, 0.0, 0.0, 1.645062123843615E9, 0.0, 2022-02-16 19:42:03.843
18.0, 2129.8206661660224, 1085.6387285874225, 1045.48342276318, 1688.806053541135, 0.04800000227987766, 0.03200000151991844, 1.008000047877431, 0.0, 0.0, 0.0, 0.0, 0.0, 1.6450621238442993E9, 0.0, 2022-02-16 19:42:03.844
18.0, 2082.83630302269, 1089.9732726360671, 1057.8849310162477, 1681.6815441255458, 0.04800000227987766, 0.03200000151991844, 1.008000047877431, 0.0, 0.0, 0.0, 0.0, 0.0, 1.6450621238442993E9, 0.0, 2022-02-16 19:42:03.844
19.0, 2123.4740559412166, 1076.0795443006791, 1050.9249771987088, 1756.3561265408061, 0.04800000227987766, 0.03200000151991844, 1.008000047877431, 0.0, 0.0, 0.0, 0.0, 0.0, 1.6450621238451335E9, 0.0, 2022-02-16 19:42:03.845
19.0, 2029.6586655527353, 1075.4998598075472, 1041.1974974139594, 1783.2721865219064, 0.04800000227987766, 0.03200000151991844, 1.008000047877431, 0.0, 0.0, 0.0, 0.0, 0.0, 1.6450621238451335E9, 0.0, 2022-02-16 19:42:03.845
20.0, 2098.599981335923, 1090.7848309264518, 1054.3769048578106, 1759.288208106067, 0.04800000227987766, 0.03200000151991844, 0.5120000243186951, 0.0, 0.0, 0.0, 0.0, 0.0, 1.645062123845811E9, 0.0, 2022-02-16 19:42:03.845
20.0, 2076.3774957992136, 1092.8268163022585, 1054.780814053025, 1675.432171299588, 0.04800000227987766, 0.03200000151991844, 0.5120000243186951, 0.0, 0.0, 0.0, 0.0, 0.0, 1.645062123845811E9, 0.0, 2022-02-16 19:42:03.845
21.0, 2036.2446293747053, 1092.6547809042968, 1041.8631996060722, 1793.4484543013386, 0.04800000227987766, 0.04800000227987766, 0.5120000243186951, 0.0, 0.0, 0.0, 0.0, 0.0, 1.6450621238564873E9, 0.0, 2022-02-16 19:42:03.856
21.0, 2106.0947408471256, 1092.7707178029232, 1050.0161815094762, 1771.4241834622808, 0.04800000227987766, 0.04800000227987766, 0.5120000243186951, 0.0, 0.0, 0.0, 0.0, 0.0, 1.6450621238564873E9, 0.0, 2022-02-16 19:42:03.856
22.0, 2039.3562261378393, 1120.367439575959, 1060.5813988843001, 1629.6296165422536, 0.06400000303983688, 0.04800000227987766, 0.5120000243186951, 0.0, 0.0, 0.0, 0.0, 0.0, 1.645062123871518E9, 0.0, 2022-02-16 19:42:03.871
22.0, 2128.328446083702, 1096.0842691636644, 1045.326346965041, 1712.8049915567972, 0.06400000303983688, 0.04800000227987766, 0.5120000243186951, 0.0, 0.0, 0.0, 0.0, 0.0, 1.645062123871518E9, 0.0, 2022-02-16 19:42:03.871
23.0, 2007.4735790155828, 1091.2186593213119, 1044.9336574696936, 1757.3060611295514, 0.06400000303983688, 0.04800000227987766, 0.5120000243186951, 0.0, 0.0, 0.0, 0.0, 0.0, 1.6450621238873956E9, 0.0, 2022-02-16 19:42:03.887
23.0, 2022.2237444408238, 1102.7786900843494, 1053.299813670572, 1824.1679925373755, 0.06400000303983688, 0.04800000227987766, 0.5120000243186951, 0.0, 0.0, 0.0, 0.0, 0.0, 1.6450621238873956E9, 0.0, 2022-02-16 19:42:03.887
24.0, 2052.7188886795193, 1102.1840459913947, 1049.4813758158125, 1728.0376040763222, 0.06400000303983688, 0.04800000227987766, 0.5120000243186951, 0.0, 0.0, 0.0, 0.0, 0.0, 1.6450621238878818E9, 0.0, 2022-02-16 19:42:03.887
24.0, 2015.6190811190754, 1086.7719182739966, 1037.0499483630992, 1720.6064228643663, 0.06400000303983688, 0.04800000227987766, 0.5120000243186951, 0.0, 0.0, 0.0, 0.0, 0.0, 1.6450621238878818E9, 0.0, 2022-02-16 19:42:03.887
25.0, 2097.1489001531154, 1098.2309717382304, 1036.088794074487, 1792.8799895080738, 0.06400000303983688, 0.04800000227987766, 0.5120000243186951, 0.0, 0.0, 0.0, 0.0, 0.0, 1.645062123901562E9, 0.0, 2022-02-16 19:42:03.901
25.0, 2002.6042292732745, 1099.1023684279062, 1044.4063315759413, 1745.2897625719197, 0.06400000303983688, 0.04800000227987766, 0.5120000243186951, 0.0, 0.0, 0.0, 0.0, 0.0, 1.645062123901562E9, 0.0, 2022-02-16 19:42:03.901
26.0, 2041.6712242104113, 1087.5311179650016, 1028.1265470688231, 1745.372040370945, 0.06400000303983688, 0.04800000227987766, 0.5120000243186951, 0.0, 0.0, 0.0, 0.0, 0.0, 1.6450621239171183E9, 0.0, 2022-02-16 19:42:03.917
26.0, 1990.0643447218463, 1082.9123415197246, 1027.6254004747607, 1716.7692855098285, 0.06400000303983688, 0.04800000227987766, 0.5120000243186951, 0.0, 0.0, 0.0, 0.0, 0.0, 1.6450621239171183E9, 0.0, 2022-02-16 19:42:03.917
27.0, 1943.6895852712914, 1093.4700790946372, 1040.513095722068, 1779.3714708681218, 0.06400000303983688, 0.04800000227987766, 0.5120000243186951, 0.0, 0.0, 0.0, 0.0, 0.0, 1.6450621239178605E9, 0.0, 2022-02-16 19:42:03.917
27.0, 1970.0147410593927, 1082.1755812284537, 1030.478944140952, 1916.0573344486766, 0.06400000303983688, 0.04800000227987766, 0.5120000243186951, 0.0, 0.0, 0.0, 0.0, 0.0, 1.6450621239178605E9, 0.0, 2022-02-16 19:42:03.917
28.0, 1995.6293158559129, 1080.253272651229, 1020.71032545669, 1881.799850854557, 0.06400000303983688, 0.04800000227987766, 0.5120000243186951, 0.0, 0.0, 0.0, 0.0, 0.0, 1.6450621239478512E9, 0.0, 2022-02-16 19:42:03.947
28.0, 1977.1579499747604, 1107.5769817274995, 1037.2444231607951, 1844.7711013932712, 0.06400000303983688, 0.04800000227987766, 0.5120000243186951, 0.0, 0.0, 0.0, 0.0, 0.0, 1.6450621239478512E9, 0.0, 2022-02-16 19:42:03.947
29.0, 1965.007015018724, 1111.23834378412, 1038.403792147059, 1684.9539565867744, 0.06400000303983688, 0.04800000227987766, 0.5120000243186951, 0.0, 0.0, 0.0, 0.0, 0.0, 1.645062123948661E9, 0.0, 2022-02-16 19:42:03.948
29.0, 2085.428053691983, 1081.6856543342583, 1022.7784901321866, 1671.909185541328, 0.06400000303983688, 0.04800000227987766, 0.5120000243186951, 0.0, 0.0, 0.0, 0.0, 0.0, 1.645062123948661E9, 0.0, 2022-02-16 19:42:03.948
30.0, 2045.654217663221, 1088.7054465510882, 1031.66075252695, 1706.7613132284023, 0.06400000303983688, 0.04800000227987766, 0.7520000357180834, 0.0, 0.0, 0.0, 0.0, 0.0, 1.6450621239493563E9, 0.0, 2022-02-16 19:42:03.949
30.0, 1955.3767726328224, 1085.3731956905685, 1035.509109581355, 1787.8535639676265, 0.06400000303983688, 0.04800000227987766, 0.7520000357180834, 0.0, 0.0, 0.0, 0.0, 0.0, 1.6450621239493563E9, 0.0, 2022-02-16 19:42:03.949
31.0, 2077.9445138806477, 1084.5691172000952, 1021.6266009458341, 1898.2105318601243, 0.06400000303983688, 0.06400000303983688, 0.7520000357180834, 0.0, 0.0, 0.0, 0.0, 0.0, 1.6450621239614916E9, 0.0, 2022-02-16 19:42:03.961
31.0, 2001.0484308917075, 1084.1577282049693, 1025.9761045943014, 1954.5895236921497, 0.06400000303983688, 0.06400000303983688, 0.7520000357180834, 0.0, 0.0, 0.0, 0.0, 0.0, 1.6450621239614916E9, 0.0, 2022-02-16 19:42:03.961
32.0, 2003.6140022613108, 1094.498551582452, 1039.6005601328798, 1922.8751720678993, 0.0800000037997961, 0.06400000303983688, 0.7520000357180834, 0.0, 0.0, 0.0, 0.0, 0.0, 1.6450621239771905E9, 0.0, 2022-02-16 19:42:03.977
32.0, 1957.093386712484, 1089.9283938365988, 1027.3224685783498, 2158.468299826607, 0.0800000037997961, 0.06400000303983688, 0.7520000357180834, 0.0, 0.0, 0.0, 0.0, 0.0, 1.6450621239771905E9, 0.0, 2022-02-16 19:42:03.977
33.0, 2014.7850834289566, 1064.9570818324573, 1028.2200445677154, 2205.6807968672365, 0.0800000037997961, 0.06400000303983688, 0.7520000357180834, 0.0, 0.0, 0.0, 0.0, 0.0, 1.6450621239779935E9, 0.0, 2022-02-16 19:42:03.977
33.0, 1973.593825316988, 1085.511571988929, 1032.543368916493, 2244.5757564064115, 0.0800000037997961, 0.06400000303983688, 0.7520000357180834, 0.0, 0.0, 0.0, 0.0, 0.0, 1.6450621239779935E9, 0.0, 2022-02-16 19:42:03.977
34.0, 1968.189669881016, 1077.5119259837084, 1022.9991442295723, 2209.970462116413, 0.0800000037997961, 0.06400000303983688, 0.7520000357180834, 0.0, 0.0, 0.0, 0.0, 0.0, 1.6450621239914775E9, 0.0, 2022-02-16 19:42:03.991
34.0, 1936.120027760975, 1066.0865316190757, 1015.9195136134513, 2169.5496233953163, 0.0800000037997961, 0.06400000303983688, 0.7520000357180834, 0.0, 0.0, 0.0, 0.0, 0.0, 1.6450621239914775E9, 0.0, 2022-02-16 19:42:03.991
35.0, 2064.854864035733, 1074.7630995162763, 1019.5584362703376, 2292.910223433748, 0.0800000037997961, 0.06400000303983688, 0.7520000357180834, 0.0, 0.0, 0.0, 0.0, 0.0, 1.645062124007207E9, 0.0, 2022-02-16 19:42:04.007
35.0, 2018.4539252854884, 1075.7653927044012, 1017.7819837913848, 2302.024359625764, 0.0800000037997961, 0.06400000303983688, 0.7520000357180834, 0.0, 0.0, 0.0, 0.0, 0.0, 1.645062124007207E9, 0.0, 2022-02-16 19:42:04.007
36.0, 1960.627592170611, 1066.1650695181452, 1008.0245848069899, 2198.5413278518245, 0.0800000037997961, 0.06400000303983688, 0.7520000357180834, 0.0, 0.0, 0.0, 0.0, 0.0, 1.6450621240081227E9, 0.0, 2022-02-16 19:42:04.008
36.0, 2084.575356502086, 1059.6464238953777, 1002.0482246777974, 2169.916133590974, 0.0800000037997961, 0.06400000303983688, 0.7520000357180834, 0.0, 0.0, 0.0, 0.0, 0.0, 1.6450621240081227E9, 0.0, 2022-02-16 19:42:04.008
37.0, 2013.58457554318, 1087.224446168635, 1020.6130880578421, 2218.4899542154744, 0.0800000037997961, 0.06400000303983688, 0.7520000357180834, 0.0, 0.0, 0.0, 0.0, 0.0, 1.6450621240214825E9, 0.0, 2022-02-16 19:42:04.021
37.0, 2051.8362722899765, 1063.8051926461048, 1013.3988210433163, 2262.6544327922165, 0.0800000037997961, 0.06400000303983688, 0.7520000357180834, 0.0, 0.0, 0.0, 0.0, 0.0, 1.6450621240214825E9, 0.0, 2022-02-16 19:42:04.021
38.0, 2006.5049449270591, 1069.0036535845138, 1009.6103023882024, 2239.5081919664517, 0.0800000037997961, 0.06400000303983688, 0.7520000357180834, 0.0, 0.0, 0.0, 0.0, 0.0, 1.6450621240371788E9, 0.0, 2022-02-16 19:42:04.037
38.0, 1934.1491004843265, 1083.8323569088243, 1026.608147686813, 2312.062251106836, 0.0800000037997961, 0.06400000303983688, 0.7520000357180834, 0.0, 0.0, 0.0, 0.0, 0.0, 1.6450621240371788E9, 0.0, 2022-02-16 19:42:04.037
39.0, 1944.5722016608343, 1075.7840922041796, 1028.9268856593408, 2341.9440517527983, 0.0800000037997961, 0.06400000303983688, 0.7520000357180834, 0.0, 0.0, 0.0, 0.0, 0.0, 1.6450621240381823E9, 0.0, 2022-02-16 19:42:04.038
39.0, 1945.3688003513962, 1061.3518182751723, 1012.8041769503616, 2287.1619972018525, 0.0800000037997961, 0.06400000303983688, 0.7520000357180834, 0.0, 0.0, 0.0, 0.0, 0.0, 1.6450621240381823E9, 0.0, 2022-02-16 19:42:04.038
40.0, 1943.4988503735512, 1075.3764431090094, 1022.9954043296166, 2216.7284613363445, 0.0800000037997961, 0.06400000303983688, 0.8800000417977571, 0.0, 0.0, 0.0, 0.0, 0.0, 1.6450621240514667E9, 0.0, 2022-02-16 19:42:04.051
40.0, 1923.7072998080403, 1075.8140114038251, 1022.146447039675, 2302.89575631544, 0.0800000037997961, 0.06400000303983688, 0.8800000417977571, 0.0, 0.0, 0.0, 0.0, 0.0, 1.6450621240514667E9, 0.0, 2022-02-16 19:42:04.051
41.0, 2004.1600276548415, 1052.9445231747814, 1004.2547656516545, 2386.1908081285655, 0.0800000037997961, 0.06400000303983688, 0.8800000417977571, 0.0, 0.0, 0.0, 0.0, 0.0, 1.6450621240670035E9, 0.0, 2022-02-16 19:42:04.067
41.0, 1864.7926558060572, 1068.9325954853557, 1018.29808998527, 2257.257757156156, 0.0800000037997961, 0.06400000303983688, 0.8800000417977571, 0.0, 0.0, 0.0, 0.0, 0.0, 1.6450621240670035E9, 0.0, 2022-02-16 19:42:04.067
42.0, 1946.6403663363308, 1083.233972915914, 1017.8380822907202, 2279.4578032931313, 0.09600000455975533, 0.06400000303983688, 0.8800000417977571, 0.0, 0.0, 0.0, 0.0, 0.0, 1.645062124081926E9, 0.0, 2022-02-16 19:42:04.081
42.0, 1921.4035214353353, 1063.1843692534603, 1014.4160738312639, 2360.7333091301844, 0.09600000455975533, 0.06400000303983688, 0.8800000417977571, 0.0, 0.0, 0.0, 0.0, 0.0, 1.645062124081926E9, 0.0, 2022-02-16 19:42:04.081
43.0, 1949.639766100794, 1051.3849848932587, 1001.0197521899827, 2485.720765649341, 0.09600000455975533, 0.06400000303983688, 0.8800000417977571, 0.0, 0.0, 0.0, 0.0, 0.0, 1.6450621240978916E9, 0.0, 2022-02-16 19:42:04.097
43.0, 1820.5945181297138, 1061.3368586753495, 1023.3506948254071, 2284.1925166370347, 0.09600000455975533, 0.06400000303983688, 0.8800000417977571, 0.0, 0.0, 0.0, 0.0, 0.0, 1.6450621240978916E9, 0.0, 2022-02-16 19:42:04.097
44.0, 1943.958858068101, 1068.6446231887676, 1023.0851619285531, 2320.1329552112147, 0.09600000455975533, 0.06400000303983688, 0.8800000417977571, 0.0, 0.0, 0.0, 0.0, 0.0, 1.6450621240986705E9, 0.0, 2022-02-16 19:42:04.098
44.0, 1966.5815129000694, 1071.8646770506166, 1005.9863393311389, 2224.679488642141, 0.09600000455975533, 0.06400000303983688, 0.8800000417977571, 0.0, 0.0, 0.0, 0.0, 0.0, 1.6450621240986705E9, 0.0, 2022-02-16 19:42:04.098
45.0, 1915.3336638072506, 1068.0649386956356, 1010.8556890734471, 2353.3395269177854, 0.09600000455975533, 0.06400000303983688, 0.8800000417977571, 0.0, 0.0, 0.0, 0.0, 0.0, 1.6450621240994508E9, 0.0, 2022-02-16 19:42:04.099
45.0, 1871.7713091233745, 1080.9339344431646, 1015.0219376240857, 2326.8909544311464, 0.09600000455975533, 0.06400000303983688, 0.8800000417977571, 0.0, 0.0, 0.0, 0.0, 0.0, 1.6450621240994508E9, 0.0, 2022-02-16 19:42:04.099
46.0, 1861.176172548905, 1063.8949502450414, 999.6584286061116, 2360.6585111310706, 0.09600000455975533, 0.06400000303983688, 0.8800000417977571, 0.0, 0.0, 0.0, 0.0, 0.0, 1.6450621241115825E9, 0.0, 2022-02-16 19:42:04.111
46.0, 1756.2046605926007, 1062.0025608674623, 1001.2628456871025, 2455.2256214106455, 0.09600000455975533, 0.06400000303983688, 0.8800000417977571, 0.0, 0.0, 0.0, 0.0, 0.0, 1.6450621241115825E9, 0.0, 2022-02-16 19:42:04.111
47.0, 1841.98674587626, 1069.1083707832731, 1005.900321632158, 2306.36638347432, 0.09600000455975533, 0.06400000303983688, 0.8800000417977571, 0.0, 0.0, 0.0, 0.0, 0.0, 1.645062124143592E9, 0.0, 2022-02-16 19:42:04.143
47.0, 1886.480335649103, 1067.0177667080425, 1014.849902226124, 2351.910885134712, 0.09600000455975533, 0.06400000303983688, 0.8800000417977571, 0.0, 0.0, 0.0, 0.0, 0.0, 1.645062124143592E9, 0.0, 2022-02-16 19:42:04.143
48.0, 1887.8080001333728, 1062.7879398581572, 1001.5433381837793, 2332.1941325683147, 0.09600000455975533, 0.06400000303983688, 0.8800000417977571, 0.0, 0.0, 0.0, 0.0, 0.0, 1.6450621241443489E9, 0.0, 2022-02-16 19:42:04.144
48.0, 1860.0691621620208, 1075.2268471107818, 1002.9420607672073, 2280.4451368814334, 0.09600000455975533, 0.06400000303983688, 0.8800000417977571, 0.0, 0.0, 0.0, 0.0, 0.0, 1.6450621241443489E9, 0.0, 2022-02-16 19:42:04.144
49.0, 1796.9882696093991, 1061.7744269701652, 1006.7492789220996, 2244.8038903037086, 0.09600000455975533, 0.06400000303983688, 0.8800000417977571, 0.0, 0.0, 0.0, 0.0, 0.0, 1.6450621241452277E9, 0.0, 2022-02-16 19:42:04.145
49.0, 1737.4864613143727, 1054.5938190552406, 998.9590673143975, 2282.7264758544043, 0.09600000455975533, 0.06400000303983688, 0.8800000417977571, 0.0, 0.0, 0.0, 0.0, 0.0, 1.6450621241452277E9, 0.0, 2022-02-16 19:42:04.145
50.0, 1785.7835293421522, 1083.0843769176863, 1016.6113951052539, 2306.575817871839, 0.09600000455975533, 0.06400000303983688, 0.944000044837594, 0.0, 0.0, 0.0, 0.0, 0.0, 1.6450621241457968E9, 0.0, 2022-02-16 19:42:04.145
50.0, 1736.7497010231018, 1077.5455850833096, 1015.8559353142045, 2464.1527626048774, 0.09600000455975533, 0.06400000303983688, 0.944000044837594, 0.0, 0.0, 0.0, 0.0, 0.0, 1.6450621241457968E9, 0.0, 2022-02-16 19:42:04.145
51.0, 1709.7738026427105, 1079.90546195535, 1010.5527571770363, 2461.819065032527, 0.09600000455975533, 0.06400000303983688, 0.944000044837594, 0.0, 0.0, 0.0, 0.0, 0.0, 1.645062124156495E9, 0.0, 2022-02-16 19:42:04.156
51.0, 1652.1232448257506, 1075.1557890116237, 1017.2322184978984, 2271.6189729860052, 0.09600000455975533, 0.06400000303983688, 0.944000044837594, 0.0, 0.0, 0.0, 0.0, 0.0, 1.645062124156495E9, 0.0, 2022-02-16 19:42:04.156
52.0, 1773.0454300930724, 1085.6948270867579, 1022.1501869396307, 2165.0393040487543, 0.09600000455975533, 0.06400000303983688, 0.944000044837594, 0.0, 0.0, 0.0, 0.0, 0.0, 1.6450621241715257E9, 0.0, 2022-02-16 19:42:04.171
52.0, 1656.895357169211, 1077.2127339872532, 1015.7998368148692, 2213.9534555692226, 0.09600000455975533, 0.06400000303983688, 0.944000044837594, 0.0, 0.0, 0.0, 0.0, 0.0, 1.6450621241715257E9, 0.0, 2022-02-16 19:42:04.171
53.0, 1633.304068248719, 1077.0070394896902, 1009.4644462899305, 2221.1153639843687, 0.09600000455975533, 0.06400000303983688, 0.944000044837594, 0.0, 0.0, 0.0, 0.0, 0.0, 1.6450621241872003E9, 0.0, 2022-02-16 19:42:04.187
53.0, 1604.1104091946036, 1088.2155196568929, 1020.3325955611654, 2338.0321163991466, 0.09600000455975533, 0.06400000303983688, 0.944000044837594, 0.0, 0.0, 0.0, 0.0, 0.0, 1.6450621241872003E9, 0.0, 2022-02-16 19:42:04.187
54.0, 1661.5029139146209, 1078.0429917774163, 1015.874634813983, 2322.133801687509, 0.09600000455975533, 0.06400000303983688, 0.944000044837594, 0.0, 0.0, 0.0, 0.0, 0.0, 1.64506212418796E9, 0.0, 2022-02-16 19:42:04.187
54.0, 1660.885830421932, 1066.3670241157524, 1011.1885401695035, 2405.2381186028942, 0.09600000455975533, 0.06400000303983688, 0.944000044837594, 0.0, 0.0, 0.0, 0.0, 0.0, 1.64506212418796E9, 0.0, 2022-02-16 19:42:04.187
55.0, 1607.2145261578262, 1086.644761675503, 1028.2686632671393, 2349.4088920643553, 0.09600000455975533, 0.06400000303983688, 0.944000044837594, 0.0, 0.0, 0.0, 0.0, 0.0, 1.645062124201503E9, 0.0, 2022-02-16 19:42:04.201
55.0, 1660.8409516224638, 1101.9334726943634, 1023.1898791273125, 2364.93695668038, 0.09600000455975533, 0.06400000303983688, 0.944000044837594, 0.0, 0.0, 0.0, 0.0, 0.0, 1.645062124201503E9, 0.0, 2022-02-16 19:42:04.201
56.0, 1623.378373766318, 1080.4739267486148, 1016.0840692115016, 2273.5188421634957, 0.09600000455975533, 0.06400000303983688, 0.944000044837594, 0.0, 0.0, 0.0, 0.0, 0.0, 1.645062124216885E9, 0.0, 2022-02-16 19:42:04.216
56.0, 1743.0476925484836, 1079.7296866574325, 1012.4601061544381, 2282.861112252809, 0.09600000455975533, 0.06400000303983688, 0.944000044837594, 0.0, 0.0, 0.0, 0.0, 0.0, 1.645062124216885E9, 0.0, 2022-02-16 19:42:04.216
57.0, 1588.6347031779587, 1101.4659851999022, 1032.5246694167145, 2404.736972008832, 0.09600000455975533, 0.06400000303983688, 0.944000044837594, 0.0, 0.0, 0.0, 0.0, 0.0, 1.6450621242322052E9, 0.0, 2022-02-16 19:42:04.232
57.0, 1698.2212516795844, 1084.9917258950882, 1028.2275243676268, 2454.582358618267, 0.09600000455975533, 0.06400000303983688, 0.944000044837594, 0.0, 0.0, 0.0, 0.0, 0.0, 1.6450621242322052E9, 0.0, 2022-02-16 19:42:04.232
58.0, 1656.0912786787376, 1080.073757453356, 1020.9982977532782, 2573.219465012662, 0.09600000455975533, 0.06400000303983688, 0.944000044837594, 0.0, 0.0, 0.0, 0.0, 0.0, 1.6450621242328892E9, 0.0, 2022-02-16 19:42:04.232
58.0, 1746.8736102031544, 1084.221306504216, 1020.8412219551392, 2775.031946421601, 0.09600000455975533, 0.06400000303983688, 0.944000044837594, 0.0, 0.0, 0.0, 0.0, 0.0, 1.6450621242328892E9, 0.0, 2022-02-16 19:42:04.232
59.0, 1798.4917093915865, 1067.6423300006427, 1018.8478552787565, 2700.578018103726, 0.09600000455975533, 0.06400000303983688, 0.944000044837594, 0.0, 0.0, 0.0, 0.0, 0.0, 1.6450621242472332E9, 0.0, 2022-02-16 19:42:04.247
59.0, 1806.1360649010167, 1054.6648771543987, 1000.8364970921539, 2793.473393103108, 0.09600000455975533, 0.06400000303983688, 0.944000044837594, 0.0, 0.0, 0.0, 0.0, 0.0, 1.6450621242472332E9, 0.0, 2022-02-16 19:42:04.247
60.0, 1765.4908321825787, 1065.6751426239498, 999.400375509169, 2684.096278999001, 0.09600000455975533, 0.06400000303983688, 0.9920000471174717, 0.0, 0.0, 0.0, 0.0, 0.0, 1.6450621242480404E9, 0.0, 2022-02-16 19:42:04.248
60.0, 1698.4830446764827, 1079.5875704591163, 1012.5872627529316, 2687.232185111847, 0.09600000455975533, 0.06400000303983688, 0.9920000471174717, 0.0, 0.0, 0.0, 0.0, 0.0, 1.6450621242480404E9, 0.0, 2022-02-16 19:42:04.248
61.0, 1693.4528792360798, 1076.7377666928805, 1011.73830546299, 2506.430461653974, 0.09600000455975533, 0.0800000037997961, 0.9920000471174717, 0.0, 0.0, 0.0, 0.0, 0.0, 1.645062124261444E9, 0.0, 2022-02-16 19:42:04.261
61.0, 1750.448954560794, 1081.8539498322643, 1012.5498637533747, 2540.549568949733, 0.09600000455975533, 0.0800000037997961, 0.9920000471174717, 0.0, 0.0, 0.0, 0.0, 0.0, 1.645062124261444E9, 0.0, 2022-02-16 19:42:04.261
62.0, 1754.5441450122744, 1097.079082551878, 1018.5561430822127, 2451.554909604136, 0.09600000455975533, 0.0800000037997961, 0.9920000471174717, 0.0, 0.0, 0.0, 0.0, 0.0, 1.6450621242771492E9, 0.0, 2022-02-16 19:42:04.277
62.0, 1675.4976195488125, 1079.927901355084, 1012.2357121570967, 2557.4613965493627, 0.09600000455975533, 0.0800000037997961, 0.9920000471174717, 0.0, 0.0, 0.0, 0.0, 0.0, 1.6450621242771492E9, 0.0, 2022-02-16 19:42:04.277
63.0, 1610.292463821359, 1075.3876628088765, 1014.6030688290484, 2583.820211437065, 0.09600000455975533, 0.0800000037997961, 0.9920000471174717, 0.0, 0.0, 0.0, 0.0, 0.0, 1.645062124277811E9, 0.0, 2022-02-16 19:42:04.277
63.0, 1524.2336259409785, 1096.596635457594, 1032.5994674158283, 2634.200403740164, 0.09600000455975533, 0.0800000037997961, 0.9920000471174717, 0.0, 0.0, 0.0, 0.0, 0.0, 1.645062124277811E9, 0.0, 2022-02-16 19:42:04.277
64.0, 1549.519089541398, 1087.3179436675273, 1028.0854081693105, 2652.110784627963, 0.09600000455975533, 0.0800000037997961, 0.9920000471174717, 0.0, 0.0, 0.0, 0.0, 0.0, 1.6450621243078156E9, 0.0, 2022-02-16 19:42:04.307
64.0, 1495.1072850860655, 1076.9546808903106, 1009.8272165856324, 2713.0000958065502, 0.09600000455975533, 0.0800000037997961, 0.9920000471174717, 0.0, 0.0, 0.0, 0.0, 0.0, 1.6450621243078156E9, 0.0, 2022-02-16 19:42:04.307
65.0, 1437.3146110707894, 1077.190294587519, 1017.5912488936447, 2758.4398802681826, 0.09600000455975533, 0.0800000037997961, 0.9920000471174717, 0.0, 0.0, 0.0, 0.0, 0.0, 1.6450621243085904E9, 0.0, 2022-02-16 19:42:04.308
65.0, 1483.7903478201479, 1077.4595673843287, 1011.4428533664905, 2809.814885959495, 0.09600000455975533, 0.0800000037997961, 0.9920000471174717, 0.0, 0.0, 0.0, 0.0, 0.0, 1.6450621243085904E9, 0.0, 2022-02-16 19:42:04.308
66.0, 1461.8333951802924, 1068.1846154942177, 1007.396281614434, 2809.908383458387, 0.09600000455975533, 0.0800000037997961, 0.9920000471174717, 0.0, 0.0, 0.0, 0.0, 0.0, 1.6450621243093057E9, 0.0, 2022-02-16 19:42:04.309
66.0, 1489.3553189542145, 1075.1670087114908, 1010.5751965767704, 2776.7354708514176, 0.09600000455975533, 0.0800000037997961, 0.9920000471174717, 0.0, 0.0, 0.0, 0.0, 0.0, 1.6450621243093057E9, 0.0, 2022-02-16 19:42:04.309
67.0, 1427.7404671842232, 1088.492272253614, 1021.6041615460999, 2838.5597570189275, 0.09600000455975533, 0.0800000037997961, 0.9920000471174717, 0.0, 0.0, 0.0, 0.0, 0.0, 1.6450621243215187E9, 0.0, 2022-02-16 19:42:04.321
67.0, 1367.0755500029773, 1071.546785554383, 1014.5918491291814, 2750.814224258531, 0.09600000455975533, 0.0800000037997961, 0.9920000471174717, 0.0, 0.0, 0.0, 0.0, 0.0, 1.6450621243215187E9, 0.0, 2022-02-16 19:42:04.321
68.0, 1428.118197079748, 1076.3151579978876, 1005.7843847335316, 2814.1269906084053, 0.09600000455975533, 0.0800000037997961, 0.9920000471174717, 0.0, 0.0, 0.0, 0.0, 0.0, 1.645062124337155E9, 0.0, 2022-02-16 19:42:04.337
68.0, 1357.5799440154806, 1094.1582206864841, 1029.6075474512763, 2840.82239649212, 0.09600000455975533, 0.0800000037997961, 0.9920000471174717, 0.0, 0.0, 0.0, 0.0, 0.0, 1.645062124337155E9, 0.0, 2022-02-16 19:42:04.337
69.0, 1393.7634760867804, 1083.9221145077609, 1023.5002908236347, 2971.0232735495083, 0.09600000455975533, 0.0800000037997961, 0.9920000471174717, 0.0, 0.0, 0.0, 0.0, 0.0, 1.6450621243379252E9, 0.0, 2022-02-16 19:42:04.337
69.0, 1492.1415444212034, 1067.6198906009085, 1012.4675859543495, 2731.8491915832274, 0.09600000455975533, 0.0800000037997961, 0.9920000471174717, 0.0, 0.0, 0.0, 0.0, 0.0, 1.6450621243379252E9, 0.0, 2022-02-16 19:42:04.337
70.0, 1441.6715945191681, 1082.9609602191485, 1022.9168664305471, 2825.7169405710883, 0.09600000455975533, 0.0800000037997961, 0.9920000471174717, 0.0, 0.0, 0.0, 0.0, 0.0, 1.6450621243514185E9, 0.0, 2022-02-16 19:42:04.351
70.0, 1427.2654998898506, 1094.715465779882, 1028.683792162221, 2784.3835662608035, 0.09600000455975533, 0.0800000037997961, 0.9920000471174717, 0.0, 0.0, 0.0, 0.0, 0.0, 1.6450621243514185E9, 0.0, 2022-02-16 19:42:04.351
71.0, 1463.1610596645623, 1065.286193028558, 1007.8525494090281, 2803.1242049387656, 0.09600000455975533, 0.06400000303983688, 0.9920000471174717, 0.0, 0.0, 0.0, 0.0, 0.0, 1.645062124367758E9, 0.0, 2022-02-16 19:42:04.367
71.0, 1445.2992974761873, 1075.911248802673, 1003.8171973568387, 2820.8775100284256, 0.09600000455975533, 0.06400000303983688, 0.9920000471174717, 0.0, 0.0, 0.0, 0.0, 0.0, 1.645062124367758E9, 0.0, 2022-02-16 19:42:04.367
72.0, 1401.4714098954573, 1087.706893262919, 1016.3234228086658, 2731.348044989165, 0.09600000455975533, 0.06400000303983688, 0.9920000471174717, 0.0, 0.0, 0.0, 0.0, 0.0, 1.645062124368539E9, 0.0, 2022-02-16 19:42:04.368
72.0, 1455.0454767607152, 1079.071464265231, 1007.6431150115095, 2749.7558325710706, 0.09600000455975533, 0.06400000303983688, 0.9920000471174717, 0.0, 0.0, 0.0, 0.0, 0.0, 1.645062124368539E9, 0.0, 2022-02-16 19:42:04.368
73.0, 1357.3555500181392, 1073.427955232095, 997.4518876322545, 2769.1995724407025, 0.09600000455975533, 0.06400000303983688, 0.9920000471174717, 0.0, 0.0, 0.0, 0.0, 0.0, 1.6450621243978467E9, 0.0, 2022-02-16 19:42:04.397
73.0, 1419.976434876211, 1069.990987172816, 1009.602822588291, 2868.886605759617, 0.09600000455975533, 0.06400000303983688, 0.9920000471174717, 0.0, 0.0, 0.0, 0.0, 0.0, 1.6450621243978467E9, 0.0, 2022-02-16 19:42:04.397
74.0, 1327.2680548746139, 1084.1278090053238, 1007.7179130106233, 2814.033493109513, 0.09600000455975533, 0.06400000303983688, 0.9920000471174717, 0.0, 0.0, 0.0, 0.0, 0.0, 1.6450621243985157E9, 0.0, 2022-02-16 19:42:04.398
74.0, 1314.182144929655, 1075.585877506528, 1001.3114643865265, 2860.213777762372, 0.09600000455975533, 0.06400000303983688, 0.9920000471174717, 0.0, 0.0, 0.0, 0.0, 0.0, 1.6450621243985157E9, 0.0, 2022-02-16 19:42:04.398
75.0, 1398.3186742328107, 1095.1642537745647, 1010.616335476283, 2871.549414528068, 0.09600000455975533, 0.06400000303983688, 0.9920000471174717, 0.0, 0.0, 0.0, 0.0, 0.0, 1.6450621243993614E9, 0.0, 2022-02-16 19:42:04.399
75.0, 1291.4061541995034, 1092.7931572026573, 1014.4908718303777, 2716.051854170393, 0.09600000455975533, 0.06400000303983688, 0.9920000471174717, 0.0, 0.0, 0.0, 0.0, 0.0, 1.6450621243993614E9, 0.0, 2022-02-16 19:42:04.399
76.0, 1331.643737822771, 1082.4149348256178, 1003.9892327548005, 2847.0044511188753, 0.09600000455975533, 0.06400000303983688, 0.9920000471174717, 0.0, 0.0, 0.0, 0.0, 0.0, 1.6450621244115827E9, 0.0, 2022-02-16 19:42:04.411
76.0, 1300.2734569944441, 1089.7862776382826, 1013.2006063456647, 2737.17480912013, 0.09600000455975533, 0.06400000303983688, 0.9920000471174717, 0.0, 0.0, 0.0, 0.0, 0.0, 1.6450621244115827E9, 0.0, 2022-02-16 19:42:04.411
77.0, 1264.4639149187133, 1084.800990997348, 1017.1125416993164, 2813.4500687164254, 0.09600000455975533, 0.06400000303983688, 0.9920000471174717, 0.0, 0.0, 0.0, 0.0, 0.0, 1.645062124442632E9, 0.0, 2022-02-16 19:42:04.442
77.0, 1220.2395979426801, 1068.809178786818, 1000.907555191312, 2864.604420310352, 0.09600000455975533, 0.06400000303983688, 0.9920000471174717, 0.0, 0.0, 0.0, 0.0, 0.0, 1.645062124442632E9, 0.0, 2022-02-16 19:42:04.442
78.0, 1309.6007674839348, 1063.3302253517322, 999.3891558093019, 2792.469229965005, 0.09600000455975533, 0.06400000303983688, 0.9920000471174717, 0.0, 0.0, 0.0, 0.0, 0.0, 1.645062124443252E9, 0.0, 2022-02-16 19:42:04.443
78.0, 1231.5116564091295, 1078.9555273666047, 1013.1781669459306, 2776.234324257355, 0.09600000455975533, 0.06400000303983688, 0.9920000471174717, 0.0, 0.0, 0.0, 0.0, 0.0, 1.645062124443252E9, 0.0, 2022-02-16 19:42:04.443
79.0, 1329.5082549480721, 1068.4800675907172, 1006.5024455250241, 2792.024181870278, 0.09600000455975533, 0.06400000303983688, 0.9920000471174717, 0.0, 0.0, 0.0, 0.0, 0.0, 1.645062124458573E9, 0.0, 2022-02-16 19:42:04.458
79.0, 1251.9315101671964, 1051.1344115962274, 992.2422069939785, 2830.5264519141056, 0.09600000455975533, 0.06400000303983688, 0.9920000471174717, 0.0, 0.0, 0.0, 0.0, 0.0, 1.645062124458573E9, 0.0, 2022-02-16 19:42:04.458
80.0, 1156.0479551032186, 1082.4934727246873, 1000.3316105981357, 2745.44372792216, 0.09600000455975533, 0.06400000303983688, 1.008000047877431, 0.0, 0.0, 0.0, 0.0, 0.0, 1.6450621244616277E9, 0.0, 2022-02-16 19:42:04.461
80.0, 1191.9135956782848, 1083.0918567175977, 1011.3082169680856, 2783.856240367051, 0.09600000455975533, 0.06400000303983688, 1.008000047877431, 0.0, 0.0, 0.0, 0.0, 0.0, 1.6450621244616277E9, 0.0, 2022-02-16 19:42:04.461
81.0, 1285.3250768715516, 1066.2361276173033, 1003.0692173657008, 2901.958541067783, 0.09600000455975533, 0.0800000037997961, 1.008000047877431, 0.0, 0.0, 0.0, 0.0, 0.0, 1.6450621244618492E9, 0.0, 2022-02-16 19:42:04.461
81.0, 1243.8271469632164, 1066.2660468169488, 996.4271550443955, 2876.8862517648377, 0.09600000455975533, 0.0800000037997961, 1.008000047877431, 0.0, 0.0, 0.0, 0.0, 0.0, 1.6450621244618492E9, 0.0, 2022-02-16 19:42:04.461
82.0, 1244.881798750721, 1071.4158890559338, 998.0876706247218, 2850.5124772773124, 0.09600000455975533, 0.0800000037997961, 1.008000047877431, 0.0, 0.0, 0.0, 0.0, 0.0, 1.6450621244715374E9, 0.0, 2022-02-16 19:42:04.471
82.0, 1296.694372736849, 1058.8909641043283, 990.8472243105061, 2793.770715149585, 0.09600000455975533, 0.0800000037997961, 1.008000047877431, 0.0, 0.0, 0.0, 0.0, 0.0, 1.6450621244715374E9, 0.0, 2022-02-16 19:42:04.471
83.0, 1233.9351115804166, 1071.7562199519016, 1006.431387425866, 2861.6162402457558, 0.09600000455975533, 0.0800000037997961, 1.008000047877431, 0.0, 0.0, 0.0, 0.0, 0.0, 1.6450621244871988E9, 0.0, 2022-02-16 19:42:04.487
83.0, 1274.9992130938917, 1083.7014604103751, 1020.9309795540757, 2828.966913632583, 0.09600000455975533, 0.0800000037997961, 1.008000047877431, 0.0, 0.0, 0.0, 0.0, 0.0, 1.6450621244871988E9, 0.0, 2022-02-16 19:42:04.487
84.0, 1259.209355480969, 1078.9966662661172, 1019.7267317683436, 2825.7393799708225, 0.09600000455975533, 0.0800000037997961, 1.008000047877431, 0.0, 0.0, 0.0, 0.0, 0.0, 1.6450621244879203E9, 0.0, 2022-02-16 19:42:04.487
84.0, 1147.094634609297, 1070.6454696650617, 1019.034850276541, 2816.0904380851425, 0.09600000455975533, 0.0800000037997961, 1.008000047877431, 0.0, 0.0, 0.0, 0.0, 0.0, 1.6450621244879203E9, 0.0, 2022-02-16 19:42:04.487
85.0, 1143.8147423481569, 1081.8801291319542, 1029.323315054644, 2772.7449975986965, 0.09600000455975533, 0.0800000037997961, 1.008000047877431, 0.0, 0.0, 0.0, 0.0, 0.0, 1.645062124501594E9, 0.0, 2022-02-16 19:42:04.501
85.0, 1149.0057234866545, 1082.7814450212754, 1032.6892250147648, 2670.9449208048172, 0.09600000455975533, 0.0800000037997961, 1.008000047877431, 0.0, 0.0, 0.0, 0.0, 0.0, 1.645062124501594E9, 0.0, 2022-02-16 19:42:04.501
86.0, 1142.7077319612727, 1070.050825572107, 1024.5175436115824, 2685.0630431375466, 0.09600000455975533, 0.0800000037997961, 1.008000047877431, 0.0, 0.0, 0.0, 0.0, 0.0, 1.645062124517196E9, 0.0, 2022-02-16 19:42:04.517
86.0, 1201.6934340624139, 1072.2237074463628, 1020.9347194540314, 2754.0866367197596, 0.09600000455975533, 0.0800000037997961, 1.008000047877431, 0.0, 0.0, 0.0, 0.0, 0.0, 1.645062124517196E9, 0.0, 2022-02-16 19:42:04.517
87.0, 1228.2317641479895, 1064.8299252339639, 1026.6605062861927, 2646.310199796688, 0.09600000455975533, 0.0800000037997961, 1.008000047877431, 0.0, 0.0, 0.0, 0.0, 0.0, 1.645062124517918E9, 0.0, 2022-02-16 19:42:04.517
87.0, 1209.494865369983, 1059.474388497416, 1009.2811911921017, 2645.259287909139, 0.09600000455975533, 0.0800000037997961, 1.008000047877431, 0.0, 0.0, 0.0, 0.0, 0.0, 1.645062124517918E9, 0.0, 2022-02-16 19:42:04.517
88.0, 1092.8623453518376, 1047.2897944417782, 1012.9612527485006, 2669.333023923915, 0.09600000455975533, 0.0800000037997961, 1.008000047877431, 0.0, 0.0, 0.0, 0.0, 0.0, 1.6450621245314808E9, 0.0, 2022-02-16 19:42:04.531
88.0, 1245.1174124479294, 1078.9480475666933, 1018.6234612814151, 2633.7852748450823, 0.09600000455975533, 0.0800000037997961, 1.008000047877431, 0.0, 0.0, 0.0, 0.0, 0.0, 1.6450621245314808E9, 0.0, 2022-02-16 19:42:04.531
89.0, 1262.2311946451664, 1086.2071933806874, 1008.6416682996787, 2629.9331778907217, 0.09600000455975533, 0.0800000037997961, 1.008000047877431, 0.0, 0.0, 0.0, 0.0, 0.0, 1.645062124547413E9, 0.0, 2022-02-16 19:42:04.547
89.0, 1042.8337036445737, 1077.661521981936, 1009.1502946936525, 2515.6979337441735, 0.09600000455975533, 0.0800000037997961, 1.008000047877431, 0.0, 0.0, 0.0, 0.0, 0.0, 1.645062124547413E9, 0.0, 2022-02-16 19:42:04.547
90.0, 1099.5792056722566, 1078.3421837738715, 1018.7954966793768, 2483.9574028202333, 0.09600000455975533, 0.0800000037997961, 1.008000047877431, 0.0, 0.0, 0.0, 0.0, 0.0, 1.6450621245479476E9, 0.0, 2022-02-16 19:42:04.547
90.0, 1127.5573972407728, 1082.4934727246873, 1017.3668548963033, 2578.5357327996753, 0.09600000455975533, 0.0800000037997961, 1.008000047877431, 0.0, 0.0, 0.0, 0.0, 0.0, 1.6450621245479476E9, 0.0, 2022-02-16 19:42:04.547
91.0, 1171.4226838210598, 1061.2022222769447, 1006.3004909274168, 2547.3711464689113, 0.09600000455975533, 0.0800000037997961, 1.008000047877431, 0.0, 0.0, 0.0, 0.0, 0.0, 1.645062124561427E9, 0.0, 2022-02-16 19:42:04.561
91.0, 1153.6992979310453, 1073.1100637358613, 1008.854842597153, 2462.4043593755923, 0.09600000455975533, 0.0800000037997961, 1.008000047877431, 0.0, 0.0, 0.0, 0.0, 0.0, 1.645062124561427E9, 0.0, 2022-02-16 19:42:04.561
92.0, 1088.4567432040349, 1088.5932495524175, 1022.6737729334272, 2384.4760639988817, 0.09600000455975533, 0.0800000037997961, 1.008000047877431, 0.0, 0.0, 0.0, 0.0, 0.0, 1.645062124577191E9, 0.0, 2022-02-16 19:42:04.577
92.0, 1089.769448088482, 1064.007147243712, 1006.6258622235619, 2472.333793757949, 0.09600000455975533, 0.0800000037997961, 1.008000047877431, 0.0, 0.0, 0.0, 0.0, 0.0, 1.645062124577191E9, 0.0, 2022-02-16 19:42:04.577
93.0, 1134.9511794531718, 1059.2125955005176, 1000.1894943998195, 2522.34747586539, 0.09600000455975533, 0.0800000037997961, 1.008000047877431, 0.0, 0.0, 0.0, 0.0, 0.0, 1.6450621245779357E9, 0.0, 2022-02-16 19:42:04.577
93.0, 1175.9965814668685, 1071.703861352522, 1004.4155813497491, 2314.4165181289427, 0.09600000455975533, 0.0800000037997961, 1.008000047877431, 0.0, 0.0, 0.0, 0.0, 0.0, 1.6450621245779357E9, 0.0, 2022-02-16 19:42:04.577
94.0, 1149.3273548828438, 1054.2347886594944, 997.3845694330521, 2389.696964337025, 0.09600000455975533, 0.0800000037997961, 1.008000047877431, 0.0, 0.0, 0.0, 0.0, 0.0, 1.6450621245914624E9, 0.0, 2022-02-16 19:42:04.591
94.0, 1026.5053004380316, 1061.47523497371, 995.0209526610561, 2327.0835592788644, 0.09600000455975533, 0.0800000037997961, 1.008000047877431, 0.0, 0.0, 0.0, 0.0, 0.0, 1.6450621245914624E9, 0.0, 2022-02-16 19:42:04.591
95.0, 1006.3509795768186, 1083.1442153169774, 1004.9578668433242, 2424.6313698231243, 0.09600000455975533, 0.0800000037997961, 1.008000047877431, 0.0, 0.0, 0.0, 0.0, 0.0, 1.6450621246071365E9, 0.0, 2022-02-16 19:42:04.607
95.0, 991.9748041471466, 1079.976520054508, 999.3966356092133, 2492.1178645235486, 0.09600000455975533, 0.0800000037997961, 1.008000047877431, 0.0, 0.0, 0.0, 0.0, 0.0, 1.6450621246071365E9, 0.0, 2022-02-16 19:42:04.607
96.0, 1088.2847078060731, 1063.4611218501814, 990.7799061113037, 2554.14036538871, 0.09600000455975533, 0.0800000037997961, 1.008000047877431, 0.0, 0.0, 0.0, 0.0, 0.0, 1.6450621246079924E9, 0.0, 2022-02-16 19:42:04.607
96.0, 1125.4368739658967, 1065.0730187310837, 994.0971973720007, 2320.819226853084, 0.09600000455975533, 0.0800000037997961, 1.008000047877431, 0.0, 0.0, 0.0, 0.0, 0.0, 1.6450621246079924E9, 0.0, 2022-02-16 19:42:04.607
97.0, 1022.1370972897857, 1083.7201599101536, 1006.8352966210805, 2367.429600000847, 0.09600000455975533, 0.0800000037997961, 1.008000047877431, 0.0, 0.0, 0.0, 0.0, 0.0, 1.6450621246214757E9, 0.0, 2022-02-16 19:42:04.621
97.0, 1020.6785363070667, 1065.5330264256336, 1003.3646694622003, 2355.936887437012, 0.09600000455975533, 0.0800000037997961, 1.008000047877431, 0.0, 0.0, 0.0, 0.0, 0.0, 1.6450621246214757E9, 0.0, 2022-02-16 19:42:04.621
98.0, 1077.5100560337305, 1065.7125416235067, 1000.9898329903372, 2367.1117085046135, 0.09600000455975533, 0.0800000037997961, 1.008000047877431, 0.0, 0.0, 0.0, 0.0, 0.0, 1.6450621246535287E9, 0.0, 2022-02-16 19:42:04.653
98.0, 1074.2750425720587, 1087.852749361191, 1011.255858368706, 2478.134378589224, 0.09600000455975533, 0.0800000037997961, 1.008000047877431, 0.0, 0.0, 0.0, 0.0, 0.0, 1.6450621246535287E9, 0.0, 2022-02-16 19:42:04.653
99.0, 1090.072379984893, 1082.6505485228263, 1008.9894789955579, 2415.333978533279, 0.09600000455975533, 0.0800000037997961, 1.008000047877431, 0.0, 0.0, 0.0, 0.0, 0.0, 1.64506212465433E9, 0.0, 2022-02-16 19:42:04.654
99.0, 1018.9581823274493, 1069.4449617792852, 1004.0490711540915, 2377.5310697811656, 0.09600000455975533, 0.0800000037997961, 1.008000047877431, 0.0, 0.0, 0.0, 0.0, 0.0, 1.64506212465433E9, 0.0, 2022-02-16 19:42:04.654
100.0, 1012.7200292013586, 1075.9449079022743, 1008.0881631062366, 2411.1677299826406, 0.09600000455975533, 0.0800000037997961, 1.008000047877431, 0.0, 0.0, 0.0, 0.0, 0.0, 1.6450621246550393E9, 0.0, 2022-02-16 19:42:04.655
100.0, 1090.349132581614, 1087.7891710619442, 1011.3418760676868, 2397.0944864493795, 0.09600000455975533, 0.0800000037997961, 1.008000047877431, 0.0, 0.0, 0.0, 0.0, 0.0, 1.6450621246550393E9, 0.0, 2022-02-16 19:42:04.655
0.0, 1062.5055774115026, 1069.7030148762278, 1001.7284632315859, 1540.823822144419, 0.09600000455975533, 0.0800000037997961, 1.008000047877431, 0.0, 0.0, 0.0, 0.0, 0.0, 1.6450621246558254E9, 0.0, 2022-02-16 19:42:04.655
1.0, 1056.4918182827532, 1051.9945885860361, 1002.1286325268447, 1414.7256153384224, 0.09600000455975533, 0.0800000037997961, 1.008000047877431, 0.0, 0.0, 0.0, 0.0, 0.0, 1.6450621246665392E9, 0.0, 2022-02-16 19:42:04.666
1.0, 971.588609488681, 1067.9490017970093, 1016.1943962601945, 1353.3987358650193, 0.09600000455975533, 0.0800000037997961, 1.008000047877431, 0.0, 0.0, 0.0, 0.0, 0.0, 1.6450621246665392E9, 0.0, 2022-02-16 19:42:04.666
2.0, 1020.4541423097253, 1070.701568164397, 1000.9804832404479, 1510.9083623988554, 0.09600000455975533, 0.0800000037997961, 1.008000047877431, 0.0, 0.0, 0.0, 0.0, 0.0, 1.6450621246985888E9, 0.0, 2022-02-16 19:42:04.698
2.0, 1009.4289172403514, 1063.876250745263, 995.7408834025264, 1456.784530240111, 0.09600000455975533, 0.0800000037997961, 1.008000047877431, 0.0, 0.0, 0.0, 0.0, 0.0, 1.6450621246985888E9, 0.0, 2022-02-16 19:42:04.698
3.0, 1085.1244923435152, 1082.0596443298273, 1002.5699407216161, 1447.0607903553173, 0.09600000455975533, 0.0800000037997961, 1.008000047877431, 0.0, 0.0, 0.0, 0.0, 0.0, 1.64506212469927E9, 0.0, 2022-02-16 19:42:04.699
3.0, 1048.7502253744751, 1078.8769894675352, 998.4373512705788, 1402.9561501778662, 0.09600000455975533, 0.0800000037997961, 1.008000047877431, 0.0, 0.0, 0.0, 0.0, 0.0, 1.64506212469927E9, 0.0, 2022-02-16 19:42:04.699
4.0, 926.1189058274031, 1067.6946886000223, 998.7477629669011, 1553.3749263957143, 0.09600000455975533, 0.0800000037997961, 1.008000047877431, 0.0, 0.0, 0.0, 0.0, 0.0, 1.6450621246999629E9, 0.0, 2022-02-16 19:42:04.699
4.0, 994.4842770174146, 1074.1796751231886, 1008.3144270535558, 1376.2831836938858, 0.09600000455975533, 0.0800000037997961, 1.008000047877431, 0.0, 0.0, 0.0, 0.0, 0.0, 1.6450621246999629E9, 0.0, 2022-02-16 19:42:04.699
5.0, 997.1919645853341, 1086.2483322802, 1017.1106717493385, 1444.5961962845176, 0.09600000455975533, 0.0800000037997961, 1.008000047877431, 0.0, 0.0, 0.0, 0.0, 0.0, 1.645062124700814E9, 0.0, 2022-02-16 19:42:04.700
5.0, 1030.45463479124, 1076.068324600812, 1001.5078091342002, 1479.3922254722565, 0.09600000455975533, 0.0800000037997961, 1.008000047877431, 0.0, 0.0, 0.0, 0.0, 0.0, 1.645062124700814E9, 0.0, 2022-02-16 19:42:04.700
6.0, 960.3539500217885, 1075.7466932046227, 999.7911950545385, 1422.3662309478968, 0.09600000455975533, 0.0800000037997961, 1.008000047877431, 0.0, 0.0, 0.0, 0.0, 0.0, 1.645062124727224E9, 0.0, 2022-02-16 19:42:04.727
6.0, 973.095789170824, 1069.5160198784433, 1009.2381823426113, 1423.050632639788, 0.09600000455975533, 0.0800000037997961, 1.008000047877431, 0.0, 0.0, 0.0, 0.0, 0.0, 1.645062124727224E9, 0.0, 2022-02-16 19:42:04.727
7.0, 1032.5863777659833, 1045.9359506578185, 1002.3231073245406, 1352.4151421766728, 0.09600000455975533, 0.0800000037997961, 1.008000047877431, 0.0, 0.0, 0.0, 0.0, 0.0, 1.6450621247278852E9, 0.0, 2022-02-16 19:42:04.727
7.0, 969.1688942173496, 1050.812780200038, 988.2349041914567, 1436.4955729804933, 0.09600000455975533, 0.0800000037997961, 1.008000047877431, 0.0, 0.0, 0.0, 0.0, 0.0, 1.6450621247278852E9, 0.0, 2022-02-16 19:42:04.727
8.0, 826.3047159099951, 1081.1620683404617, 1008.6921569490805, 1522.756365458481, 0.09600000455975533, 0.0800000037997961, 1.008000047877431, 0.0, 0.0, 0.0, 0.0, 0.0, 1.6450621247421374E9, 0.0, 2022-02-16 19:42:04.742
8.0, 966.3078707512468, 1076.5432918951847, 1000.3073012484238, 1452.3677083924413, 0.09600000455975533, 0.0800000037997961, 1.008000047877431, 0.0, 0.0, 0.0, 0.0, 0.0, 1.6450621247421374E9, 0.0, 2022-02-16 19:42:04.742
9.0, 923.104546463117, 1073.5289325308986, 998.5121492696926, 1375.3145496053621, 0.09600000455975533, 0.0800000037997961, 1.008000047877431, 0.0, 0.0, 0.0, 0.0, 0.0, 1.6450621247429109E9, 0.0, 2022-02-16 19:42:04.742
9.0, 926.2236230261624, 1081.3228840385564, 1006.3995982762426, 1420.0661924751475, 0.09600000455975533, 0.0800000037997961, 1.008000047877431, 0.0, 0.0, 0.0, 0.0, 0.0, 1.6450621247429109E9, 0.0, 2022-02-16 19:42:04.742
10.0, 904.1395137878135, 1081.3715027379803, 1002.64473872073, 1526.073656719178, 0.09600000455975533, 0.0800000037997961, 1.008000047877431, 0.0, 0.0, 0.0, 0.0, 0.0, 1.6450621247565596E9, 0.0, 2022-02-16 19:42:04.756
10.0, 929.6119723860174, 1060.704815582838, 986.0769819170237, 1494.9726486876607, 0.09600000455975533, 0.0800000037997961, 1.008000047877431, 0.0, 0.0, 0.0, 0.0, 0.0, 1.6450621247565596E9, 0.0, 2022-02-16 19:42:04.756
11.0, 938.2548811836168, 1076.9322414905764, 1001.0590211395174, 1308.6246535954997, 0.09600000455975533, 0.0800000037997961, 1.008000047877431, 0.0, 0.0, 0.0, 0.0, 0.0, 1.6450621247721593E9, 0.0, 2022-02-16 19:42:04.772
11.0, 912.2999754911289, 1066.4343423149548, 1006.6987902726978, 1401.6471851933748, 0.09600000455975533, 0.0800000037997961, 1.008000047877431, 0.0, 0.0, 0.0, 0.0, 0.0, 1.6450621247721593E9, 0.0, 2022-02-16 19:42:04.772
12.0, 879.1345426840708, 1053.5242076679133, 992.9022993361577, 1531.3992742560804, 0.09600000455975533, 0.0800000037997961, 1.008000047877431, 0.0, 0.0, 0.0, 0.0, 0.0, 1.6450621247729845E9, 0.0, 2022-02-16 19:42:04.772
12.0, 901.2897100215778, 1053.815919864457, 994.394519418478, 1421.8052459545434, 0.09600000455975533, 0.0800000037997961, 1.008000047877431, 0.0, 0.0, 0.0, 0.0, 0.0, 1.6450621247729845E9, 0.0, 2022-02-16 19:42:04.772
13.0, 909.0799216292799, 1081.6370356348343, 1005.0420145923272, 1327.4700094722211, 0.09600000455975533, 0.0800000037997961, 1.008000047877431, 0.0, 0.0, 0.0, 0.0, 0.0, 1.6450621247864337E9, 0.0, 2022-02-16 19:42:04.786
13.0, 951.2472936296836, 1081.2106870398857, 1002.3418068243191, 1405.9705095421523, 0.09600000455975533, 0.0800000037997961, 1.008000047877431, 0.0, 0.0, 0.0, 0.0, 0.0, 1.6450621247864337E9, 0.0, 2022-02-16 19:42:04.786
14.0, 872.8926496580243, 1070.1854619705118, 992.3525340426713, 1379.8585280515254, 0.09600000455975533, 0.0800000037997961, 1.008000047877431, 0.0, 0.0, 0.0, 0.0, 0.0, 1.64506212480213E9, 0.0, 2022-02-16 19:42:04.802
14.0, 873.7341271480545, 1079.9952195542865, 1004.6904639964923, 1410.9258769834414, 0.09600000455975533, 0.0800000037997961, 1.008000047877431, 0.0, 0.0, 0.0, 0.0, 0.0, 1.64506212480213E9, 0.0, 2022-02-16 19:42:04.802
15.0, 823.5035308431834, 1078.4431610726751, 1007.0428610686213, 1380.6962656416, 0.09600000455975533, 0.0800000037997961, 1.008000047877431, 0.0, 0.0, 0.0, 0.0, 0.0, 1.6450621248029842E9, 0.0, 2022-02-16 19:42:04.802
15.0, 832.3521341383457, 1066.9055697093718, 1003.1122262151912, 1464.7392974458635, 0.09600000455975533, 0.0800000037997961, 1.008000047877431, 0.0, 0.0, 0.0, 0.0, 0.0, 1.6450621248029842E9, 0.0, 2022-02-16 19:42:04.802
16.0, 927.446570311673, 1067.036466207821, 999.8547733537853, 1378.018497273326, 0.09600000455975533, 0.0800000037997961, 1.008000047877431, 0.0, 0.0, 0.0, 0.0, 0.0, 1.6450621248165524E9, 0.0, 2022-02-16 19:42:04.816
16.0, 844.9817762887105, 1079.8007447565906, 1016.3552119582891, 1441.8885087165982, 0.09600000455975533, 0.0800000037997961, 1.008000047877431, 0.0, 0.0, 0.0, 0.0, 0.0, 1.6450621248165524E9, 0.0, 2022-02-16 19:42:04.816
17.0, 905.8972667669877, 1072.6537959412672, 1001.7060238318518, 1442.5280316090211, 0.09600000455975533, 0.0800000037997961, 1.008000047877431, 0.0, 0.0, 0.0, 0.0, 0.0, 1.6450621248321874E9, 0.0, 2022-02-16 19:42:04.832
17.0, 835.1234000055119, 1065.7013219236396, 995.9839768996462, 1380.804722740315, 0.09600000455975533, 0.0800000037997961, 1.008000047877431, 0.0, 0.0, 0.0, 0.0, 0.0, 1.6450621248321874E9, 0.0, 2022-02-16 19:42:04.832
18.0, 841.3353738319129, 1094.0834226873703, 1023.4011834748089, 1445.7406056709588, 0.09600000455975533, 0.0800000037997961, 1.008000047877431, 0.0, 0.0, 0.0, 0.0, 0.0, 1.6450621248329203E9, 0.0, 2022-02-16 19:42:04.832
18.0, 892.2952506281435, 1082.459813625086, 1015.4090172694996, 1274.8309175958857, 0.09600000455975533, 0.0800000037997961, 1.008000047877431, 0.0, 0.0, 0.0, 0.0, 0.0, 1.6450621248329203E9, 0.0, 2022-02-16 19:42:04.832
19.0, 851.0329344170168, 1066.120190718677, 999.3835459593683, 1419.2583740847185, 0.09600000455975533, 0.0800000037997961, 1.008000047877431, 0.0, 0.0, 0.0, 0.0, 0.0, 1.6450621248464704E9, 0.0, 2022-02-16 19:42:04.846
19.0, 774.4173439247534, 1088.0247847591527, 1009.6196521380916, 1454.637827665545, 0.09600000455975533, 0.0800000037997961, 1.008000047877431, 0.0, 0.0, 0.0, 0.0, 0.0, 1.6450621248464704E9, 0.0, 2022-02-16 19:42:04.846
20.0, 776.5266474997625, 1104.6598597620614, 1020.2035690126941, 1236.3810061514378, 0.09600000455975533, 0.0800000037997961, 1.008000047877431, 0.0, 0.0, 0.0, 0.0, 0.0, 1.6450621248621435E9, 0.0, 2022-02-16 19:42:04.862
20.0, 803.3155508823693, 1079.987739754375, 997.0909872865304, 1416.3599516190588, 0.09600000455975533, 0.0800000037997961, 1.008000047877431, 0.0, 0.0, 0.0, 0.0, 0.0, 1.6450621248621435E9, 0.0, 2022-02-16 19:42:04.862
21.0, 874.4409682396799, 1073.173642035108, 996.3093481957912, 1318.4157116794959, 0.09600000455975533, 0.0800000037997961, 1.008000047877431, 0.0, 0.0, 0.0, 0.0, 0.0, 1.6450621248628993E9, 0.0, 2022-02-16 19:42:04.862
21.0, 778.7406682735309, 1071.5991441537626, 1015.1135651730001, 1351.6260232860222, 0.09600000455975533, 0.0800000037997961, 1.008000047877431, 0.0, 0.0, 0.0, 0.0, 0.0, 1.6450621248628993E9, 0.0, 2022-02-16 19:42:04.862
22.0, 769.3348198849708, 1063.7004754473455, 1005.6142192855477, 1358.081090609543, 0.09600000455975533, 0.0800000037997961, 1.008000047877431, 0.0, 0.0, 0.0, 0.0, 0.0, 1.6450621248929732E9, 0.0, 2022-02-16 19:42:04.892
22.0, 865.4839078458026, 1058.3224993110634, 995.1798984091729, 1344.983960964717, 0.09600000455975533, 0.0800000037997961, 1.008000047877431, 0.0, 0.0, 0.0, 0.0, 0.0, 1.6450621248929732E9, 0.0, 2022-02-16 19:42:04.892
23.0, 810.7130729947239, 1092.531364205759, 1006.2799214776605, 1372.5021448386833, 0.09600000455975533, 0.0800000037997961, 1.008000047877431, 0.0, 0.0, 0.0, 0.0, 0.0, 1.6450621248936148E9, 0.0, 2022-02-16 19:42:04.893
23.0, 814.3220764519647, 1085.6387285874225, 1002.5886402213946, 1333.4276701016352, 0.09600000455975533, 0.0800000037997961, 1.008000047877431, 0.0, 0.0, 0.0, 0.0, 0.0, 1.6450621248936148E9, 0.0, 2022-02-16 19:42:04.893
24.0, 783.9727883115411, 1062.7505408586003, 995.0153428111225, 1374.5665696142241, 0.09600000455975533, 0.0800000037997961, 1.008000047877431, 0.0, 0.0, 0.0, 0.0, 0.0, 1.6450621248945827E9, 0.0, 2022-02-16 19:42:04.894
24.0, 747.1385136479512, 1075.4138421085663, 1001.197397437878, 1358.7879317011684, 0.09600000455975533, 0.0800000037997961, 1.008000047877431, 0.0, 0.0, 0.0, 0.0, 0.0, 1.6450621248945827E9, 0.0, 2022-02-16 19:42:04.894
25.0, 728.1323420731351, 1089.2963507440872, 1019.8258391171694, 1268.3234916729853, 0.09600000455975533, 0.0800000037997961, 1.008000047877431, 0.0, 0.0, 0.0, 0.0, 0.0, 1.6450621249064524E9, 0.0, 2022-02-16 19:42:04.906
25.0, 789.0328729515895, 1081.8876089318655, 1011.5606602150947, 1318.7934415750206, 0.09600000455975533, 0.0800000037997961, 1.008000047877431, 0.0, 0.0, 0.0, 0.0, 0.0, 1.6450621249064524E9, 0.0, 2022-02-16 19:42:04.906
26.0, 771.5787598583847, 1075.4811603077687, 1010.1394982319325, 1411.4906018767506, 0.09600000455975533, 0.0800000037997961, 1.008000047877431, 0.0, 0.0, 0.0, 0.0, 0.0, 1.6450621249224467E9, 0.0, 2022-02-16 19:42:04.922
26.0, 746.5326498551294, 1100.0298636169173, 1016.2804139591753, 1364.5024988334626, 0.09600000455975533, 0.0800000037997961, 1.008000047877431, 0.0, 0.0, 0.0, 0.0, 0.0, 1.6450621249224467E9, 0.0, 2022-02-16 19:42:04.922
27.0, 725.8584829000756, 1086.513865177054, 1003.2094636140391, 1295.6359810493886, 0.09600000455975533, 0.0800000037997961, 1.008000047877431, 0.0, 0.0, 0.0, 0.0, 0.0, 1.6450621249228032E9, 0.0, 2022-02-16 19:42:04.922
27.0, 758.9678172077984, 1073.9403215260245, 1003.935004205443, 1244.6835840530694, 0.09600000455975533, 0.0800000037997961, 1.008000047877431, 0.0, 0.0, 0.0, 0.0, 0.0, 1.6450621249228032E9, 0.0, 2022-02-16 19:42:04.922
28.0, 731.2140196366236, 1075.140829411801, 1012.5891327029094, 1317.7537493873388, 0.09600000455975533, 0.0800000037997961, 1.008000047877431, 0.0, 0.0, 0.0, 0.0, 0.0, 1.6450621249364772E9, 0.0, 2022-02-16 19:42:04.936
28.0, 807.7286328300834, 1086.7158197746612, 1003.72930970788, 1276.0875239809975, 0.09600000455975533, 0.0800000037997961, 1.008000047877431, 0.0, 0.0, 0.0, 0.0, 0.0, 1.6450621249364772E9, 0.0, 2022-02-16 19:42:04.936
29.0, 821.5176439667121, 1062.4588286620565, 996.1111334981397, 1361.5367581686005, 0.09600000455975533, 0.0800000037997961, 1.008000047877431, 0.0, 0.0, 0.0, 0.0, 0.0, 1.6450621249521532E9, 0.0, 2022-02-16 19:42:04.952
29.0, 773.5235078353435, 1076.105723600369, 1013.7335420893505, 1287.576496644877, 0.09600000455975533, 0.0800000037997961, 1.008000047877431, 0.0, 0.0, 0.0, 0.0, 0.0, 1.6450621249521532E9, 0.0, 2022-02-16 19:42:04.952
30.0, 804.8676093639806, 1093.3354426962323, 1010.5808064267039, 1334.8563118847087, 0.09600000455975533, 0.0800000037997961, 1.008000047877431, 0.0, 0.0, 0.0, 0.0, 0.0, 1.645062124952881E9, 0.0, 2022-02-16 19:42:04.952
30.0, 795.166308878921, 1071.1914950585924, 995.4940500054508, 1242.8697325745597, 0.09600000455975533, 0.0800000037997961, 1.008000047877431, 0.0, 0.0, 0.0, 0.0, 0.0, 1.645062124952881E9, 0.0, 2022-02-16 19:42:04.952
31.0, 726.72239978984, 1056.422630133573, 993.9232920240611, 1308.7817293936387, 0.09600000455975533, 0.0800000037997961, 1.008000047877431, 0.0, 0.0, 0.0, 0.0, 0.0, 1.6450621249665048E9, 0.0, 2022-02-16 19:42:04.966
31.0, 744.5916417781264, 1082.9160814196803, 1006.7399291722104, 1277.5460849637166, 0.09600000455975533, 0.0800000037997961, 1.008000047877431, 0.0, 0.0, 0.0, 0.0, 0.0, 1.6450621249665048E9, 0.0, 2022-02-16 19:42:04.966
32.0, 786.1942888852209, 1074.6247232179157, 984.1060546403751, 1334.3551652906463, 0.09600000455975533, 0.0800000037997961, 1.008000047877431, 0.0, 0.0, 0.0, 0.0, 0.0, 1.645062124982078E9, 0.0, 2022-02-16 19:42:04.982
32.0, 800.8808760112152, 1065.4021299271844, 992.1094405455515, 1276.166061880067, 0.09600000455975533, 0.0800000037997961, 1.008000047877431, 0.0, 0.0, 0.0, 0.0, 0.0, 1.645062124982078E9, 0.0, 2022-02-16 19:42:04.982
33.0, 730.1556279491633, 1074.441468120087, 1001.3320338362828, 1289.9812523163855, 0.09600000455975533, 0.0800000037997961, 1.008000047877431, 0.0, 0.0, 0.0, 0.0, 0.0, 1.6450621249827871E9, 0.0, 2022-02-16 19:42:04.982
33.0, 828.2868628865108, 1062.4139498625882, 997.5472550811246, 1197.3102713143453, 0.09600000455975533, 0.0800000037997961, 1.008000047877431, 0.0, 0.0, 0.0, 0.0, 0.0, 1.6450621249827871E9, 0.0, 2022-02-16 19:42:04.982
34.0, 843.9794831005856, 1065.1926955296658, 993.4071858301759, 1238.2434763293713, 0.09600000455975533, 0.0800000037997961, 1.008000047877431, 0.0, 0.0, 0.0, 0.0, 0.0, 1.6450621249965208E9, 0.0, 2022-02-16 19:42:04.996
34.0, 762.7563358629122, 1081.038651641924, 995.7782824020833, 1318.4605904789641, 0.09600000455975533, 0.0800000037997961, 1.008000047877431, 0.0, 0.0, 0.0, 0.0, 0.0, 1.6450621249965208E9, 0.0, 2022-02-16 19:42:04.996
35.0, 844.0542810996994, 1071.6589825530536, 1007.3944116644561, 1310.6628990713507, 0.09600000455975533, 0.0800000037997961, 1.008000047877431, 0.0, 0.0, 0.0, 0.0, 0.0, 1.6450621250121937E9, 0.0, 2022-02-16 19:42:05.012
35.0, 813.2973438641056, 1062.2942730640061, 1000.9468241408467, 1233.3442073874176, 0.09600000455975533, 0.0800000037997961, 1.008000047877431, 0.0, 0.0, 0.0, 0.0, 0.0, 1.6450621250121937E9, 0.0, 2022-02-16 19:42:05.012
36.0, 820.9416993735358, 1077.1341960881837, 1008.6547579495236, 1219.5140573512763, 0.09600000455975533, 0.0800000037997961, 1.008000047877431, 0.0, 0.0, 0.0, 0.0, 0.0, 1.6450621250128891E9, 0.0, 2022-02-16 19:42:05.012
36.0, 833.7134577222168, 1093.4513795948587, 1015.0799060733989, 1276.1398825803772, 0.09600000455975533, 0.0800000037997961, 1.008000047877431, 0.0, 0.0, 0.0, 0.0, 0.0, 1.6450621250128891E9, 0.0, 2022-02-16 19:42:05.012
37.0, 817.5832692133263, 1077.8447770797648, 1004.1818376025185, 1255.6302712233737, 0.09600000455975533, 0.0800000037997961, 1.008000047877431, 0.0, 0.0, 0.0, 0.0, 0.0, 1.6450621250265136E9, 0.0, 2022-02-16 19:42:05.026
37.0, 761.5595678770915, 1075.9449079022743, 995.3519338071346, 1250.2672546869144, 0.09600000455975533, 0.0800000037997961, 1.008000047877431, 0.0, 0.0, 0.0, 0.0, 0.0, 1.6450621250265136E9, 0.0, 2022-02-16 19:42:05.026
38.0, 739.2099257418886, 1072.3845231444575, 1006.2687017777935, 1228.0036302506924, 0.09600000455975533, 0.0800000037997961, 1.008000047877431, 0.0, 0.0, 0.0, 0.0, 0.0, 1.6450621250585063E9, 0.0, 2022-02-16 19:42:05.058
38.0, 851.2610683143139, 1063.7565739466809, 990.9313720595092, 1233.953811080195, 0.09600000455975533, 0.0800000037997961, 1.008000047877431, 0.0, 0.0, 0.0, 0.0, 0.0, 1.6450621250585063E9, 0.0, 2022-02-16 19:42:05.058
39.0, 869.4070628993213, 1050.5397675032727, 983.6572666456923, 1351.9813137818128, 0.09600000455975533, 0.0800000037997961, 1.008000047877431, 0.0, 0.0, 0.0, 0.0, 0.0, 1.6450621250592012E9, 0.0, 2022-02-16 19:42:05.059
39.0, 802.9714800864458, 1049.522514715325, 993.104253933765, 1290.878828305751, 0.09600000455975533, 0.0800000037997961, 1.008000047877431, 0.0, 0.0, 0.0, 0.0, 0.0, 1.6450621250592012E9, 0.0, 2022-02-16 19:42:05.059
40.0, 801.6176363024861, 1062.8664777572267, 1005.3748656883836, 1281.7684320136905, 0.09600000455975533, 0.0800000037997961, 1.008000047877431, 0.0, 0.0, 0.0, 0.0, 0.0, 1.6450621250599196E9, 0.0, 2022-02-16 19:42:05.059
40.0, 789.5676786452532, 1070.1293634711765, 997.8389672776684, 1189.4452617075294, 0.09600000455975533, 0.0800000037997961, 1.008000047877431, 0.0, 0.0, 0.0, 0.0, 0.0, 1.6450621250599196E9, 0.0, 2022-02-16 19:42:05.059
41.0, 857.6263780388981, 1074.5461853188463, 1001.6948041319847, 1267.433395483531, 0.09600000455975533, 0.0800000037997961, 1.008000047877431, 0.0, 0.0, 0.0, 0.0, 0.0, 1.6450621250607193E9, 0.0, 2022-02-16 19:42:05.060
41.0, 784.167263109237, 1079.0976435649209, 1009.3316798415035, 1341.5021141059697, 0.09600000455975533, 0.0800000037997961, 1.008000047877431, 0.0, 0.0, 0.0, 0.0, 0.0, 1.6450621250607193E9, 0.0, 2022-02-16 19:42:05.060
42.0, 933.718382537365, 1065.3273319280706, 1004.320213900879, 1198.7463928973302, 0.09600000455975533, 0.0800000037997961, 1.008000047877431, 0.0, 0.0, 0.0, 0.0, 0.0, 1.6450621250714247E9, 0.0, 2022-02-16 19:42:05.071
42.0, 829.5098101720214, 1074.0562584246509, 1003.138405514881, 1200.1750346804038, 0.09600000455975533, 0.0800000037997961, 1.008000047877431, 0.0, 0.0, 0.0, 0.0, 0.0, 1.6450621250714247E9, 0.0, 2022-02-16 19:42:05.071
43.0, 835.5946273999289, 1080.9862930425443, 1021.5013142973185, 1263.2933262325823, 0.09600000455975533, 0.0800000037997961, 1.008000047877431, 0.0, 0.0, 0.0, 0.0, 0.0, 1.6450621250865488E9, 0.0, 2022-02-16 19:42:05.086
43.0, 771.4403835600242, 1073.5027532312088, 1015.199582871981, 1118.9855465423316, 0.09600000455975533, 0.0800000037997961, 1.008000047877431, 0.0, 0.0, 0.0, 0.0, 0.0, 1.6450621250865488E9, 0.0, 2022-02-16 19:42:05.086
44.0, 841.8215608261526, 1070.0583053720184, 1009.0250080451369, 1137.239998226054, 0.09600000455975533, 0.0800000037997961, 1.008000047877431, 0.0, 0.0, 0.0, 0.0, 0.0, 1.6450621251020951E9, 0.0, 2022-02-16 19:42:05.102
44.0, 861.908563488163, 1074.2769125220366, 1024.3735574632883, 1139.8280089953914, 0.09600000455975533, 0.0800000037997961, 1.008000047877431, 0.0, 0.0, 0.0, 0.0, 0.0, 1.6450621251020951E9, 0.0, 2022-02-16 19:42:05.102
45.0, 832.8532807324082, 1062.6720029595308, 1021.157243501395, 1190.9150423901156, 0.09600000455975533, 0.0800000037997961, 1.008000047877431, 0.0, 0.0, 0.0, 0.0, 0.0, 1.6450621251028883E9, 0.0, 2022-02-16 19:42:05.102
45.0, 845.000475788489, 1060.2635073880665, 1004.1145194033161, 1281.472979917191, 0.09600000455975533, 0.0800000037997961, 1.008000047877431, 0.0, 0.0, 0.0, 0.0, 0.0, 1.6450621251028883E9, 0.0, 2022-02-16 19:42:05.102
46.0, 845.5390213821083, 1076.9172818907537, 1015.7082092659548, 1137.5803291220218, 0.09600000455975533, 0.0800000037997961, 1.008000047877431, 0.0, 0.0, 0.0, 0.0, 0.0, 1.6450621251164184E9, 0.0, 2022-02-16 19:42:05.116
46.0, 822.1796062588692, 1086.5550040765665, 1021.8341653933749, 1211.2638380490243, 0.09600000455975533, 0.0800000037997961, 1.008000047877431, 0.0, 0.0, 0.0, 0.0, 0.0, 1.6450621251164184E9, 0.0, 2022-02-16 19:42:05.116
47.0, 803.7867782767862, 1066.2922261166386, 1011.4559430163354, 1329.7176893455908, 0.09600000455975533, 0.0800000037997961, 1.008000047877431, 0.0, 0.0, 0.0, 0.0, 0.0, 1.6450621251325853E9, 0.0, 2022-02-16 19:42:05.132
47.0, 888.3720955746248, 1053.9468163629062, 1012.9444231987, 1155.9768970040604, 0.09600000455975533, 0.0800000037997961, 1.008000047877431, 0.0, 0.0, 0.0, 0.0, 0.0, 1.6450621251325853E9, 0.0, 2022-02-16 19:42:05.132
48.0, 848.5646004462615, 1071.3859698562883, 1028.5098868142813, 1111.1317566353828, 0.09600000455975533, 0.0800000037997961, 1.008000047877431, 0.0, 0.0, 0.0, 0.0, 0.0, 1.645062125147174E9, 0.0, 2022-02-16 19:42:05.147
48.0, 776.1526575041935, 1077.6203830824234, 1029.0147733082995, 1253.7191823460162, 0.09600000455975533, 0.0800000037997961, 1.008000047877431, 0.0, 0.0, 0.0, 0.0, 0.0, 1.645062125147174E9, 0.0, 2022-02-16 19:42:05.147
49.0, 852.1773438034579, 1061.4453157740645, 1017.4884016448632, 1221.4214063286781, 0.09600000455975533, 0.0800000037997961, 1.008000047877431, 0.0, 0.0, 0.0, 0.0, 0.0, 1.645062125147924E9, 0.0, 2022-02-16 19:42:05.147
49.0, 889.1724341651425, 1077.6989209814928, 1027.8479245221242, 1164.2981744054705, 0.09600000455975533, 0.0800000037997961, 1.008000047877431, 0.0, 0.0, 0.0, 0.0, 0.0, 1.645062125147924E9, 0.0, 2022-02-16 19:42:05.147
50.0, 777.6673169862479, 1070.7763661635108, 1035.2529264343902, 1153.9349116282538, 0.09600000455975533, 0.0800000037997961, 1.008000047877431, 0.0, 0.0, 0.0, 0.0, 0.0, 1.645062125162191E9, 0.0, 2022-02-16 19:42:05.162
50.0, 810.1558279013261, 1064.2278013410978, 1016.4935882566497, 1290.542237309739, 0.09600000455975533, 0.0800000037997961, 1.008000047877431, 0.0, 0.0, 0.0, 0.0, 0.0, 1.645062125162191E9, 0.0, 2022-02-16 19:42:05.162
51.0, 915.8715799488127, 1064.3325185398571, 1018.3635382344946, 1281.4580203173682, 0.09600000455975533, 0.0800000037997961, 1.008000047877431, 0.0, 0.0, 0.0, 0.0, 0.0, 1.6450621251629012E9, 0.0, 2022-02-16 19:42:05.162
51.0, 870.3644772879779, 1059.49682789715, 1018.045646738261, 1403.1730643752962, 0.09600000455975533, 0.0800000037997961, 1.008000047877431, 0.0, 0.0, 0.0, 0.0, 0.0, 1.6450621251629012E9, 0.0, 2022-02-16 19:42:05.162
52.0, 925.7037769323215, 1041.851979906205, 1006.6987902726978, 1502.5609056977555, 0.09600000455975533, 0.0800000037997961, 1.008000047877431, 0.0, 0.0, 0.0, 0.0, 0.0, 1.6450621251764932E9, 0.0, 2022-02-16 19:42:05.176
52.0, 945.3644309993833, 1021.9631919418462, 999.1815913617611, 1512.6062769787386, 0.09600000455975533, 0.0800000037997961, 1.008000047877431, 0.0, 0.0, 0.0, 0.0, 0.0, 1.6450621251764932E9, 0.0, 2022-02-16 19:42:05.176
53.0, 1021.7743269940838, 1052.3872780813836, 1009.7168895369396, 1457.9513790262863, 0.09600000455975533, 0.0800000037997961, 1.008000047877431, 0.0, 0.0, 0.0, 0.0, 0.0, 1.6450621251922219E9, 0.0, 2022-02-16 19:42:05.192
53.0, 968.2900177277625, 1046.9494635458104, 999.4620838584378, 1480.689970756881, 0.09600000455975533, 0.0800000037997961, 1.008000047877431, 0.0, 0.0, 0.0, 0.0, 0.0, 1.6450621251922219E9, 0.0, 2022-02-16 19:42:05.192
54.0, 972.3029303802177, 1028.695011862088, 984.2294713389128, 1262.863237737678, 0.09600000455975533, 0.0800000037997961, 1.008000047877431, 0.0, 0.0, 0.0, 0.0, 0.0, 1.6450621251929212E9, 0.0, 2022-02-16 19:42:05.192
54.0, 937.5069011924788, 1053.1202984726988, 1001.7920415308326, 1052.5948425289243, 0.09600000455975533, 0.0800000037997961, 1.008000047877431, 0.0, 0.0, 0.0, 0.0, 0.0, 1.6450621251929212E9, 0.0, 2022-02-16 19:42:05.192
55.0, 982.9466856541112, 1055.6073319432326, 1012.4283170048147, 933.5500870393589, 0.09600000455975533, 0.0800000037997961, 1.008000047877431, 0.0, 0.0, 0.0, 0.0, 0.0, 1.6450621252064948E9, 0.0, 2022-02-16 19:42:05.206
55.0, 981.0954351760447, 1036.94523116434, 1004.3239538008347, 1021.3030995996669, 0.09600000455975533, 0.0800000037997961, 1.008000047877431, 0.0, 0.0, 0.0, 0.0, 0.0, 1.6450621252064948E9, 0.0, 2022-02-16 19:42:05.206
56.0, 989.9889172706753, 1051.8337728879414, 1017.6342577431351, 914.1063471697271, 0.09600000455975533, 0.0800000037997961, 1.008000047877431, 0.0, 0.0, 0.0, 0.0, 0.0, 1.6450621252221947E9, 0.0, 2022-02-16 19:42:05.222
56.0, 911.1032075053081, 1057.7876936173998, 1019.1227379254997, 986.1181208165362, 0.09600000455975533, 0.0800000037997961, 1.008000047877431, 0.0, 0.0, 0.0, 0.0, 0.0, 1.6450621252221947E9, 0.0, 2022-02-16 19:42:05.222
57.0, 882.8594830399379, 1058.5169741087593, 1009.8664855351672, 868.988194104284, 0.09600000455975533, 0.0800000037997961, 1.008000047877431, 0.0, 0.0, 0.0, 0.0, 0.0, 1.6450621252229288E9, 0.0, 2022-02-16 19:42:05.222
57.0, 845.8643926782534, 1050.1919568073936, 1014.4441230809316, 1073.3849463826045, 0.09600000455975533, 0.0800000037997961, 1.008000047877431, 0.0, 0.0, 0.0, 0.0, 0.0, 1.6450621252229288E9, 0.0, 2022-02-16 19:42:05.222
58.0, 776.3209530021995, 1060.379444286693, 1021.2395213004202, 1050.9380668485537, 0.09600000455975533, 0.0800000037997961, 1.008000047877431, 0.0, 0.0, 0.0, 0.0, 0.0, 1.645062125252908E9, 0.0, 2022-02-16 19:42:05.252
58.0, 815.825516234152, 1072.0067932489328, 1016.1869164602831, 1075.0417220629752, 0.09600000455975533, 0.0800000037997961, 1.008000047877431, 0.0, 0.0, 0.0, 0.0, 0.0, 1.645062125252908E9, 0.0, 2022-02-16 19:42:05.252
59.0, 816.5622765254229, 1054.4479629569687, 1006.9755428694189, 1128.7840844262391, 0.09600000455975533, 0.0800000037997961, 1.008000047877431, 0.0, 0.0, 0.0, 0.0, 0.0, 1.64506212525364E9, 0.0, 2022-02-16 19:42:05.253
59.0, 879.0335653852671, 1059.6613834952004, 1017.7875936413184, 1136.877227930352, 0.09600000455975533, 0.0800000037997961, 1.008000047877431, 0.0, 0.0, 0.0, 0.0, 0.0, 1.64506212525364E9, 0.0, 2022-02-16 19:42:05.253
60.0, 801.4867398040369, 1057.6493173190393, 1014.2085093837231, 1219.024130457081, 0.09600000455975533, 0.0800000037997961, 1.008000047877431, 0.0, 0.0, 0.0, 0.0, 0.0, 1.645062125254408E9, 0.0, 2022-02-16 19:42:05.254
60.0, 868.2327343132347, 1050.4612296042033, 1008.8641923470423, 1167.970756161958, 0.09600000455975533, 0.0800000037997961, 1.008000047877431, 0.0, 0.0, 0.0, 0.0, 0.0, 1.645062125254408E9, 0.0, 2022-02-16 19:42:05.254
61.0, 700.4870016006753, 1056.5273473323323, 1009.4476167401299, 1254.7364351339638, 0.09600000455975533, 0.0800000037997961, 1.008000047877431, 0.0, 0.0, 0.0, 0.0, 0.0, 1.645062125266422E9, 0.0, 2022-02-16 19:42:05.266
61.0, 826.8544812034816, 1049.402837916743, 1017.514580944553, 1308.4002595981583, 0.09600000455975533, 0.0800000037997961, 1.008000047877431, 0.0, 0.0, 0.0, 0.0, 0.0, 1.645062125266422E9, 0.0, 2022-02-16 19:42:05.266
62.0, 885.294157911092, 1036.2383900727145, 1002.981329716742, 1240.3266006046906, 0.09600000455975533, 0.0800000037997961, 1.008000047877431, 0.0, 0.0, 0.0, 0.0, 0.0, 1.6450621252818468E9, 0.0, 2022-02-16 19:42:05.281
62.0, 828.3878401853144, 1046.6914104488678, 1006.4594366755337, 1159.612079760991, 0.09600000455975533, 0.0800000037997961, 1.008000047877431, 0.0, 0.0, 0.0, 0.0, 0.0, 1.6450621252818468E9, 0.0, 2022-02-16 19:42:05.281
63.0, 796.6959279607981, 1072.534119142685, 1023.954688668251, 1111.561845130287, 0.09600000455975533, 0.0800000037997961, 1.008000047877431, 0.0, 0.0, 0.0, 0.0, 0.0, 1.6450621252972088E9, 0.0, 2022-02-16 19:42:05.297
63.0, 834.6596524110064, 1052.8323261761107, 1016.284153859131, 1289.95133311674, 0.09600000455975533, 0.0800000037997961, 1.008000047877431, 0.0, 0.0, 0.0, 0.0, 0.0, 1.6450621252972088E9, 0.0, 2022-02-16 19:42:05.297
64.0, 886.4348273975775, 1051.3887247932144, 1001.2721954369918, 1292.79739698302, 0.09600000455975533, 0.0800000037997961, 1.008000047877431, 0.0, 0.0, 0.0, 0.0, 0.0, 1.6450621252978885E9, 0.0, 2022-02-16 19:42:05.297
64.0, 865.6297639440745, 1060.884330780711, 1007.2709949659184, 1213.283384025097, 0.09600000455975533, 0.0800000037997961, 1.008000047877431, 0.0, 0.0, 0.0, 0.0, 0.0, 1.6450621252978885E9, 0.0, 2022-02-16 19:42:05.297
65.0, 755.1979980524629, 1077.347370385658, 1016.6207448551431, 1133.0849693752825, 0.09600000455975533, 0.0800000037997961, 1.008000047877431, 0.0, 0.0, 0.0, 0.0, 0.0, 1.6450621253284974E9, 0.0, 2022-02-16 19:42:05.328
65.0, 896.0351505838335, 1054.720975653734, 1002.8766125179827, 1171.6769970180467, 0.09600000455975533, 0.0800000037997961, 1.008000047877431, 0.0, 0.0, 0.0, 0.0, 0.0, 1.6450621253284974E9, 0.0, 2022-02-16 19:42:05.328
66.0, 755.5121496487409, 1047.3122338415124, 1008.0937729561701, 1224.7573970891535, 0.09600000455975533, 0.0800000037997961, 1.008000047877431, 0.0, 0.0, 0.0, 0.0, 0.0, 1.6450621253292713E9, 0.0, 2022-02-16 19:42:05.329
66.0, 893.3947812151164, 1062.743061058689, 1015.3977975696325, 1223.6129877027124, 0.09600000455975533, 0.0800000037997961, 1.008000047877431, 0.0, 0.0, 0.0, 0.0, 0.0, 1.6450621253292713E9, 0.0, 2022-02-16 19:42:05.329
67.0, 827.6436000941321, 1062.7692403583787, 1008.5276013510302, 1168.7000366533175, 0.09600000455975533, 0.0800000037997961, 1.008000047877431, 0.0, 0.0, 0.0, 0.0, 0.0, 1.6450621253300333E9, 0.0, 2022-02-16 19:42:05.330
67.0, 780.101991857402, 1051.5757197909988, 1012.8210065001622, 1266.094511299394, 0.09600000455975533, 0.0800000037997961, 1.008000047877431, 0.0, 0.0, 0.0, 0.0, 0.0, 1.6450621253300333E9, 0.0, 2022-02-16 19:42:05.330
68.0, 775.9282635068521, 1057.6268779193051, 1019.8968972163275, 1244.2834147578105, 0.09600000455975533, 0.0800000037997961, 1.008000047877431, 0.0, 0.0, 0.0, 0.0, 0.0, 1.6450621253308153E9, 0.0, 2022-02-16 19:42:05.330
68.0, 881.6851544538513, 1055.072526249569, 1009.1633843434975, 1273.005846417509, 0.09600000455975533, 0.0800000037997961, 1.008000047877431, 0.0, 0.0, 0.0, 0.0, 0.0, 1.6450621253308153E9, 0.0, 2022-02-16 19:42:05.330
69.0, 877.612403402105, 1043.5012757866643, 997.0947271864861, 1270.5524720465764, 0.09600000455975533, 0.0800000037997961, 1.008000047877431, 0.0, 0.0, 0.0, 0.0, 0.0, 1.6450621253415384E9, 0.0, 2022-02-16 19:42:05.341
69.0, 835.8003218974918, 1052.0768663850613, 1009.6645309375599, 1301.0363965854049, 0.09600000455975533, 0.0800000037997961, 1.008000047877431, 0.0, 0.0, 0.0, 0.0, 0.0, 1.6450621253415384E9, 0.0, 2022-02-16 19:42:05.341
70.0, 802.2421995950863, 1055.072526249569, 1015.4576359689236, 1275.754672884941, 0.09600000455975533, 0.0800000037997961, 1.008000047877431, 0.0, 0.0, 0.0, 0.0, 0.0, 1.6450621253564413E9, 0.0, 2022-02-16 19:42:05.356
70.0, 802.0552045973018, 1038.6244462444447, 997.8763662772253, 1174.5903790835291, 0.09600000455975533, 0.0800000037997961, 1.008000047877431, 0.0, 0.0, 0.0, 0.0, 0.0, 1.6450621253564413E9, 0.0, 2022-02-16 19:42:05.356
71.0, 854.9224303709343, 1048.871772123035, 1005.6740576848388, 1307.4540649093688, 0.09600000455975533, 0.0800000037997961, 1.008000047877431, 0.0, 0.0, 0.0, 0.0, 0.0, 1.6450621253721187E9, 0.0, 2022-02-16 19:42:05.372
71.0, 891.3266165396199, 1058.7039691065438, 1014.7919337768108, 1235.2403366649523, 0.09600000455975533, 0.0800000037997961, 1.008000047877431, 0.0, 0.0, 0.0, 0.0, 0.0, 1.6450621253721187E9, 0.0, 2022-02-16 19:42:05.372
72.0, 879.6543887779117, 1047.8694789349101, 1006.5903331739828, 1302.6557732662186, 0.09600000455975533, 0.0800000037997961, 1.008000047877431, 0.0, 0.0, 0.0, 0.0, 0.0, 1.6450621253728323E9, 0.0, 2022-02-16 19:42:05.372
72.0, 799.3063781298697, 1061.3817374748178, 1008.7856544479728, 1260.824992261827, 0.09600000455975533, 0.0800000037997961, 1.008000047877431, 0.0, 0.0, 0.0, 0.0, 0.0, 1.6450621253728323E9, 0.0, 2022-02-16 19:42:05.372
73.0, 841.4438309306279, 1052.551833679434, 1002.4577437229455, 1328.1880702637136, 0.09600000455975533, 0.0800000037997961, 1.008000047877431, 0.0, 0.0, 0.0, 0.0, 0.0, 1.6450621254192903E9, 0.0, 2022-02-16 19:42:05.419
73.0, 870.1400832906365, 1048.5688402266242, 1000.2848618486896, 1270.099944151938, 0.09600000455975533, 0.0800000037997961, 1.008000047877431, 0.0, 0.0, 0.0, 0.0, 0.0, 1.6450621254192903E9, 0.0, 2022-02-16 19:42:05.419
74.0, 829.7716031689197, 1041.4331111111678, 995.0976206101477, 1294.9627990573645, 0.09600000455975533, 0.0800000037997961, 1.008000047877431, 0.0, 0.0, 0.0, 0.0, 0.0, 1.6450621254198976E9, 0.0, 2022-02-16 19:42:05.419
74.0, 867.8924034172669, 1028.84086796036, 1001.8219607304782, 1294.7533646598458, 0.09600000455975533, 0.0800000037997961, 1.008000047877431, 0.0, 0.0, 0.0, 0.0, 0.0, 1.6450621254198976E9, 0.0, 2022-02-16 19:42:05.419
75.0, 840.4826766420156, 1053.756081465166, 1006.3285401770845, 1304.8660541400313, 0.09600000455975533, 0.0800000037997961, 1.008000047877431, 0.0, 0.0, 0.0, 0.0, 0.0, 1.6450621254207048E9, 0.0, 2022-02-16 19:42:05.420
75.0, 852.4316570004448, 1055.5362738440745, 992.4198522418737, 1351.581144486554, 0.09600000455975533, 0.0800000037997961, 1.008000047877431, 0.0, 0.0, 0.0, 0.0, 0.0, 1.6450621254207048E9, 0.0, 2022-02-16 19:42:05.420
76.0, 745.9118264624849, 1056.276774035301, 998.9384978646412, 1387.3944264622405, 0.09600000455975533, 0.0800000037997961, 1.008000047877431, 0.0, 0.0, 0.0, 0.0, 0.0, 1.645062125421497E9, 0.0, 2022-02-16 19:42:05.421
76.0, 831.7761895451695, 1058.3898175102659, 1007.1700176671147, 1364.8914484288543, 0.09600000455975533, 0.0800000037997961, 1.008000047877431, 0.0, 0.0, 0.0, 0.0, 0.0, 1.645062125421497E9, 0.0, 2022-02-16 19:42:05.421
77.0, 825.6203142181039, 1041.2199368136935, 996.7020376911387, 1350.519012899138, 0.09600000455975533, 0.0800000037997961, 1.008000047877431, 0.0, 0.0, 0.0, 0.0, 0.0, 1.6450621254323404E9, 0.0, 2022-02-16 19:42:05.432
77.0, 876.4979132153094, 1046.0593673563562, 995.082661010325, 1267.8073854791, 0.09600000455975533, 0.0800000037997961, 1.008000047877431, 0.0, 0.0, 0.0, 0.0, 0.0, 1.6450621254323404E9, 0.0, 2022-02-16 19:42:05.432
78.0, 863.296066371724, 1063.5396597492509, 1010.1806371314451, 1238.8306406224146, 0.09600000455975533, 0.0800000037997961, 1.008000047877431, 0.0, 0.0, 0.0, 0.0, 0.0, 1.6450621254330416E9, 0.0, 2022-02-16 19:42:05.433
78.0, 794.7698794836178, 1061.751987570431, 1008.1723108552396, 1342.53432649374, 0.09600000455975533, 0.0800000037997961, 1.008000047877431, 0.0, 0.0, 0.0, 0.0, 0.0, 1.6450621254330416E9, 0.0, 2022-02-16 19:42:05.433
79.0, 866.190748937428, 1049.3018606179394, 995.0265625109896, 1307.9365120036528, 0.09600000455975533, 0.0800000037997961, 1.008000047877431, 0.0, 0.0, 0.0, 0.0, 0.0, 1.6450621254465897E9, 0.0, 2022-02-16 19:42:05.446
79.0, 845.2061702860519, 1052.6041922788136, 1006.6501715732738, 1202.0823836578056, 0.09600000455975533, 0.0800000037997961, 1.008000047877431, 0.0, 0.0, 0.0, 0.0, 0.0, 1.6450621254465897E9, 0.0, 2022-02-16 19:42:05.446
80.0, 820.5303103784099, 1060.5327801848762, 996.6272396920249, 1214.9027607059106, 0.09600000455975533, 0.0800000037997961, 1.008000047877431, 0.0, 0.0, 0.0, 0.0, 0.0, 1.645062125462234E9, 0.0, 2022-02-16 19:42:05.462
80.0, 859.4813684169203, 1064.5307332375087, 998.568247769028, 1162.3908254280686, 0.09600000455975533, 0.0800000037997961, 1.008000047877431, 0.0, 0.0, 0.0, 0.0, 0.0, 1.645062125462234E9, 0.0, 2022-02-16 19:42:05.462
81.0, 792.8887098059058, 1056.2356351357885, 1005.2664085896686, 1276.3493169778958, 0.09600000455975533, 0.06400000303983688, 1.008000047877431, 0.0, 0.0, 0.0, 0.0, 0.0, 1.645062125462958E9, 0.0, 2022-02-16 19:42:05.462
81.0, 796.0713646681979, 1067.5263931020163, 1015.947562863119, 1242.6041996777058, 0.09600000455975533, 0.06400000303983688, 1.008000047877431, 0.0, 0.0, 0.0, 0.0, 0.0, 1.645062125462958E9, 0.0, 2022-02-16 19:42:05.462
82.0, 923.5234152581543, 1050.8950579990633, 997.446277782321, 1088.6624377015978, 0.09600000455975533, 0.06400000303983688, 1.008000047877431, 0.0, 0.0, 0.0, 0.0, 0.0, 1.645062125476455E9, 0.0, 2022-02-16 19:42:05.476
82.0, 872.0623918678612, 1058.3374589108862, 988.0441692937165, 1119.3595365379006, 0.09600000455975533, 0.06400000303983688, 1.008000047877431, 0.0, 0.0, 0.0, 0.0, 0.0, 1.645062125476455E9, 0.0, 2022-02-16 19:42:05.476
83.0, 647.2083868319169, 1092.8903946015052, 1020.5476398086175, 1120.08881702926, 0.09600000455975533, 0.06400000303983688, 1.008000047877431, 0.0, 0.0, 0.0, 0.0, 0.0, 1.6450621254922163E9, 0.0, 2022-02-16 19:42:05.492
83.0, 752.8156817806885, 1083.1591749168, 1014.2496482832357, 1103.7342345230281, 0.09600000455975533, 0.06400000303983688, 1.008000047877431, 0.0, 0.0, 0.0, 0.0, 0.0, 1.6450621254922163E9, 0.0, 2022-02-16 19:42:05.492
84.0, 796.9352815579623, 1068.4127493915148, 1005.9807294812053, 1181.0865853065625, 0.09600000455975533, 0.06400000303983688, 1.008000047877431, 0.0, 0.0, 0.0, 0.0, 0.0, 1.6450621254929345E9, 0.0, 2022-02-16 19:42:05.492
84.0, 767.1656779106706, 1091.5814296170138, 1025.4057698510587, 1094.810833228752, 0.09600000455975533, 0.06400000303983688, 1.008000047877431, 0.0, 0.0, 0.0, 0.0, 0.0, 1.6450621254929345E9, 0.0, 2022-02-16 19:42:05.492
85.0, 794.6913415845484, 1092.4378667068668, 1023.2291480768472, 1127.1983668450266, 0.09600000455975533, 0.06400000303983688, 1.008000047877431, 0.0, 0.0, 0.0, 0.0, 0.0, 1.6450621255064888E9, 0.0, 2022-02-16 19:42:05.506
85.0, 770.0154816769063, 1071.8197982511483, 1010.8538191234693, 1076.4965431457385, 0.09600000455975533, 0.06400000303983688, 1.008000047877431, 0.0, 0.0, 0.0, 0.0, 0.0, 1.6450621255064888E9, 0.0, 2022-02-16 19:42:05.506
86.0, 826.8657009033486, 1075.357743609231, 1018.3560584345832, 1076.9715104401112, 0.09600000455975533, 0.06400000303983688, 1.008000047877431, 0.0, 0.0, 0.0, 0.0, 0.0, 1.6450621255225992E9, 0.0, 2022-02-16 19:42:05.522
86.0, 792.7765128072351, 1080.9152349433862, 1030.9071626858786, 1038.102730200626, 0.09600000455975533, 0.06400000303983688, 1.008000047877431, 0.0, 0.0, 0.0, 0.0, 0.0, 1.6450621255225992E9, 0.0, 2022-02-16 19:42:05.522
87.0, 792.0808914154768, 1076.9883399899118, 1017.2303485479206, 1066.8588209599257, 0.09600000455975533, 0.06400000303983688, 1.008000047877431, 0.0, 0.0, 0.0, 0.0, 0.0, 1.6450621255371325E9, 0.0, 2022-02-16 19:42:05.537
87.0, 802.0365050975233, 1081.0835304413922, 1008.6846771491691, 1073.3176281834021, 0.09600000455975533, 0.06400000303983688, 1.008000047877431, 0.0, 0.0, 0.0, 0.0, 0.0, 1.6450621255371325E9, 0.0, 2022-02-16 19:42:05.537
88.0, 769.0879864878953, 1079.5501714595594, 1021.7930264938623, 1065.082368480973, 0.09600000455975533, 0.06400000303983688, 1.008000047877431, 0.0, 0.0, 0.0, 0.0, 0.0, 1.6450621255379236E9, 0.0, 2022-02-16 19:42:05.537
88.0, 836.5670013884082, 1078.8695096676238, 1030.5817913897336, 1073.0969740860164, 0.09600000455975533, 0.06400000303983688, 1.008000047877431, 0.0, 0.0, 0.0, 0.0, 0.0, 1.6450621255379236E9, 0.0, 2022-02-16 19:42:05.537
89.0, 795.8282711710781, 1078.0616912771948, 1016.4337498573586, 1065.74433077313, 0.09600000455975533, 0.06400000303983688, 1.008000047877431, 0.0, 0.0, 0.0, 0.0, 0.0, 1.6450621255521595E9, 0.0, 2022-02-16 19:42:05.552
89.0, 736.7303720712662, 1079.6287093586288, 1022.9336959803477, 1131.3683552956209, 0.09600000455975533, 0.06400000303983688, 1.008000047877431, 0.0, 0.0, 0.0, 0.0, 0.0, 1.6450621255521595E9, 0.0, 2022-02-16 19:42:05.552
90.0, 767.1581981107593, 1080.9975127424113, 1030.23772059381, 1099.7213218705729, 0.09600000455975533, 0.06400000303983688, 1.008000047877431, 0.0, 0.0, 0.0, 0.0, 0.0, 1.645062125552906E9, 0.0, 2022-02-16 19:42:05.552
90.0, 796.0751045681536, 1081.917528131511, 1017.3425455465913, 1097.6980359945446, 0.09600000455975533, 0.06400000303983688, 1.008000047877431, 0.0, 0.0, 0.0, 0.0, 0.0, 1.645062125552906E9, 0.0, 2022-02-16 19:42:05.552
91.0, 770.9055778663605, 1079.3631764617749, 1019.9155967161059, 1120.8966354196891, 0.09600000455975533, 0.06400000303983688, 1.008000047877431, 0.0, 0.0, 0.0, 0.0, 0.0, 1.6450621255664659E9, 0.0, 2022-02-16 19:42:05.566
91.0, 778.2769206790254, 1087.5797366644256, 1031.7897790754214, 1186.2700866451487, 0.09600000455975533, 0.06400000303983688, 1.008000047877431, 0.0, 0.0, 0.0, 0.0, 0.0, 1.6450621255664659E9, 0.0, 2022-02-16 19:42:05.566
92.0, 841.1371591342613, 1090.3622222314589, 1026.849371233955, 1084.5335881505162, 0.09600000455975533, 0.06400000303983688, 1.008000047877431, 0.0, 0.0, 0.0, 0.0, 0.0, 1.6450621255822341E9, 0.0, 2022-02-16 19:42:05.582
92.0, 834.1547659169883, 1064.0295866434462, 1022.5335266850889, 1054.0122646121308, 0.09600000455975533, 0.06400000303983688, 1.008000047877431, 0.0, 0.0, 0.0, 0.0, 0.0, 1.6450621255822341E9, 0.0, 2022-02-16 19:42:05.582
93.0, 880.2976515702903, 1087.4002214665525, 1031.6888017766178, 1100.746054458432, 0.09600000455975533, 0.06400000303983688, 1.008000047877431, 0.0, 0.0, 0.0, 0.0, 0.0, 1.645062125582988E9, 0.0, 2022-02-16 19:42:05.582
93.0, 810.3615223988891, 1082.4074550257064, 1024.1865624655038, 1187.17140253447, 0.09600000455975533, 0.06400000303983688, 1.008000047877431, 0.0, 0.0, 0.0, 0.0, 0.0, 1.645062125582988E9, 0.0, 2022-02-16 19:42:05.582
94.0, 794.8110183831304, 1078.5815373710357, 1015.2482015714049, 1038.6749348938465, 0.09600000455975533, 0.06400000303983688, 1.008000047877431, 0.0, 0.0, 0.0, 0.0, 0.0, 1.645062125596502E9, 0.0, 2022-02-16 19:42:05.596
94.0, 732.403307822533, 1088.7241460508667, 1027.2944193286821, 1059.8689479427412, 0.09600000455975533, 0.06400000303983688, 1.008000047877431, 0.0, 0.0, 0.0, 0.0, 0.0, 1.645062125596502E9, 0.0, 2022-02-16 19:42:05.596
95.0, 827.6772591937333, 1079.1425223643892, 1026.1462700422853, 1071.0699483100325, 0.09600000455975533, 0.06400000303983688, 1.008000047877431, 0.0, 0.0, 0.0, 0.0, 0.0, 1.6450621256122544E9, 0.0, 2022-02-16 19:42:05.612
95.0, 757.4681173255667, 1061.572472372558, 1012.4881554041058, 1108.7232610639185, 0.09600000455975533, 0.06400000303983688, 1.008000047877431, 0.0, 0.0, 0.0, 0.0, 0.0, 1.6450621256122544E9, 0.0, 2022-02-16 19:42:05.612
96.0, 769.9967821771279, 1070.2378205698915, 1012.087986108847, 1167.3162736697122, 0.09600000455975533, 0.06400000303983688, 1.008000047877431, 0.0, 0.0, 0.0, 0.0, 0.0, 1.6450621256129646E9, 0.0, 2022-02-16 19:42:05.612
96.0, 775.9394832067192, 1068.0686785955913, 1028.9212758094072, 1091.3289863700047, 0.09600000455975533, 0.06400000303983688, 1.008000047877431, 0.0, 0.0, 0.0, 0.0, 0.0, 1.6450621256129646E9, 0.0, 2022-02-16 19:42:05.612
97.0, 930.9171974705532, 1061.7370279706083, 1023.0084939794615, 1085.887431934476, 0.09600000455975533, 0.06400000303983688, 1.008000047877431, 0.0, 0.0, 0.0, 0.0, 0.0, 1.6450621256264968E9, 0.0, 2022-02-16 19:42:05.626
97.0, 749.7901027165353, 1084.8683091965504, 1028.1695559183136, 1110.1369432471693, 0.09600000455975533, 0.06400000303983688, 1.008000047877431, 0.0, 0.0, 0.0, 0.0, 0.0, 1.6450621256264968E9, 0.0, 2022-02-16 19:42:05.626
98.0, 727.5451777800918, 1096.933226453606, 1037.956874102354, 1108.6372433649376, 0.09600000455975533, 0.06400000303983688, 1.008000047877431, 0.0, 0.0, 0.0, 0.0, 0.0, 1.6450621256421409E9, 0.0, 2022-02-16 19:42:05.642
98.0, 762.7488560630009, 1092.3107101083733, 1030.8884631861001, 1213.717212419957, 0.09600000455975533, 0.06400000303983688, 1.008000047877431, 0.0, 0.0, 0.0, 0.0, 0.0, 1.6450621256421409E9, 0.0, 2022-02-16 19:42:05.642
99.0, 822.1010683597997, 1067.1636228063144, 1018.3523185346276, 1186.9357888372615, 0.09600000455975533, 0.06400000303983688, 1.008000047877431, 0.0, 0.0, 0.0, 0.0, 0.0, 1.6450621256429658E9, 0.0, 2022-02-16 19:42:05.642
99.0, 821.0464165722951, 1084.849609696772, 1029.9684477970004, 1073.3213680833578, 0.09600000455975533, 0.06400000303983688, 1.008000047877431, 0.0, 0.0, 0.0, 0.0, 0.0, 1.6450621256429658E9, 0.0, 2022-02-16 19:42:05.642
100.0, 808.7870245175436, 1080.7768586450256, 1031.1764354826882, 1071.1896251086146, 0.09600000455975533, 0.06400000303983688, 1.008000047877431, 0.0, 0.0, 0.0, 0.0, 0.0, 1.6450621256571548E9, 0.0, 2022-02-16 19:42:05.657
100.0, 836.7689559860155, 1068.5174665902741, 1016.7927802531049, 1081.3808524878696, 0.09600000455975533, 0.06400000303983688, 1.008000047877431, 0.0, 0.0, 0.0, 0.0, 0.0, 1.6450621256571548E9, 0.0, 2022-02-16 19:42:05.657
0.0, 785.9736347878352, 1067.5619221515954, 1017.2602677475661, 1044.5690172240138, 0.09600000455975533, 0.06400000303983688, 1.008000047877431, 0.0, 0.0, 0.0, 0.0, 0.0, 1.645062125657894E9, 0.0, 2022-02-16 19:42:05.657
1.0, 861.6205911915749, 1092.349979057908, 1028.767939911224, 1030.757566687651, 0.09600000455975533, 0.06400000303983688, 1.008000047877431, 0.0, 0.0, 0.0, 0.0, 0.0, 1.64506212567145E9, 0.0, 2022-02-16 19:42:05.671
1.0, 815.2271322412416, 1079.0658544152975, 1014.5750195793808, 1173.3412524983287, 0.09600000455975533, 0.06400000303983688, 1.008000047877431, 0.0, 0.0, 0.0, 0.0, 0.0, 1.64506212567145E9, 0.0, 2022-02-16 19:42:05.671
2.0, 869.4930805983022, 1076.6760583436117, 1018.2700407356024, 1010.4648695280775, 0.09600000455975533, 0.06400000303983688, 1.008000047877431, 0.0, 0.0, 0.0, 0.0, 0.0, 1.645062125687181E9, 0.0, 2022-02-16 19:42:05.687
2.0, 821.4839848671108, 1087.8471395112574, 1034.9873935375363, 1132.5389439817518, 0.09600000455975533, 0.06400000303983688, 1.008000047877431, 0.0, 0.0, 0.0, 0.0, 0.0, 1.645062125687181E9, 0.0, 2022-02-16 19:42:05.687
3.0, 847.5922264577821, 1100.4468624619767, 1041.9548271549866, 1092.192903259769, 0.09600000455975533, 0.06400000303983688, 1.008000047877431, 0.0, 0.0, 0.0, 0.0, 0.0, 1.6450621256878943E9, 0.0, 2022-02-16 19:42:05.687
3.0, 833.3170283269137, 1084.8813988463953, 1034.5012065432966, 1129.7527185147628, 0.09600000455975533, 0.06400000303983688, 1.008000047877431, 0.0, 0.0, 0.0, 0.0, 0.0, 1.6450621256878943E9, 0.0, 2022-02-16 19:42:05.687
4.0, 828.3841002853587, 1088.0303946090862, 1045.0701638180763, 1144.7160582374781, 0.09600000455975533, 0.06400000303983688, 1.008000047877431, 0.0, 0.0, 0.0, 0.0, 0.0, 1.6450621257015207E9, 0.0, 2022-02-16 19:42:05.701
4.0, 795.0840310798958, 1100.431902862154, 1044.3820222262293, 1191.4087091842666, 0.09600000455975533, 0.06400000303983688, 1.008000047877431, 0.0, 0.0, 0.0, 0.0, 0.0, 1.6450621257015207E9, 0.0, 2022-02-16 19:42:05.701
5.0, 861.6841694908217, 1078.2056774254888, 1033.4091557562351, 1240.9661234971136, 0.09600000455975533, 0.06400000303983688, 1.008000047877431, 0.0, 0.0, 0.0, 0.0, 0.0, 1.64506212571716E9, 0.0, 2022-02-16 19:42:05.717
5.0, 767.764061903581, 1098.741468082182, 1037.451987608336, 1025.2673935526982, 0.09600000455975533, 0.06400000303983688, 1.008000047877431, 0.0, 0.0, 0.0, 0.0, 0.0, 1.64506212571716E9, 0.0, 2022-02-16 19:42:05.717
6.0, 830.1119340648875, 1089.4178974926472, 1037.1041769124568, 1075.236196860671, 0.09600000455975533, 0.06400000303983688, 1.008000047877431, 0.0, 0.0, 0.0, 0.0, 0.0, 1.6450621257178674E9, 0.0, 2022-02-16 19:42:05.717
6.0, 823.4025535443798, 1077.637212632224, 1024.7064085593447, 1169.4928954439238, 0.09600000455975533, 0.06400000303983688, 1.008000047877431, 0.0, 0.0, 0.0, 0.0, 0.0, 1.6450621257178674E9, 0.0, 2022-02-16 19:42:05.717
7.0, 865.540006345138, 1070.6473396150395, 1015.2706409711391, 1050.8670087493956, 0.09600000455975533, 0.06400000303983688, 1.008000047877431, 0.0, 0.0, 0.0, 0.0, 0.0, 1.645062125731501E9, 0.0, 2022-02-16 19:42:05.731
7.0, 791.6994216199964, 1088.516581603326, 1035.7091942289844, 1149.6003675796092, 0.09600000455975533, 0.06400000303983688, 1.008000047877431, 0.0, 0.0, 0.0, 0.0, 0.0, 1.645062125731501E9, 0.0, 2022-02-16 19:42:05.731
8.0, 873.9622610453516, 1094.556520031765, 1024.0220068674535, 1088.4343038043007, 0.09600000455975533, 0.06400000303983688, 1.008000047877431, 0.0, 0.0, 0.0, 0.0, 0.0, 1.645062125747223E9, 0.0, 2022-02-16 19:42:05.747
8.0, 898.3875476559624, 1078.2617759248242, 1012.9294635988772, 1086.6615912253037, 0.09600000455975533, 0.06400000303983688, 1.008000047877431, 0.0, 0.0, 0.0, 0.0, 0.0, 1.645062125747223E9, 0.0, 2022-02-16 19:42:05.747
9.0, 862.4209297820926, 1089.0139882974327, 1024.3361584637314, 1069.5365893281996, 0.09600000455975533, 0.06400000303983688, 1.008000047877431, 0.0, 0.0, 0.0, 0.0, 0.0, 1.6450621257479293E9, 0.0, 2022-02-16 19:42:05.747
9.0, 846.2533422736451, 1093.314873246476, 1026.0639922432601, 1093.1914565479383, 0.09600000455975533, 0.06400000303983688, 1.008000047877431, 0.0, 0.0, 0.0, 0.0, 0.0, 1.6450621257479293E9, 0.0, 2022-02-16 19:42:05.747
10.0, 800.9594139102846, 1075.729863654822, 1016.5459468560293, 1054.782684003003, 0.09600000455975533, 0.06400000303983688, 1.008000047877431, 0.0, 0.0, 0.0, 0.0, 0.0, 1.6450621257614665E9, 0.0, 2022-02-16 19:42:05.761
10.0, 808.0652238260955, 1093.4083707453683, 1031.7374204760417, 1077.4988363338634, 0.09600000455975533, 0.06400000303983688, 1.008000047877431, 0.0, 0.0, 0.0, 0.0, 0.0, 1.6450621257614665E9, 0.0, 2022-02-16 19:42:05.761
11.0, 819.1615069946274, 1108.547485766001, 1046.218313104473, 1109.089771259576, 0.09600000455975533, 0.06400000303983688, 1.008000047877431, 0.0, 0.0, 0.0, 0.0, 0.0, 1.645062125777241E9, 0.0, 2022-02-16 19:42:05.777
11.0, 828.9151660790667, 1082.1138728791848, 1034.0598983485252, 1178.6967892348766, 0.09600000455975533, 0.06400000303983688, 1.008000047877431, 0.0, 0.0, 0.0, 0.0, 0.0, 1.645062125777241E9, 0.0, 2022-02-16 19:42:05.777
12.0, 884.5312183201313, 1077.094927138649, 1022.122137689963, 1135.5458235461265, 0.09600000455975533, 0.06400000303983688, 1.008000047877431, 0.0, 0.0, 0.0, 0.0, 0.0, 1.6450621257779083E9, 0.0, 2022-02-16 19:42:05.777
12.0, 817.0185443200171, 1090.5623068790883, 1031.5317259784788, 1102.6721029356122, 0.09600000455975533, 0.06400000303983688, 1.008000047877431, 0.0, 0.0, 0.0, 0.0, 0.0, 1.6450621257779083E9, 0.0, 2022-02-16 19:42:05.777
13.0, 789.2834462486207, 1096.3329725107178, 1027.7731265230104, 1178.898743832484, 0.09600000455975533, 0.06400000303983688, 1.008000047877431, 0.0, 0.0, 0.0, 0.0, 0.0, 1.6450621258079443E9, 0.0, 2022-02-16 19:42:05.807
13.0, 792.6605759086087, 1075.9916566517204, 1008.6958968490362, 1111.5955042298883, 0.09600000455975533, 0.06400000303983688, 1.008000047877431, 0.0, 0.0, 0.0, 0.0, 0.0, 1.6450621258079443E9, 0.0, 2022-02-16 19:42:05.807
14.0, 881.8983287513256, 1085.090833243914, 1012.2039230074733, 1044.6886940225959, 0.09600000455975533, 0.06400000303983688, 1.008000047877431, 0.0, 0.0, 0.0, 0.0, 0.0, 1.645062125808608E9, 0.0, 2022-02-16 19:42:05.808
14.0, 871.9539347691461, 1084.5186285506934, 1017.2565278476104, 1202.0150654586032, 0.09600000455975533, 0.06400000303983688, 1.008000047877431, 0.0, 0.0, 0.0, 0.0, 0.0, 1.645062125808608E9, 0.0, 2022-02-16 19:42:05.808
15.0, 734.5387906972319, 1084.944977145642, 1010.6182054262608, 1000.2960815485567, 0.09600000455975533, 0.06400000303983688, 1.008000047877431, 0.0, 0.0, 0.0, 0.0, 0.0, 1.645062125809376E9, 0.0, 2022-02-16 19:42:05.809
15.0, 853.8004603842273, 1084.619605849497, 1006.5828533740714, 1017.6940961424261, 0.09600000455975533, 0.06400000303983688, 1.008000047877431, 0.0, 0.0, 0.0, 0.0, 0.0, 1.645062125809376E9, 0.0, 2022-02-16 19:42:05.809
16.0, 847.0424611642957, 1092.0395673615858, 1015.5473935678601, 1080.6814911961555, 0.09600000455975533, 0.06400000303983688, 1.008000047877431, 0.0, 0.0, 0.0, 0.0, 0.0, 1.6450621258369923E9, 0.0, 2022-02-16 19:42:05.836
16.0, 788.4457086585462, 1074.5443153688684, 1014.3356659822166, 1137.5803291220218, 0.09600000455975533, 0.06400000303983688, 1.008000047877431, 0.0, 0.0, 0.0, 0.0, 0.0, 1.6450621258369923E9, 0.0, 2022-02-16 19:42:05.836
17.0, 833.2497101277113, 1071.690771702677, 1001.9491173289716, 1105.738820899278, 0.09600000455975533, 0.06400000303983688, 1.008000047877431, 0.0, 0.0, 0.0, 0.0, 0.0, 1.64506212585357E9, 0.0, 2022-02-16 19:42:05.853
17.0, 813.5965358605608, 1099.0780590781942, 1025.6152042485774, 1096.9911949029192, 0.09600000455975533, 0.06400000303983688, 1.008000047877431, 0.0, 0.0, 0.0, 0.0, 0.0, 1.64506212585357E9, 0.0, 2022-02-16 19:42:05.853
18.0, 843.0370283117518, 1093.4682091446593, 1030.6191903892905, 1109.6320567531511, 0.09600000455975533, 0.06400000303983688, 1.008000047877431, 0.0, 0.0, 0.0, 0.0, 0.0, 1.6450621258542676E9, 0.0, 2022-02-16 19:42:05.854
18.0, 884.4302410213277, 1062.3372819134966, 1016.7628610534593, 1185.8512178501114, 0.09600000455975533, 0.06400000303983688, 1.008000047877431, 0.0, 0.0, 0.0, 0.0, 0.0, 1.6450621258542676E9, 0.0, 2022-02-16 19:42:05.854
19.0, 793.6030306974426, 1072.4798905933276, 1024.2501407647505, 1100.491741261445, 0.09600000455975533, 0.06400000303983688, 1.008000047877431, 0.0, 0.0, 0.0, 0.0, 0.0, 1.6450621258550828E9, 0.0, 2022-02-16 19:42:05.855
19.0, 795.0017532808706, 1093.0792595492676, 1030.6453696889803, 1108.319351868704, 0.09600000455975533, 0.06400000303983688, 1.008000047877431, 0.0, 0.0, 0.0, 0.0, 0.0, 1.6450621258550828E9, 0.0, 2022-02-16 19:42:05.855
20.0, 844.7087635919452, 1085.3975050402805, 1015.2369818715379, 1081.0480013918132, 0.09600000455975533, 0.06400000303983688, 1.008000047877431, 0.0, 0.0, 0.0, 0.0, 0.0, 1.6450621258557875E9, 0.0, 2022-02-16 19:42:05.855
20.0, 799.8411838235334, 1088.8681321991608, 1030.6640691887587, 1086.4110179282725, 0.09600000455975533, 0.06400000303983688, 1.008000047877431, 0.0, 0.0, 0.0, 0.0, 0.0, 1.6450621258557875E9, 0.0, 2022-02-16 19:42:05.855
21.0, 821.409186867997, 1102.4851079378277, 1042.08198375348, 1142.7413910608739, 0.09600000455975533, 0.06400000303983688, 1.008000047877431, 0.0, 0.0, 0.0, 0.0, 0.0, 1.6450621258665657E9, 0.0, 2022-02-16 19:42:05.866
21.0, 884.7817916171625, 1088.1874704072252, 1032.096450871788, 1064.5326031874865, 0.09600000455975533, 0.06400000303983688, 1.008000047877431, 0.0, 0.0, 0.0, 0.0, 0.0, 1.6450621258665657E9, 0.0, 2022-02-16 19:42:05.866
22.0, 912.5505487881601, 1073.9496712759137, 1021.2470011003315, 1122.5347116002813, 0.09600000455975533, 0.06400000303983688, 1.008000047877431, 0.0, 0.0, 0.0, 0.0, 0.0, 1.6450621258815703E9, 0.0, 2022-02-16 19:42:05.881
22.0, 909.7082248218358, 1092.170463860035, 1029.5121800024062, 1073.6542191794142, 0.09600000455975533, 0.06400000303983688, 1.008000047877431, 0.0, 0.0, 0.0, 0.0, 0.0, 1.6450621258815703E9, 0.0, 2022-02-16 19:42:05.881
23.0, 805.6604681545869, 1099.1117181777954, 1027.2645001290366, 1141.2977896779776, 0.09600000455975533, 0.06400000303983688, 1.008000047877431, 0.0, 0.0, 0.0, 0.0, 0.0, 1.6450621258972223E9, 0.0, 2022-02-16 19:42:05.897
23.0, 816.5660164253786, 1084.451310351491, 1012.5068549038842, 1175.338359074667, 0.09600000455975533, 0.06400000303983688, 1.008000047877431, 0.0, 0.0, 0.0, 0.0, 0.0, 1.6450621258972223E9, 0.0, 2022-02-16 19:42:05.897
24.0, 810.7018532948568, 1089.010248397477, 1028.382730215788, 1156.3957657990977, 0.09600000455975533, 0.06400000303983688, 1.008000047877431, 0.0, 0.0, 0.0, 0.0, 0.0, 1.645062125897896E9, 0.0, 2022-02-16 19:42:05.897
24.0, 870.5365126859397, 1093.1877166479826, 1027.9189826212823, 1285.1268621739, 0.09600000455975533, 0.06400000303983688, 1.008000047877431, 0.0, 0.0, 0.0, 0.0, 0.0, 1.645062125897896E9, 0.0, 2022-02-16 19:42:05.897
25.0, 868.5468859095126, 1078.2430764250457, 1014.5750195793808, 1161.156658442691, 0.09600000455975533, 0.06400000303983688, 1.008000047877431, 0.0, 0.0, 0.0, 0.0, 0.0, 1.6450621259115343E9, 0.0, 2022-02-16 19:42:05.911
25.0, 736.1245082784444, 1088.6175589021295, 1027.2084016297013, 987.5766817992553, 0.09600000455975533, 0.06400000303983688, 1.008000047877431, 0.0, 0.0, 0.0, 0.0, 0.0, 1.6450621259115343E9, 0.0, 2022-02-16 19:42:05.911
26.0, 899.4048004439101, 1096.4115104097873, 1038.5440383953974, 1129.9097943129018, 0.09600000455975533, 0.06400000303983688, 1.008000047877431, 0.0, 0.0, 0.0, 0.0, 0.0, 1.6450621259271483E9, 0.0, 2022-02-16 19:42:05.927
26.0, 919.7909951023757, 1095.2708409233019, 1023.8873704690486, 1109.1645692586899, 0.09600000455975533, 0.06400000303983688, 1.008000047877431, 0.0, 0.0, 0.0, 0.0, 0.0, 1.6450621259271483E9, 0.0, 2022-02-16 19:42:05.927
27.0, 873.0721648558974, 1091.6917566657066, 1020.6448772074655, 1115.2269470868632, 0.09600000455975533, 0.06400000303983688, 1.008000047877431, 0.0, 0.0, 0.0, 0.0, 0.0, 1.6450621259279387E9, 0.0, 2022-02-16 19:42:05.927
27.0, 842.1170129226521, 1101.1686631534249, 1036.3823762210086, 1091.9722491623834, 0.09600000455975533, 0.06400000303983688, 1.008000047877431, 0.0, 0.0, 0.0, 0.0, 0.0, 1.6450621259279387E9, 0.0, 2022-02-16 19:42:05.927
28.0, 855.1730036679655, 1093.183976748027, 1025.6376436483115, 1142.6217142622918, 0.09600000455975533, 0.06400000303983688, 1.008000047877431, 0.0, 0.0, 0.0, 0.0, 0.0, 1.6450621259415371E9, 0.0, 2022-02-16 19:42:05.941
28.0, 838.5005296654999, 1081.9754965808243, 1019.2985132234171, 1110.368817044422, 0.09600000455975533, 0.06400000303983688, 1.008000047877431, 0.0, 0.0, 0.0, 0.0, 0.0, 1.6450621259415371E9, 0.0, 2022-02-16 19:42:05.941
29.0, 840.2956816442311, 1101.8568047452718, 1027.8554043220356, 1109.175788958557, 0.09600000455975533, 0.06400000303983688, 1.008000047877431, 0.0, 0.0, 0.0, 0.0, 0.0, 1.6450621259571872E9, 0.0, 2022-02-16 19:42:05.957
29.0, 806.4084481457248, 1096.6770433066413, 1033.880383150652, 1042.3175974506885, 0.09600000455975533, 0.06400000303983688, 1.008000047877431, 0.0, 0.0, 0.0, 0.0, 0.0, 1.6450621259571872E9, 0.0, 2022-02-16 19:42:05.957
30.0, 818.8062164988369, 1087.5965662142262, 1019.5790057200938, 1234.4811369739473, 0.09600000455975533, 0.06400000303983688, 1.008000047877431, 0.0, 0.0, 0.0, 0.0, 0.0, 1.6450621259580505E9, 0.0, 2022-02-16 19:42:05.958
30.0, 868.445908610709, 1091.953549662605, 1029.2690865052864, 1040.8216374684125, 0.09600000455975533, 0.06400000303983688, 1.008000047877431, 0.0, 0.0, 0.0, 0.0, 0.0, 1.6450621259580505E9, 0.0, 2022-02-16 19:42:05.958
31.0, 887.6802140828222, 1106.5241998899728, 1036.4758737199008, 1125.3508562669158, 0.09600000455975533, 0.06400000303983688, 1.008000047877431, 0.0, 0.0, 0.0, 0.0, 0.0, 1.645062125971667E9, 0.0, 2022-02-16 19:42:05.971
31.0, 791.8190984185785, 1095.5401137201115, 1024.848524757661, 1033.0463854605332, 0.09600000455975533, 0.06400000303983688, 1.008000047877431, 0.0, 0.0, 0.0, 0.0, 0.0, 1.645062125971667E9, 0.0, 2022-02-16 19:42:05.971
32.0, 811.9210606804118, 1092.0096481619403, 1011.6765971137211, 1142.8648077594116, 0.09600000455975533, 0.06400000303983688, 1.008000047877431, 0.0, 0.0, 0.0, 0.0, 0.0, 1.645062125987852E9, 0.0, 2022-02-16 19:42:05.987
32.0, 867.7278478192165, 1103.083491930738, 1025.6750426478684, 1130.3997212070972, 0.09600000455975533, 0.06400000303983688, 1.008000047877431, 0.0, 0.0, 0.0, 0.0, 0.0, 1.645062125987852E9, 0.0, 2022-02-16 19:42:05.987
33.0, 780.8424920486286, 1099.8559582689777, 1028.117197318934, 1050.825869849883, 0.09600000455975533, 0.06400000303983688, 1.008000047877431, 0.0, 0.0, 0.0, 0.0, 0.0, 1.6450621259883673E9, 0.0, 2022-02-16 19:42:05.988
33.0, 851.0778132164851, 1084.088540055789, 1017.1331111490726, 1073.1568124853075, 0.09600000455975533, 0.06400000303983688, 1.008000047877431, 0.0, 0.0, 0.0, 0.0, 0.0, 1.6450621259883673E9, 0.0, 2022-02-16 19:42:05.988
34.0, 876.9354815101251, 1095.570032919757, 1034.0037998491898, 1088.4754427038133, 0.09600000455975533, 0.06400000303983688, 1.008000047877431, 0.0, 0.0, 0.0, 0.0, 0.0, 1.6450621260014477E9, 0.0, 2022-02-16 19:42:06.001
34.0, 876.3071783175692, 1098.8948039803654, 1035.8662700271234, 1070.8118952130899, 0.09600000455975533, 0.06400000303983688, 1.008000047877431, 0.0, 0.0, 0.0, 0.0, 0.0, 1.6450621260014477E9, 0.0, 2022-02-16 19:42:06.001
35.0, 808.1213223254308, 1091.254188370891, 1025.727401247248, 1088.53902100306, 0.09600000455975533, 0.06400000303983688, 1.008000047877431, 0.0, 0.0, 0.0, 0.0, 0.0, 1.6450621260172048E9, 0.0, 2022-02-16 19:42:06.017
35.0, 794.4220687877387, 1096.1646770127118, 1024.9420222565532, 1150.7522567659616, 0.09600000455975533, 0.06400000303983688, 1.008000047877431, 0.0, 0.0, 0.0, 0.0, 0.0, 1.6450621260172048E9, 0.0, 2022-02-16 19:42:06.017
36.0, 833.9378517195582, 1099.0294403787702, 1028.6370434127748, 1189.7444537039846, 0.09600000455975533, 0.06400000303983688, 1.008000047877431, 0.0, 0.0, 0.0, 0.0, 0.0, 1.6450621260178409E9, 0.0, 2022-02-16 19:42:06.017
36.0, 909.2669166270643, 1095.2110025240108, 1010.2853543302044, 1147.1881321081892, 0.09600000455975533, 0.06400000303983688, 1.008000047877431, 0.0, 0.0, 0.0, 0.0, 0.0, 1.6450621260178409E9, 0.0, 2022-02-16 19:42:06.017
37.0, 839.7833153503016, 1087.2412757184356, 1005.9134112820029, 1193.8321643555537, 0.09600000455975533, 0.06400000303983688, 1.008000047877431, 0.0, 0.0, 0.0, 0.0, 0.0, 1.6450621260314198E9, 0.0, 2022-02-16 19:42:06.031
37.0, 953.0611451081932, 1099.9083168683574, 1014.945269674994, 1349.542899010703, 0.09600000455975533, 0.06400000303983688, 1.008000047877431, 0.0, 0.0, 0.0, 0.0, 0.0, 1.6450621260314198E9, 0.0, 2022-02-16 19:42:06.031
38.0, 936.8860777998343, 1083.9838228570297, 1001.3956121355295, 1505.5303862625733, 0.09600000455975533, 0.06400000303983688, 1.008000047877431, 0.0, 0.0, 0.0, 0.0, 0.0, 1.6450621260471227E9, 0.0, 2022-02-16 19:42:06.047
38.0, 855.0047081699595, 1063.092741704546, 1001.7770819310099, 1276.2819987786934, 0.09600000455975533, 0.06400000303983688, 1.008000047877431, 0.0, 0.0, 0.0, 0.0, 0.0, 1.6450621260471227E9, 0.0, 2022-02-16 19:42:06.047
39.0, 960.6045233188197, 1064.248370790854, 1008.0601138565689, 1405.1739108515903, 0.09600000455975533, 0.06400000303983688, 1.008000047877431, 0.0, 0.0, 0.0, 0.0, 0.0, 1.645062126047879E9, 0.0, 2022-02-16 19:42:06.047
39.0, 1024.3997367629781, 1099.6914026709273, 1011.3774051172659, 1454.1366810714826, 0.09600000455975533, 0.06400000303983688, 1.008000047877431, 0.0, 0.0, 0.0, 0.0, 0.0, 1.645062126047879E9, 0.0, 2022-02-16 19:42:06.047
40.0, 1082.4392441753298, 1077.4128186348826, 994.3159815194085, 1318.7934415750206, 0.09600000455975533, 0.06400000303983688, 1.008000047877431, 0.0, 0.0, 0.0, 0.0, 0.0, 1.6450621260614538E9, 0.0, 2022-02-16 19:42:06.061
40.0, 986.6192674105987, 1081.7548424834386, 1003.7667087074369, 1171.4264237210155, 0.09600000455975533, 0.06400000303983688, 1.008000047877431, 0.0, 0.0, 0.0, 0.0, 0.0, 1.6450621260614538E9, 0.0, 2022-02-16 19:42:06.061
41.0, 944.5827919086441, 1088.381945204921, 1020.0801523141563, 963.4431073851883, 0.09600000455975533, 0.0800000037997961, 1.008000047877431, 0.0, 0.0, 0.0, 0.0, 0.0, 1.645062126077138E9, 0.0, 2022-02-16 19:42:06.077
41.0, 988.4705178886652, 1089.4403368923813, 1013.6400445904583, 861.4522956935689, 0.09600000455975533, 0.0800000037997961, 1.008000047877431, 0.0, 0.0, 0.0, 0.0, 0.0, 1.645062126077138E9, 0.0, 2022-02-16 19:42:06.077
42.0, 1006.672610973008, 1080.8946654936299, 1007.0241615688428, 884.437720821239, 0.09600000455975533, 0.0800000037997961, 1.008000047877431, 0.0, 0.0, 0.0, 0.0, 0.0, 1.6450621260779042E9, 0.0, 2022-02-16 19:42:06.077
42.0, 954.8226379873231, 1094.5976589312777, 1017.129371249117, 883.1848543360829, 0.09600000455975533, 0.0800000037997961, 1.008000047877431, 0.0, 0.0, 0.0, 0.0, 0.0, 1.6450621260779042E9, 0.0, 2022-02-16 19:42:06.077
43.0, 979.7677706917748, 1088.490402303636, 1016.0298406621441, 903.8104025917128, 0.09600000455975533, 0.0800000037997961, 1.008000047877431, 0.0, 0.0, 0.0, 0.0, 0.0, 1.6450621260914507E9, 0.0, 2022-02-16 19:42:06.091
43.0, 926.6163125215098, 1065.0524492813274, 1015.0163277741522, 917.2590828323737, 0.09600000455975533, 0.0800000037997961, 1.008000047877431, 0.0, 0.0, 0.0, 0.0, 0.0, 1.6450621260914507E9, 0.0, 2022-02-16 19:42:06.091
44.0, 878.8839693870395, 1099.8185592694208, 1024.930802556686, 968.7163663227111, 0.09600000455975533, 0.0800000037997961, 1.008000047877431, 0.0, 0.0, 0.0, 0.0, 0.0, 1.6450621261071672E9, 0.0, 2022-02-16 19:42:06.107
44.0, 830.8225150564685, 1107.7733264751732, 1023.1281707780436, 1117.2390132630244, 0.09600000455975533, 0.0800000037997961, 1.008000047877431, 0.0, 0.0, 0.0, 0.0, 0.0, 1.6450621261071672E9, 0.0, 2022-02-16 19:42:06.107
45.0, 896.2670243810862, 1094.2909871349111, 1013.2735343948007, 1133.3542421720922, 0.09600000455975533, 0.0800000037997961, 1.008000047877431, 0.0, 0.0, 0.0, 0.0, 0.0, 1.6450621261078396E9, 0.0, 2022-02-16 19:42:06.107
45.0, 798.38636274077, 1092.7351887533441, 1016.766600953415, 1033.5998906539753, 0.09600000455975533, 0.0800000037997961, 1.008000047877431, 0.0, 0.0, 0.0, 0.0, 0.0, 1.6450621261078396E9, 0.0, 2022-02-16 19:42:06.107
46.0, 866.7105950312689, 1102.215835141018, 1030.9183823857456, 1040.6047232709825, 0.09600000455975533, 0.0800000037997961, 1.008000047877431, 0.0, 0.0, 0.0, 0.0, 0.0, 1.6450621261215372E9, 0.0, 2022-02-16 19:42:06.121
46.0, 873.1918416544795, 1093.7674011411145, 1015.8241461645812, 1156.4556041983888, 0.09600000455975533, 0.0800000037997961, 1.008000047877431, 0.0, 0.0, 0.0, 0.0, 0.0, 1.6450621261215372E9, 0.0, 2022-02-16 19:42:06.121
47.0, 892.0783364307135, 1085.030994844623, 1008.4752427516505, 1083.1086862673983, 0.09600000455975533, 0.0800000037997961, 1.008000047877431, 0.0, 0.0, 0.0, 0.0, 0.0, 1.645062126137196E9, 0.0, 2022-02-16 19:42:06.137
47.0, 817.8375824103132, 1104.9571818085387, 1034.942514738068, 1134.925000153482, 0.09600000455975533, 0.0800000037997961, 1.008000047877431, 0.0, 0.0, 0.0, 0.0, 0.0, 1.645062126137196E9, 0.0, 2022-02-16 19:42:06.137
48.0, 846.5525342701003, 1092.9034842513502, 1025.4282092507929, 1247.7091631172225, 0.09600000455975533, 0.0800000037997961, 1.008000047877431, 0.0, 0.0, 0.0, 0.0, 0.0, 1.6450621261378624E9, 0.0, 2022-02-16 19:42:06.137
48.0, 911.9035460958257, 1078.504869421944, 1012.847185799852, 1111.659082529135, 0.09600000455975533, 0.0800000037997961, 1.008000047877431, 0.0, 0.0, 0.0, 0.0, 0.0, 1.6450621261378624E9, 0.0, 2022-02-16 19:42:06.137
49.0, 851.608879010193, 1111.5319259306416, 1029.9460083972663, 1148.3175818948075, 0.09600000455975533, 0.0800000037997961, 1.008000047877431, 0.0, 0.0, 0.0, 0.0, 0.0, 1.6450621261514866E9, 0.0, 2022-02-16 19:42:06.151
49.0, 887.332403386943, 1119.8644230319187, 1023.954688668251, 1098.0570663902909, 0.09600000455975533, 0.0800000037997961, 1.008000047877431, 0.0, 0.0, 0.0, 0.0, 0.0, 1.6450621261514866E9, 0.0, 2022-02-16 19:42:06.151
50.0, 829.8052622685209, 1107.2721798811108, 1020.61495800782, 1149.637766579166, 0.09600000455975533, 0.0800000037997961, 1.008000047877431, 0.0, 0.0, 0.0, 0.0, 0.0, 1.64506212616725E9, 0.0, 2022-02-16 19:42:06.167
50.0, 896.9850851725787, 1090.046200685203, 1019.5902254199609, 1266.5881780935451, 0.09600000455975533, 0.0800000037997961, 1.008000047877431, 0.0, 0.0, 0.0, 0.0, 0.0, 1.64506212616725E9, 0.0, 2022-02-16 19:42:06.167
51.0, 862.0731190862134, 1091.8039536643773, 1024.6241307603195, 1192.826131267473, 0.09600000455975533, 0.06400000303983688, 1.008000047877431, 0.0, 0.0, 0.0, 0.0, 0.0, 1.6450621261679187E9, 0.0, 2022-02-16 19:42:06.167
51.0, 920.7035306915641, 1091.953549662605, 1018.2550811357796, 1146.4513718169183, 0.09600000455975533, 0.06400000303983688, 1.008000047877431, 0.0, 0.0, 0.0, 0.0, 0.0, 1.6450621261679187E9, 0.0, 2022-02-16 19:42:06.167
52.0, 877.93777469825, 1087.839659711346, 1015.3828379698098, 1146.212018219754, 0.09600000455975533, 0.06400000303983688, 1.008000047877431, 0.0, 0.0, 0.0, 0.0, 0.0, 1.645062126181501E9, 0.0, 2022-02-16 19:42:06.181
52.0, 882.8968820394948, 1107.0552656836808, 1024.4034766629338, 1112.044292224571, 0.09600000455975533, 0.06400000303983688, 1.008000047877431, 0.0, 0.0, 0.0, 0.0, 0.0, 1.645062126181501E9, 0.0, 2022-02-16 19:42:06.181
53.0, 893.8248697100207, 1099.863438068889, 1020.0315336147323, 1236.4445844506845, 0.09600000455975533, 0.06400000303983688, 1.008000047877431, 0.0, 0.0, 0.0, 0.0, 0.0, 1.6450621261971283E9, 0.0, 2022-02-16 19:42:06.197
53.0, 911.9820839948952, 1100.3309255633503, 1020.0502331145108, 1138.2497712140903, 0.09600000455975533, 0.06400000303983688, 1.008000047877431, 0.0, 0.0, 0.0, 0.0, 0.0, 1.6450621261971283E9, 0.0, 2022-02-16 19:42:06.197
54.0, 870.8244849825278, 1115.1409293878824, 1029.6617760006338, 1165.5622605904937, 0.09600000455975533, 0.06400000303983688, 1.008000047877431, 0.0, 0.0, 0.0, 0.0, 0.0, 1.6450621261978457E9, 0.0, 2022-02-16 19:42:06.197
54.0, 850.4195908242837, 1108.9289555614814, 1021.8117259936407, 1163.4903560150415, 0.09600000455975533, 0.06400000303983688, 1.008000047877431, 0.0, 0.0, 0.0, 0.0, 0.0, 1.6450621261978457E9, 0.0, 2022-02-16 19:42:06.197
55.0, 916.3016684437171, 1096.415250309743, 1012.6340115023777, 1243.4643766675144, 0.09600000455975533, 0.06400000303983688, 1.008000047877431, 0.0, 0.0, 0.0, 0.0, 0.0, 1.6450621262114975E9, 0.0, 2022-02-16 19:42:06.211
55.0, 909.8840001197532, 1080.7637689951807, 995.673565203324, 1239.3243074165657, 0.09600000455975533, 0.06400000303983688, 1.008000047877431, 0.0, 0.0, 0.0, 0.0, 0.0, 1.6450621262114975E9, 0.0, 2022-02-16 19:42:06.211
56.0, 932.9180439468473, 1094.7435150295496, 1001.5265086339787, 1158.22457687743, 0.09600000455975533, 0.06400000303983688, 1.008000047877431, 0.0, 0.0, 0.0, 0.0, 0.0, 1.6450621262275596E9, 0.0, 2022-02-16 19:42:06.227
56.0, 925.2362894378603, 1095.6859698183835, 997.5397752812132, 1151.0888477619737, 0.09600000455975533, 0.06400000303983688, 1.008000047877431, 0.0, 0.0, 0.0, 0.0, 0.0, 1.6450621262275596E9, 0.0, 2022-02-16 19:42:06.227
57.0, 812.919613968581, 1074.9183053644374, 978.6046618055552, 1213.89672761783, 0.09600000455975533, 0.06400000303983688, 1.008000047877431, 0.0, 0.0, 0.0, 0.0, 0.0, 1.645062126242156E9, 0.0, 2022-02-16 19:42:06.242
57.0, 856.8746581478044, 1104.8113257102668, 998.3588133715093, 1263.7608137270436, 0.09600000455975533, 0.06400000303983688, 1.008000047877431, 0.0, 0.0, 0.0, 0.0, 0.0, 1.645062126242156E9, 0.0, 2022-02-16 19:42:06.242
58.0, 884.7556123174727, 1100.7123953588307, 990.8191750608385, 1269.3332646610215, 0.09600000455975533, 0.06400000303983688, 1.008000047877431, 0.0, 0.0, 0.0, 0.0, 0.0, 1.6450621262428193E9, 0.0, 2022-02-16 19:42:06.242
58.0, 935.1358046205714, 1081.7698020832613, 973.9260469609872, 1318.8383203744888, 0.09600000455975533, 0.06400000303983688, 1.008000047877431, 0.0, 0.0, 0.0, 0.0, 0.0, 1.6450621262428193E9, 0.0, 2022-02-16 19:42:06.242
59.0, 946.5163201857358, 1089.503915191628, 989.5663085756823, 1170.7532417289913, 0.09600000455975533, 0.06400000303983688, 1.008000047877431, 0.0, 0.0, 0.0, 0.0, 0.0, 1.6450621262571824E9, 0.0, 2022-02-16 19:42:06.257
59.0, 930.5955660743639, 1093.3784515457228, 989.8019222728908, 1224.2038918957114, 0.09600000455975533, 0.06400000303983688, 1.008000047877431, 0.0, 0.0, 0.0, 0.0, 0.0, 1.6450621262571824E9, 0.0, 2022-02-16 19:42:06.257
60.0, 922.5772205693647, 1075.598967156373, 968.3573359269649, 1223.8186822002754, 0.09600000455975533, 0.06400000303983688, 1.008000047877431, 0.0, 0.0, 0.0, 0.0, 0.0, 1.64506212625922E9, 0.0, 2022-02-16 19:42:06.259
60.0, 858.9877016227692, 1070.3144885189831, 971.214619493112, 1312.1850383533165, 0.09600000455975533, 0.06400000303983688, 1.008000047877431, 0.0, 0.0, 0.0, 0.0, 0.0, 1.64506212625922E9, 0.0, 2022-02-16 19:42:06.259
61.0, 877.2159740068018, 1077.5250156335533, 969.1165356179699, 1352.5759578747675, 0.09600000455975533, 0.06400000303983688, 1.008000047877431, 0.0, 0.0, 0.0, 0.0, 0.0, 1.6450621262716284E9, 0.0, 2022-02-16 19:42:06.271
61.0, 871.7445003716275, 1072.173218796961, 959.6134498305619, 1242.5144420787692, 0.09600000455975533, 0.06400000303983688, 1.008000047877431, 0.0, 0.0, 0.0, 0.0, 0.0, 1.6450621262716284E9, 0.0, 2022-02-16 19:42:06.271
62.0, 882.3770359456539, 1068.7923492370173, 957.332110857591, 1254.8822912322357, 0.09600000455975533, 0.06400000303983688, 1.008000047877431, 0.0, 0.0, 0.0, 0.0, 0.0, 1.645062126287166E9, 0.0, 2022-02-16 19:42:06.287
62.0, 870.4093560874462, 1073.6130802799016, 980.343715284951, 1254.167970340699, 0.09600000455975533, 0.06400000303983688, 1.008000047877431, 0.0, 0.0, 0.0, 0.0, 0.0, 1.645062126287166E9, 0.0, 2022-02-16 19:42:06.287
63.0, 893.8622687095776, 1062.8047694079578, 977.5799292176962, 1209.880075065419, 0.09600000455975533, 0.06400000303983688, 1.008000047877431, 0.0, 0.0, 0.0, 0.0, 0.0, 1.6450621262878644E9, 0.0, 2022-02-16 19:42:06.287
63.0, 932.6599908499047, 1047.5310179889202, 969.0866164183244, 1289.9326336169615, 0.09600000455975533, 0.06400000303983688, 1.008000047877431, 0.0, 0.0, 0.0, 0.0, 0.0, 1.6450621262878644E9, 0.0, 2022-02-16 19:42:06.287
64.0, 899.6030151415616, 1079.1743115140125, 976.1737268343568, 1259.6656232755631, 0.09600000455975533, 0.06400000303983688, 1.008000047877431, 0.0, 0.0, 0.0, 0.0, 0.0, 1.645062126301566E9, 0.0, 2022-02-16 19:42:06.301
64.0, 925.7785749314353, 1093.0456004496664, 975.6688403403386, 1299.768570500426, 0.09600000455975533, 0.06400000303983688, 1.008000047877431, 0.0, 0.0, 0.0, 0.0, 0.0, 1.645062126301566E9, 0.0, 2022-02-16 19:42:06.301
65.0, 1013.6737036900595, 1075.0043230634183, 968.4246541261673, 1222.7191516133025, 0.09600000455975533, 0.06400000303983688, 1.008000047877431, 0.0, 0.0, 0.0, 0.0, 0.0, 1.645062126317584E9, 0.0, 2022-02-16 19:42:06.317
65.0, 1006.5304947746918, 1072.221837496385, 972.3365894798189, 1264.4339957190678, 0.09600000455975533, 0.06400000303983688, 1.008000047877431, 0.0, 0.0, 0.0, 0.0, 0.0, 1.645062126317584E9, 0.0, 2022-02-16 19:42:06.317
66.0, 851.597659310326, 1075.8682399531826, 974.5767895532772, 1224.3460080940276, 0.09600000455975533, 0.06400000303983688, 1.008000047877431, 0.0, 0.0, 0.0, 0.0, 0.0, 1.6450621263322408E9, 0.0, 2022-02-16 19:42:06.332
66.0, 790.5512723335996, 1072.7903022896498, 968.2638384280726, 1195.9078088309616, 0.09600000455975533, 0.06400000303983688, 1.008000047877431, 0.0, 0.0, 0.0, 0.0, 0.0, 1.6450621263322408E9, 0.0, 2022-02-16 19:42:06.332
67.0, 850.5916262222454, 1058.208432362415, 964.2995444750413, 1182.3731108913198, 0.09600000455975533, 0.06400000303983688, 1.008000047877431, 0.0, 0.0, 0.0, 0.0, 0.0, 1.6450621263328907E9, 0.0, 2022-02-16 19:42:06.332
67.0, 858.243461531587, 1082.581360373646, 979.004831100814, 1148.4746576929465, 0.09600000455975533, 0.06400000303983688, 1.008000047877431, 0.0, 0.0, 0.0, 0.0, 0.0, 1.6450621263328907E9, 0.0, 2022-02-16 19:42:06.332
68.0, 949.8635306460783, 1085.8911718344316, 979.0908487997949, 1155.475750409998, 0.09600000455975533, 0.06400000303983688, 1.008000047877431, 0.0, 0.0, 0.0, 0.0, 0.0, 1.6450621263469164E9, 0.0, 2022-02-16 19:42:06.346
68.0, 924.3013144489378, 1060.6057082340121, 963.5253851842135, 1117.725200257264, 0.09600000455975533, 0.06400000303983688, 1.008000047877431, 0.0, 0.0, 0.0, 0.0, 0.0, 1.6450621263469164E9, 0.0, 2022-02-16 19:42:06.346
69.0, 862.4171898821369, 1075.6401060558856, 975.5790827414021, 1160.7677088472992, 0.09600000455975533, 0.06400000303983688, 1.008000047877431, 0.0, 0.0, 0.0, 0.0, 0.0, 1.6450621263621705E9, 0.0, 2022-02-16 19:42:06.362
69.0, 869.1116108028218, 1081.2125569898635, 987.7524570971727, 979.9547656895593, 0.09600000455975533, 0.06400000303983688, 1.008000047877431, 0.0, 0.0, 0.0, 0.0, 0.0, 1.6450621263621705E9, 0.0, 2022-02-16 19:42:06.362
