%OpenBCI Raw EEG Data
%Number of channels = 4
%Sample Rate = 200 Hz
%Board = OpenBCI_GUI$BoardGanglionBLE
Sample Index, EXG Channel 0, EXG Channel 1, EXG Channel 2, EXG Channel 3, Accel Channel 0, Accel Channel 1, Accel Channel 2, Other, Other, Other, Other, Other, Timestamp, Other, Timestamp (Formatted)
2.0, -2.647849168628454, 6.02497882861644, -8.770065396092832, -22.256144636310637, 0.4800000227987766, 0.0, 0.0, 0.0, 0.0, 0.0, 0.0, 0.0, 1.6506672833869236E9, 0.0, 2022-04-22 17:41:23.386
2.0, 16.02921121008694, 0.6731819920241833, 0.5535051934421062, 10.87562907114625, 0.4800000227987766, 0.0, 0.0, 0.0, 0.0, 0.0, 0.0, 0.0, 1.6506672833869236E9, 0.0, 2022-04-22 17:41:23.386
3.0, 15.374728717841208, -1.61189688090235, 3.9642939530313015, -1.9896267764270306, 0.4800000227987766, 0.0, 0.0, 0.0, 0.0, 0.0, 0.0, 0.0, 1.6506672834008136E9, 0.0, 2022-04-22 17:41:23.400
3.0, 14.170480932109058, -5.882862630300224, -6.963693717494607, 1.8849095776677132, 0.4800000227987766, 0.0, 0.0, 0.0, 0.0, 0.0, 0.0, 0.0, 1.6506672834008136E9, 0.0, 2022-04-22 17:41:23.400
4.0, 12.577283550985157, -11.623609062284231, -11.092543268576264, -1.690434779971838, 0.4800000227987766, 0.0, 0.0, 0.0, 0.0, 0.0, 0.0, 0.0, 1.6506672834014883E9, 0.0, 2022-04-22 17:41:23.401
4.0, -5.392935736104846, -7.861269706860185, -17.985178886912763, 1.9784070765599608, 0.4800000227987766, 0.0, 0.0, 0.0, 0.0, 0.0, 0.0, 0.0, 1.6506672834014883E9, 0.0, 2022-04-22 17:41:23.401
5.0, -3.8520969543606043, 1.7914120787754655, -5.299438237212598, 4.095190451480448, 0.4800000227987766, 0.0, 0.0, 0.0, 0.0, 0.0, 0.0, 0.0, 1.6506672834150016E9, 0.0, 2022-04-22 17:41:23.415
5.0, 0.12341669853776693, 6.791658319532871, 6.496206223033369, 12.0424778573215, 0.4800000227987766, 0.0, 0.0, 0.0, 0.0, 0.0, 0.0, 0.0, 1.6506672834150016E9, 0.0, 2022-04-22 17:41:23.415
6.0, -4.472920347005129, 5.62480953335762, -0.605863792821765, -2.124263174831867, 0.4800000227987766, 0.0, 0.0, 0.0, 0.0, 0.0, 0.0, 0.0, 1.6506672834307923E9, 0.0, 2022-04-22 17:41:23.430
6.0, 5.931481329724193, 1.451081182807684, -14.87358212377876, -11.717106561176479, 0.4800000227987766, 0.0, 0.0, 0.0, 0.0, 0.0, 0.0, 0.0, 1.6506672834307923E9, 0.0, 2022-04-22 17:41:23.430
7.0, 28.10534816700965, 5.703347432427108, 2.0681646754965186, 12.008818757720292, 0.4800000227987766, 0.0, 0.0, 0.0, 0.0, 0.0, 0.0, 0.0, 1.650667283431491E9, 0.0, 2022-04-22 17:41:23.431
7.0, 17.801923789083958, 2.2327202735468745, 6.757999219931662, 3.4481877591460943, 0.4800000227987766, 0.0, 0.0, 0.0, 0.0, 0.0, 0.0, 0.0, 1.650667283431491E9, 0.0, 2022-04-22 17:41:23.431
8.0, 13.875028835609555, 2.8460638662800193, 0.03739899955689907, 8.88226239476353, 0.4800000227987766, 0.0, 0.0, 0.0, 0.0, 0.0, 0.0, 0.0, 1.6506672834450805E9, 0.0, 2022-04-22 17:41:23.445
8.0, 2.80866486672312, -1.043432087637484, -1.488480182364583, -20.745225054211915, 0.4800000227987766, 0.0, 0.0, 0.0, 0.0, 0.0, 0.0, 0.0, 1.6506672834450805E9, 0.0, 2022-04-22 17:41:23.445
9.0, 9.480646387673914, -1.9522277768701315, -0.3814697954803705, 2.3972758715972304, 0.4800000227987766, 0.0, 0.0, 0.0, 0.0, 0.0, 0.0, 0.0, 1.6506672834607556E9, 0.0, 2022-04-22 17:41:23.460
9.0, 14.813743724487722, -8.598029998131096, -1.249126585200429, -0.7367602912709117, 0.4800000227987766, 0.0, 0.0, 0.0, 0.0, 0.0, 0.0, 0.0, 1.6506672834607556E9, 0.0, 2022-04-22 17:41:23.460
10.0, 23.879261217080057, -1.7053943797945976, 4.543978446163237, -9.151535191573203, 0.4800000227987766, 0.0, 0.288000013679266, 0.0, 0.0, 0.0, 0.0, 0.0, 1.650667283461446E9, 0.0, 2022-04-22 17:41:23.461
10.0, 26.94971908070147, 6.44010772369802, 11.934020758606493, -11.922801058739424, 0.4800000227987766, 0.0, 0.288000013679266, 0.0, 0.0, 0.0, 0.0, 0.0, 1.650667283461446E9, 0.0, 2022-04-22 17:41:23.461
11.0, 33.53194300271571, 6.694420920684934, 11.803124260157347, 5.359276636503637, 0.4800000227987766, 0.8640000410377979, 0.288000013679266, 0.0, 0.0, 0.0, 0.0, 0.0, 1.6506672834750369E9, 0.0, 2022-04-22 17:41:23.475
11.0, 24.54870330914855, -7.408741812221706, -3.3621700601652265, 1.888649477623403, 0.4800000227987766, 0.8640000410377979, 0.288000013679266, 0.0, 0.0, 0.0, 0.0, 0.0, 1.6506672834750369E9, 0.0, 2022-04-22 17:41:23.475
12.0, 15.445786816999316, -8.384855700656772, 1.3538437839597464, 4.181208150461316, 0.4640000220388174, 0.8640000410377979, 0.288000013679266, 0.0, 0.0, 0.0, 0.0, 0.0, 1.6506672834907548E9, 0.0, 2022-04-22 17:41:23.490
12.0, 21.055636750534177, -6.114736427552998, 0.28049249667674303, 3.867056554183364, 0.4640000220388174, 0.8640000410377979, 0.288000013679266, 0.0, 0.0, 0.0, 0.0, 0.0, 1.6506672834907548E9, 0.0, 2022-04-22 17:41:23.490
13.0, 29.79952284693718, -9.23755289055407, 0.564724893309176, 10.011712181381881, 0.4640000220388174, 0.8640000410377979, 0.288000013679266, 0.0, 0.0, 0.0, 0.0, 0.0, 1.650667283491523E9, 0.0, 2022-04-22 17:41:23.491
13.0, 41.92053860332817, 4.495359746739268, 15.569203515537083, 31.553535926155746, 0.4640000220388174, 0.8640000410377979, 0.288000013679266, 0.0, 0.0, 0.0, 0.0, 0.0, 1.650667283491523E9, 0.0, 2022-04-22 17:41:23.491
14.0, 23.052743326872587, -4.663655244745314, 4.873089642263949, 5.037645240314305, 0.4640000220388174, 0.8640000410377979, 0.288000013679266, 0.0, 0.0, 0.0, 0.0, 0.0, 1.6506672835051484E9, 0.0, 2022-04-22 17:41:23.505
14.0, 34.803508987650275, -3.6838014563545585, 9.084216992370784, 11.526371663436294, 0.4640000220388174, 0.8640000410377979, 0.288000013679266, 0.0, 0.0, 0.0, 0.0, 0.0, 1.6506672835051484E9, 0.0, 2022-04-22 17:41:23.505
15.0, 26.826302382163703, 5.045125040225685, 22.52541743312031, -32.21175831835717, 0.4640000220388174, 0.8640000410377979, 0.288000013679266, 0.0, 0.0, 0.0, 0.0, 0.0, 1.6506672835208516E9, 0.0, 2022-04-22 17:41:23.520
15.0, 34.19390529487282, -1.8624701779335737, 14.52203152794391, 12.390288553200662, 0.4640000220388174, 0.8640000410377979, 0.288000013679266, 0.0, 0.0, 0.0, 0.0, 0.0, 1.6506672835208516E9, 0.0, 2022-04-22 17:41:23.520
16.0, 36.55378216691315, 2.9919199645519257, 7.573297410272062, 17.69346669036895, 0.4640000220388174, 0.8640000410377979, 0.288000013679266, 0.0, 0.0, 0.0, 0.0, 0.0, 1.650667283521424E9, 0.0, 2022-04-22 17:41:23.521
16.0, 39.3886263333261, 5.673428232781589, 5.946440929546952, 20.404894158244133, 0.4640000220388174, 0.8640000410377979, 0.288000013679266, 0.0, 0.0, 0.0, 0.0, 0.0, 1.650667283521424E9, 0.0, 2022-04-22 17:41:23.521
17.0, 35.985317373648286, -0.17577529791742563, -6.795398219488561, 13.725432837381959, 0.4640000220388174, 0.8640000410377979, 0.288000013679266, 0.0, 0.0, 0.0, 0.0, 0.0, 1.6506672835350077E9, 0.0, 2022-04-22 17:41:23.535
17.0, 33.39356670435518, -4.992766440846026, -4.136329350993037, 17.117522097192705, 0.4640000220388174, 0.8640000410377979, 0.288000013679266, 0.0, 0.0, 0.0, 0.0, 0.0, 1.6506672835350077E9, 0.0, 2022-04-22 17:41:23.535
18.0, 21.32116964738816, -5.325617536902428, -7.117029615677893, 4.738453243859112, 0.4640000220388174, 0.8640000410377979, 0.288000013679266, 0.0, 0.0, 0.0, 0.0, 0.0, 1.6506672835506897E9, 0.0, 2022-04-22 17:41:23.550
18.0, 25.532296997494996, 5.684647932648659, -12.4501269524917, -1.9148287773132324, 0.4640000220388174, 0.8640000410377979, 0.288000013679266, 0.0, 0.0, 0.0, 0.0, 0.0, 1.6506672835506897E9, 0.0, 2022-04-22 17:41:23.550
19.0, 33.53194300271571, 6.144655627198517, -3.8782762540504336, -0.12341669853776693, 0.4640000220388174, 0.8640000410377979, 0.288000013679266, 0.0, 0.0, 0.0, 0.0, 0.0, 1.6506672835514264E9, 0.0, 2022-04-22 17:41:23.551
19.0, 34.25374369416386, 10.314644077792764, -6.148395527154207, -2.9208618653938174, 0.4640000220388174, 0.8640000410377979, 0.288000013679266, 0.0, 0.0, 0.0, 0.0, 0.0, 1.6506672835514264E9, 0.0, 2022-04-22 17:41:23.551
20.0, 35.32709498144686, 16.021731410175562, -0.14585609827190638, 8.093143504112959, 0.4640000220388174, 0.8640000410377979, 0.27200001291930676, 0.0, 0.0, 0.0, 0.0, 0.0, 1.6506672835650449E9, 0.0, 2022-04-22 17:41:23.565
20.0, 38.5359291434288, 7.322724113240838, 0.2056944975629449, 15.70757981389761, 0.4640000220388174, 0.8640000410377979, 0.27200001291930676, 0.0, 0.0, 0.0, 0.0, 0.0, 1.6506672835650449E9, 0.0, 2022-04-22 17:41:23.565
21.0, 26.418653286993504, 21.919553640298545, 5.194721038453281, 18.310550183057785, 0.4640000220388174, 0.8960000425577164, 0.27200001291930676, 0.0, 0.0, 0.0, 0.0, 0.0, 1.650667283580713E9, 0.0, 2022-04-22 17:41:23.580
21.0, -0.9761138884350657, 12.726879549212754, 4.716013844124973, 15.225132719613612, 0.4640000220388174, 0.8960000425577164, 0.27200001291930676, 0.0, 0.0, 0.0, 0.0, 0.0, 1.650667283580713E9, 0.0, 2022-04-22 17:41:23.580
22.0, -9.170234691351652, 22.375821434892714, 3.4706271588802338, 25.00123120378703, 0.4800000227987766, 0.8960000425577164, 0.27200001291930676, 0.0, 0.0, 0.0, 0.0, 0.0, 1.6506672835814476E9, 0.0, 2022-04-22 17:41:23.581
22.0, -4.4093420477584, 31.38898032810539, 2.771265867166221, 3.5566448578611016, 0.4800000227987766, 0.8960000425577164, 0.27200001291930676, 0.0, 0.0, 0.0, 0.0, 0.0, 1.6506672835814476E9, 0.0, 2022-04-22 17:41:23.581
23.0, 1.3538437839597464, 21.085555950179696, 1.2678260849788785, 15.887095011770725, 0.4800000227987766, 0.8960000425577164, 0.27200001291930676, 0.0, 0.0, 0.0, 0.0, 0.0, 1.6506672835950758E9, 0.0, 2022-04-22 17:41:23.595
23.0, 0.28049249667674303, 33.72267790045589, 8.534451698884368, 15.434567117132246, 0.4800000227987766, 0.8960000425577164, 0.27200001291930676, 0.0, 0.0, 0.0, 0.0, 0.0, 1.6506672835950758E9, 0.0, 2022-04-22 17:41:23.595
24.0, -2.576791069470346, 29.563909149728715, 5.400415536016226, 1.8662100778892636, 0.4800000227987766, 0.8960000425577164, 0.27200001291930676, 0.0, 0.0, 0.0, 0.0, 0.0, 1.6506672836106763E9, 0.0, 2022-04-22 17:41:23.610
24.0, -11.769465160556138, 22.757291230373085, 7.865009606815875, 14.727726025506854, 0.4800000227987766, 0.8960000425577164, 0.27200001291930676, 0.0, 0.0, 0.0, 0.0, 0.0, 1.6506672836106763E9, 0.0, 2022-04-22 17:41:23.610
25.0, -5.606110033579171, 15.756198513321579, -16.612635603174567, 4.2036475501954556, 0.4800000227987766, 0.8960000425577164, 0.27200001291930676, 0.0, 0.0, 0.0, 0.0, 0.0, 1.6506672836114671E9, 0.0, 2022-04-22 17:41:23.611
25.0, 16.91930739954114, 26.665486684069037, 5.991319729015231, 16.53409770410508, 0.4800000227987766, 0.8960000425577164, 0.27200001291930676, 0.0, 0.0, 0.0, 0.0, 0.0, 1.6506672836114671E9, 0.0, 2022-04-22 17:41:23.611
26.0, 29.672366248443723, 25.7529510948807, 6.148395527154207, 26.022223891690373, 0.4800000227987766, 0.8960000425577164, 0.27200001291930676, 0.0, 0.0, 0.0, 0.0, 0.0, 1.6506672836250408E9, 0.0, 2022-04-22 17:41:23.625
26.0, 69.52474017627537, 21.523124244995415, 0.845217389985919, 26.826302382163703, 0.4800000227987766, 0.8960000425577164, 0.27200001291930676, 0.0, 0.0, 0.0, 0.0, 0.0, 1.6506672836250408E9, 0.0, 2022-04-22 17:41:23.625
27.0, 49.78928811009973, 15.860915712080896, -10.47171987593174, -0.033659099601209164, 0.4800000227987766, 0.8960000425577164, 0.27200001291930676, 0.0, 0.0, 0.0, 0.0, 0.0, 1.6506672836407404E9, 0.0, 2022-04-22 17:41:23.640
27.0, 57.396244619973004, 19.828949565067887, -9.966833381913602, 19.952366263605654, 0.4800000227987766, 0.8960000425577164, 0.27200001291930676, 0.0, 0.0, 0.0, 0.0, 0.0, 1.6506672836407404E9, 0.0, 2022-04-22 17:41:23.640
28.0, 53.79846086259931, 23.28835702408105, -8.650388597510755, 24.425286610610783, 0.4800000227987766, 0.8960000425577164, 0.27200001291930676, 0.0, 0.0, 0.0, 0.0, 0.0, 1.6506672836414669E9, 0.0, 2022-04-22 17:41:23.641
28.0, 30.008957244455814, 16.687433602288365, -13.29160444252193, 7.9472874058410525, 0.4800000227987766, 0.8960000425577164, 0.27200001291930676, 0.0, 0.0, 0.0, 0.0, 0.0, 1.6506672836414669E9, 0.0, 2022-04-22 17:41:23.641
29.0, 39.9458714267239, 20.318876459263265, 1.2678260849788785, 0.766679490916431, 0.4800000227987766, 0.8960000425577164, 0.27200001291930676, 0.0, 0.0, 0.0, 0.0, 0.0, 1.6506672836550808E9, 0.0, 2022-04-22 17:41:23.655
29.0, 58.81366670317948, 35.11392068397254, -5.598630233667791, 28.63641396071762, 0.4800000227987766, 0.8960000425577164, 0.27200001291930676, 0.0, 0.0, 0.0, 0.0, 0.0, 1.6506672836550808E9, 0.0, 2022-04-22 17:41:23.655
30.0, 37.05866866093129, 12.644601750187576, -14.436013828963041, 12.44638705253601, 0.4800000227987766, 0.8960000425577164, 0.25600001215934753, 0.0, 0.0, 0.0, 0.0, 0.0, 1.6506672836706955E9, 0.0, 2022-04-22 17:41:23.670
30.0, 39.5756213311106, 1.9896267764270306, -2.251419773325324, 13.732912637293339, 0.4800000227987766, 0.8960000425577164, 0.25600001215934753, 0.0, 0.0, 0.0, 0.0, 0.0, 1.6506672836706955E9, 0.0, 2022-04-22 17:41:23.670
31.0, 36.55752206686884, -9.215113490819931, 0.5983839929103851, 23.606248520314693, 0.4800000227987766, 0.8800000417977571, 0.25600001215934753, 0.0, 0.0, 0.0, 0.0, 0.0, 1.6506672836714158E9, 0.0, 2022-04-22 17:41:23.671
31.0, 47.10403994191438, -9.476906487718225, -3.1564755626022816, 26.063362791202962, 0.4800000227987766, 0.8800000417977571, 0.25600001215934753, 0.0, 0.0, 0.0, 0.0, 0.0, 1.6506672836714158E9, 0.0, 2022-04-22 17:41:23.671
32.0, 42.806894892826676, -15.823516712523997, -14.89976142346859, 23.31079642381519, 0.4800000227987766, 0.8800000417977571, 0.25600001215934753, 0.0, 0.0, 0.0, 0.0, 0.0, 1.6506672836850243E9, 0.0, 2022-04-22 17:41:23.685
32.0, 47.78470173384994, -1.1369295865297318, -1.8662100778892636, 28.59901496116072, 0.4800000227987766, 0.8800000417977571, 0.25600001215934753, 0.0, 0.0, 0.0, 0.0, 0.0, 1.6506672836850243E9, 0.0, 2022-04-22 17:41:23.685
33.0, 47.11151974182576, -8.46713349968195, 8.197860702872276, 20.808803353458643, 0.4800000227987766, 0.8800000417977571, 0.25600001215934753, 0.0, 0.0, 0.0, 0.0, 0.0, 1.6506672837007596E9, 0.0, 2022-04-22 17:41:23.700
33.0, 51.655498187989, -5.407895335927606, 14.608049226924777, 18.15347438491881, 0.4800000227987766, 0.8800000417977571, 0.25600001215934753, 0.0, 0.0, 0.0, 0.0, 0.0, 1.6506672837007596E9, 0.0, 2022-04-22 17:41:23.700
34.0, 55.48141584265977, -10.03415158111602, 4.173728350549936, 27.155413578264415, 0.4800000227987766, 0.8800000417977571, 0.25600001215934753, 0.0, 0.0, 0.0, 0.0, 0.0, 1.650667283701501E9, 0.0, 2022-04-22 17:41:23.701
34.0, 40.099207324907184, -10.4492804761976, -4.121369751170278, 15.913274311460555, 0.4800000227987766, 0.8800000417977571, 0.25600001215934753, 0.0, 0.0, 0.0, 0.0, 0.0, 1.650667283701501E9, 0.0, 2022-04-22 17:41:23.701
35.0, 44.456190773285925, -4.611296645365655, 0.0, 30.199692142196, 0.4800000227987766, 0.8800000417977571, 0.25600001215934753, 0.0, 0.0, 0.0, 0.0, 0.0, 1.650667283715026E9, 0.0, 2022-04-22 17:41:23.715
35.0, 41.02296261396259, -0.18699499778449535, 16.08904960937798, 18.10485568549484, 0.4800000227987766, 0.8800000417977571, 0.25600001215934753, 0.0, 0.0, 0.0, 0.0, 0.0, 1.650667283715026E9, 0.0, 2022-04-22 17:41:23.715
36.0, 51.13191219419241, 0.11593689862638712, 3.21257406193763, 20.46473255753517, 0.4800000227987766, 0.8800000417977571, 0.25600001215934753, 0.0, 0.0, 0.0, 0.0, 0.0, 1.650667283730756E9, 0.0, 2022-04-22 17:41:23.730
36.0, 54.4342438550666, -4.779592143371701, -1.1032704869285226, 21.983131939545274, 0.4800000227987766, 0.8800000417977571, 0.25600001215934753, 0.0, 0.0, 0.0, 0.0, 0.0, 1.650667283730756E9, 0.0, 2022-04-22 17:41:23.730
37.0, 50.04734120704234, -6.675721420906484, 5.6135898334905505, 13.867549035698175, 0.4800000227987766, 0.8800000417977571, 0.25600001215934753, 0.0, 0.0, 0.0, 0.0, 0.0, 1.65066728373142E9, 0.0, 2022-04-22 17:41:23.731
37.0, 40.78360901679844, -12.805417448282242, -3.8932358538731933, -9.948133882135153, 0.4800000227987766, 0.8800000417977571, 0.25600001215934753, 0.0, 0.0, 0.0, 0.0, 0.0, 1.65066728373142E9, 0.0, 2022-04-22 17:41:23.731
38.0, 32.09582141973078, -5.112443239428103, -6.010019228793681, -13.123308944515884, 0.4800000227987766, 0.8800000417977571, 0.25600001215934753, 0.0, 0.0, 0.0, 0.0, 0.0, 1.6506672837450273E9, 0.0, 2022-04-22 17:41:23.745
38.0, 33.603001101873815, 0.766679490916431, -3.8782762540504336, 20.94717965181917, 0.4800000227987766, 0.8800000417977571, 0.25600001215934753, 0.0, 0.0, 0.0, 0.0, 0.0, 1.6506672837450273E9, 0.0, 2022-04-22 17:41:23.745
39.0, 19.436260069720447, -5.61732973344624, -4.169988450594246, 27.611681372858584, 0.4800000227987766, 0.8800000417977571, 0.25600001215934753, 0.0, 0.0, 0.0, 0.0, 0.0, 1.6506672837770953E9, 0.0, 2022-04-22 17:41:23.777
39.0, -86.23274322832003, -5.497652934864163, -11.526371663436294, 233.79236593004316, 0.4800000227987766, 0.8800000417977571, 0.25600001215934753, 0.0, 0.0, 0.0, 0.0, 0.0, 1.6506672837770953E9, 0.0, 2022-04-22 17:41:23.777
40.0, 106.5890186871402, -133.70142341591418, -87.93626765813679, 417.9375599483028, 0.4800000227987766, 0.8800000417977571, 0.2400000113993883, 0.0, 0.0, 0.0, 0.0, 0.0, 1.6506672837777665E9, 0.0, 2022-04-22 17:41:23.777
40.0, 4.42430164758116, -277.9755440065637, -266.0976217472926, 462.4797684205696, 0.4800000227987766, 0.8800000417977571, 0.2400000113993883, 0.0, 0.0, 0.0, 0.0, 0.0, 1.6506672837777665E9, 0.0, 2022-04-22 17:41:23.777
41.0, 4.42430164758116, -106.68251618603244, -141.90863386867568, 376.60418563801795, 0.4800000227987766, 0.9120000433176756, 0.2400000113993883, 0.0, 0.0, 0.0, 0.0, 0.0, 1.650667283778498E9, 0.0, 2022-04-22 17:41:23.778
41.0, 4.42430164758116, 52.39225847925991, -255.1378449271433, 435.54687888966873, 0.4800000227987766, 0.9120000433176756, 0.2400000113993883, 0.0, 0.0, 0.0, 0.0, 0.0, 1.650667283778498E9, 0.0, 2022-04-22 17:41:23.778
42.0, 4.42430164758116, -54.969049548730254, -266.76145398942754, 312.4592915480025, 0.49600002355873585, 0.9120000433176756, 0.2400000113993883, 0.0, 0.0, 0.0, 0.0, 0.0, 1.650667283779312E9, 0.0, 2022-04-22 17:41:23.779
42.0, 4.42430164758116, -137.78165426757187, -267.4458556813188, 240.9860634948127, 0.49600002355873585, 0.9120000433176756, 0.2400000113993883, 0.0, 0.0, 0.0, 0.0, 0.0, 1.650667283779312E9, 0.0, 2022-04-22 17:41:23.779
43.0, 4.42430164758116, -166.62750262580812, -265.5534663037397, 3.1957445121370256, 0.49600002355873585, 0.9120000433176756, 0.2400000113993883, 0.0, 0.0, 0.0, 0.0, 0.0, 1.6506672837900035E9, 0.0, 2022-04-22 17:41:23.790
43.0, 4.42430164758116, -226.4023236175999, -318.5852476754226, -75.60394755424932, 0.49600002355873585, 0.9120000433176756, 0.2400000113993883, 0.0, 0.0, 0.0, 0.0, 0.0, 1.6506672837900035E9, 0.0, 2022-04-22 17:41:23.790
44.0, 4.42430164758116, -194.56829519476742, -256.30843361327425, -281.61259671347216, 0.49600002355873585, 0.9120000433176756, 0.2400000113993883, 0.0, 0.0, 0.0, 0.0, 0.0, 1.6506672838049774E9, 0.0, 2022-04-22 17:41:23.804
44.0, 4.42430164758116, -79.66360895615071, -136.17536723660305, -303.58450895315036, 0.49600002355873585, 0.9120000433176756, 0.2400000113993883, 0.0, 0.0, 0.0, 0.0, 0.0, 1.6506672838049774E9, 0.0, 2022-04-22 17:41:23.804
45.0, 4.42430164758116, -2.1990611739456654, -80.2414234993048, -491.00959523255005, 0.49600002355873585, 0.9120000433176756, 0.2400000113993883, 0.0, 0.0, 0.0, 0.0, 0.0, 1.6506672838207695E9, 0.0, 2022-04-22 17:41:23.820
45.0, 4.42430164758116, 97.20747964829206, -38.89682948915288, -285.9452708121389, 0.49600002355873585, 0.9120000433176756, 0.2400000113993883, 0.0, 0.0, 0.0, 0.0, 0.0, 1.6506672838207695E9, 0.0, 2022-04-22 17:41:23.820
46.0, 4.42430164758116, 179.4553594738245, 15.11854557087645, -466.82553216908127, 0.49600002355873585, 0.9120000433176756, 0.2400000113993883, 0.0, 0.0, 0.0, 0.0, 0.0, 1.6506672838214395E9, 0.0, 2022-04-22 17:41:23.821
46.0, -106.37397443968803, 277.5080565121025, 90.86273937346414, -443.68490119324997, 0.49600002355873585, 0.9120000433176756, 0.2400000113993883, 0.0, 0.0, 0.0, 0.0, 0.0, 1.6506672838214395E9, 0.0, 2022-04-22 17:41:23.821
47.0, -270.723877992481, 477.65254254080355, 244.0976602579467, -203.25234289187938, 0.49600002355873585, 0.9120000433176756, 0.2400000113993883, 0.0, 0.0, 0.0, 0.0, 0.0, 1.6506672838350983E9, 0.0, 2022-04-22 17:41:23.835
47.0, -328.7409460050985, 372.1967135402374, 243.99481300916523, -420.70508591551334, 0.49600002355873585, 0.9120000433176756, 0.2400000113993883, 0.0, 0.0, 0.0, 0.0, 0.0, 1.6506672838350983E9, 0.0, 2022-04-22 17:41:23.835
48.0, -310.5650322204456, 599.2310802503489, 124.23386667808518, -465.77275033155456, 0.49600002355873585, 0.9120000433176756, 0.2400000113993883, 0.0, 0.0, 0.0, 0.0, 0.0, 1.6506672838507705E9, 0.0, 2022-04-22 17:41:23.850
48.0, -374.9642395074479, 532.1279252953827, 309.0559825883247, -384.10829489910975, 0.49600002355873585, 0.9120000433176756, 0.2400000113993883, 0.0, 0.0, 0.0, 0.0, 0.0, 1.6506672838507705E9, 0.0, 2022-04-22 17:41:23.850
49.0, -545.9505955316126, 327.6171060684137, 433.8227850100957, -508.1663862792775, 0.49600002355873585, 0.9120000433176756, 0.2400000113993883, 0.0, 0.0, 0.0, 0.0, 0.0, 1.6506672838514273E9, 0.0, 2022-04-22 17:41:23.851
49.0, -790.6167205828242, 527.8289102963172, 548.0767286564223, -718.6984444349073, 0.49600002355873585, 0.9120000433176756, 0.2400000113993883, 0.0, 0.0, 0.0, 0.0, 0.0, 1.6506672838514273E9, 0.0, 2022-04-22 17:41:23.851
50.0, -552.6207071025856, 673.2623998732306, 637.7894487935118, -536.8944277889095, 0.49600002355873585, 0.9120000433176756, 0.09600000455975533, 0.0, 0.0, 0.0, 0.0, 0.0, 1.6506672838650477E9, 0.0, 2022-04-22 17:41:23.865
50.0, -329.48705604625866, 789.0459626014344, 704.2624306059442, -339.4725889279507, 0.49600002355873585, 0.9120000433176756, 0.09600000455975533, 0.0, 0.0, 0.0, 0.0, 0.0, 1.6506672838650477E9, 0.0, 2022-04-22 17:41:23.865
51.0, -156.25489009870216, 871.4471783251502, 778.0244774320163, -211.62784884264693, 0.49600002355873585, 1.1680000554770231, 0.09600000455975533, 0.0, 0.0, 0.0, 0.0, 0.0, 1.6506672838806877E9, 0.0, 2022-04-22 17:41:23.880
51.0, 9.632112335879356, 941.3421685970388, 807.0311414883472, -99.86841846676543, 0.49600002355873585, 1.1680000554770231, 0.09600000455975533, 0.0, 0.0, 0.0, 0.0, 0.0, 1.6506672838806877E9, 0.0, 2022-04-22 17:41:23.880
52.0, 179.77886081999168, 986.4304024628364, 823.4455623938702, -0.8770065396092832, 0.5440000258386135, 1.1680000554770231, 0.09600000455975533, 0.0, 0.0, 0.0, 0.0, 0.0, 1.6506672838814223E9, 0.0, 2022-04-22 17:41:23.881
52.0, 345.1796762603335, 1028.6426532627083, 861.5888020419516, 86.8760060206987, 0.5440000258386135, 1.1680000554770231, 0.09600000455975533, 0.0, 0.0, 0.0, 0.0, 0.0, 1.6506672838814223E9, 0.0, 2022-04-22 17:41:23.881
53.0, 487.81946057034656, 1070.2939190692268, 888.2580286259763, 170.07382043497637, 0.5440000258386135, 1.1680000554770231, 0.09600000455975533, 0.0, 0.0, 0.0, 0.0, 0.0, 1.6506672838949645E9, 0.0, 2022-04-22 17:41:23.894
53.0, 582.8465785444714, 1097.6886862446554, 903.1615299494006, 211.13044214854017, 0.5440000258386135, 1.1680000554770231, 0.09600000455975533, 0.0, 0.0, 0.0, 0.0, 0.0, 1.6506672838949645E9, 0.0, 2022-04-22 17:41:23.894
54.0, 658.2093025515787, 1102.083068692591, 903.3485249471851, 254.25896843755618, 0.5440000258386135, 1.1680000554770231, 0.09600000455975533, 0.0, 0.0, 0.0, 0.0, 0.0, 1.6506672839107587E9, 0.0, 2022-04-22 17:41:23.910
54.0, 716.0169361666776, 1114.5593749447726, 897.3609451181255, 276.17104227794334, 0.5440000258386135, 1.1680000554770231, 0.09600000455975533, 0.0, 0.0, 0.0, 0.0, 0.0, 1.6506672839107587E9, 0.0, 2022-04-22 17:41:23.910
55.0, 683.146955456119, 1125.734196012374, 918.1772282714956, 265.79281990090385, 0.5440000258386135, 1.1680000554770231, 0.09600000455975533, 0.0, 0.0, 0.0, 0.0, 0.0, 1.6506672839114974E9, 0.0, 2022-04-22 17:41:23.911
55.0, 662.1773364045657, 1145.3985899793915, 937.299336744938, 266.1181911970489, 0.5440000258386135, 1.1680000554770231, 0.09600000455975533, 0.0, 0.0, 0.0, 0.0, 0.0, 1.6506672839114974E9, 0.0, 2022-04-22 17:41:23.911
56.0, 735.9019842310809, 1155.126069764141, 939.4011605200358, 301.7594377747737, 0.5440000258386135, 1.1680000554770231, 0.09600000455975533, 0.0, 0.0, 0.0, 0.0, 0.0, 1.650667283941412E9, 0.0, 2022-04-22 17:41:23.941
56.0, 814.2603681026958, 1164.1130493576638, 945.2129650511779, 337.71109604882076, 0.5440000258386135, 1.1680000554770231, 0.09600000455975533, 0.0, 0.0, 0.0, 0.0, 0.0, 1.650667283941412E9, 0.0, 2022-04-22 17:41:23.941
57.0, 857.0859624953009, 1177.5841689980589, 964.2340962258168, 353.2952591641806, 0.5440000258386135, 1.1680000554770231, 0.09600000455975533, 0.0, 0.0, 0.0, 0.0, 0.0, 1.6506672839421916E9, 0.0, 2022-04-22 17:41:23.942
57.0, 914.5009066150524, 1183.8260620241053, 970.2141962549649, 374.8670021086, 0.5440000258386135, 1.1680000554770231, 0.09600000455975533, 0.0, 0.0, 0.0, 0.0, 0.0, 1.6506672839421916E9, 0.0, 2022-04-22 17:41:23.942
58.0, 994.0784978722222, 1175.9124337178655, 961.6909642559476, 399.9542510113679, 0.5440000258386135, 1.1680000554770231, 0.09600000455975533, 0.0, 0.0, 0.0, 0.0, 0.0, 1.6506672839429178E9, 0.0, 2022-04-22 17:41:23.942
58.0, 1104.7870163605548, 1184.6189208147116, 976.291533682961, 453.65547447511926, 0.5440000258386135, 1.1680000554770231, 0.09600000455975533, 0.0, 0.0, 0.0, 0.0, 0.0, 1.6506672839429178E9, 0.0, 2022-04-22 17:41:23.942
59.0, 1183.5380897275172, 1202.8060542992316, 987.2419607532211, 491.05073413206264, 0.5440000258386135, 1.1680000554770231, 0.09600000455975533, 0.0, 0.0, 0.0, 0.0, 0.0, 1.6506672839550512E9, 0.0, 2022-04-22 17:41:23.955
59.0, 1252.913233905565, 1201.8935187100433, 985.084038478788, 532.9750126353465, 0.5440000258386135, 1.1680000554770231, 0.09600000455975533, 0.0, 0.0, 0.0, 0.0, 0.0, 1.6506672839550512E9, 0.0, 2022-04-22 17:41:23.955
60.0, 1301.9545420245267, 1181.4624452521093, 973.7409219131805, 546.7602838720195, 0.5440000258386135, 1.1680000554770231, 0.2400000113993883, 0.0, 0.0, 0.0, 0.0, 0.0, 1.6506672839707785E9, 0.0, 2022-04-22 17:41:23.970
60.0, 1359.7846150393598, 1180.3666545650922, 969.4475167640485, 558.488610133063, 0.5440000258386135, 1.1680000554770231, 0.2400000113993883, 0.0, 0.0, 0.0, 0.0, 0.0, 1.6506672839707785E9, 0.0, 2022-04-22 17:41:23.970
61.0, 1437.7577892155387, 1179.9515256700106, 969.8327264594845, 584.3986370260827, 0.5440000258386135, 1.1360000539571047, 0.2400000113993883, 0.0, 0.0, 0.0, 0.0, 0.0, 1.6506672839714303E9, 0.0, 2022-04-22 17:41:23.971
61.0, 1510.4390049544163, 1176.6230147094466, 966.6575513971038, 591.0294796475209, 0.5440000258386135, 1.1360000539571047, 0.2400000113993883, 0.0, 0.0, 0.0, 0.0, 0.0, 1.6506672839714303E9, 0.0, 2022-04-22 17:41:23.971
62.0, 1547.673448913265, 1165.6875472390093, 965.1167126153596, 614.7329655666836, 0.5440000258386135, 1.1360000539571047, 0.2400000113993883, 0.0, 0.0, 0.0, 0.0, 0.0, 1.6506672839850297E9, 0.0, 2022-04-22 17:41:23.985
62.0, 1596.819474230986, 1157.47846683627, 958.7327033909969, 623.6937658605166, 0.5440000258386135, 1.1360000539571047, 0.2400000113993883, 0.0, 0.0, 0.0, 0.0, 0.0, 1.6506672839850297E9, 0.0, 2022-04-22 17:41:23.985
63.0, 1656.9159266189672, 1099.2220452264883, 890.2962741018273, 632.710664653685, 0.5440000258386135, 1.1360000539571047, 0.2400000113993883, 0.0, 0.0, 0.0, 0.0, 0.0, 1.650667284000702E9, 0.0, 2022-04-22 17:41:24.000
63.0, 1598.9007285563275, 1253.756581345573, 1115.5336188832298, 595.092880949378, 0.5440000258386135, 1.1360000539571047, 0.2400000113993883, 0.0, 0.0, 0.0, 0.0, 0.0, 1.650667284000702E9, 0.0, 2022-04-22 17:41:24.000
64.0, 1474.924914975185, 1277.9331646091305, 997.5958737805486, 793.5282326983288, 0.5440000258386135, 1.1360000539571047, 0.2400000113993883, 0.0, 0.0, 0.0, 0.0, 0.0, 1.650667284001374E9, 0.0, 2022-04-22 17:41:24.001
64.0, 1475.0408518738113, 1333.898897496052, 1044.5372280743904, 712.5724883074872, 0.5440000258386135, 1.1360000539571047, 0.2400000113993883, 0.0, 0.0, 0.0, 0.0, 0.0, 1.650667284001374E9, 0.0, 2022-04-22 17:41:24.001
65.0, 1475.0408518738113, 1284.1657078852877, 1034.4170587942936, 934.4682324784808, 0.5440000258386135, 1.1360000539571047, 0.2400000113993883, 0.0, 0.0, 0.0, 0.0, 0.0, 1.650667284015103E9, 0.0, 2022-04-22 17:41:24.015
65.0, 1475.0408518738113, 1420.7786434167065, 1160.505915850401, 934.4682324784808, 0.5440000258386135, 1.1360000539571047, 0.2400000113993883, 0.0, 0.0, 0.0, 0.0, 0.0, 1.650667284015103E9, 0.0, 2022-04-22 17:41:24.015
66.0, 1475.0408518738113, 1600.94645383209, 1327.6663542198949, 934.4682324784808, 0.5440000258386135, 1.1360000539571047, 0.2400000113993883, 0.0, 0.0, 0.0, 0.0, 0.0, 1.6506672840306916E9, 0.0, 2022-04-22 17:41:24.030
66.0, 1475.0408518738113, 1689.662490630988, 1362.6961271548644, 934.4682324784808, 0.5440000258386135, 1.1360000539571047, 0.2400000113993883, 0.0, 0.0, 0.0, 0.0, 0.0, 1.6506672840306916E9, 0.0, 2022-04-22 17:41:24.030
67.0, 1475.0408518738113, 1584.3768270784058, 1262.9866544362158, 934.4682324784808, 0.5440000258386135, 1.1360000539571047, 0.2400000113993883, 0.0, 0.0, 0.0, 0.0, 0.0, 1.6506672840314136E9, 0.0, 2022-04-22 17:41:24.031
67.0, 1475.0408518738113, 1361.4301710198633, 1070.097574321553, 934.4682324784808, 0.5440000258386135, 1.1360000539571047, 0.2400000113993883, 0.0, 0.0, 0.0, 0.0, 0.0, 1.6506672840314136E9, 0.0, 2022-04-22 17:41:24.031
68.0, 1475.0408518738113, 1289.3548190738074, 1031.2063546823338, 934.4682324784808, 0.5440000258386135, 1.1360000539571047, 0.2400000113993883, 0.0, 0.0, 0.0, 0.0, 0.0, 1.6506672840450275E9, 0.0, 2022-04-22 17:41:24.045
68.0, 1475.0408518738113, 1124.997435721103, 1174.0761428396218, 934.4682324784808, 0.5440000258386135, 1.1360000539571047, 0.2400000113993883, 0.0, 0.0, 0.0, 0.0, 0.0, 1.6506672840450275E9, 0.0, 2022-04-22 17:41:24.045
69.0, 1475.0408518738113, 1247.7802212163806, 983.9097098927014, 934.4682324784808, 0.5440000258386135, 1.1360000539571047, 0.2400000113993883, 0.0, 0.0, 0.0, 0.0, 0.0, 1.6506672840607457E9, 0.0, 2022-04-22 17:41:24.060
69.0, 1475.0408518738113, 1485.0862231547944, 886.4666165472008, 934.4682324784808, 0.5440000258386135, 1.1360000539571047, 0.2400000113993883, 0.0, 0.0, 0.0, 0.0, 0.0, 1.6506672840607457E9, 0.0, 2022-04-22 17:41:24.060
70.0, 1475.0408518738113, 1361.2319563222118, 836.2995985415764, 934.4682324784808, 0.5440000258386135, 1.1360000539571047, 0.3200000151991844, 0.0, 0.0, 0.0, 0.0, 0.0, 1.650667284061417E9, 0.0, 2022-04-22 17:41:24.061
70.0, 1475.0408518738113, 1349.6345265596174, 716.8172747571953, 934.4682324784808, 0.5440000258386135, 1.1360000539571047, 0.3200000151991844, 0.0, 0.0, 0.0, 0.0, 0.0, 1.650667284061417E9, 0.0, 2022-04-22 17:41:24.061
71.0, 1475.0408518738113, 1522.4609133619815, 833.3095485270023, 934.4682324784808, 0.5440000258386135, 1.0400000493973494, 0.3200000151991844, 0.0, 0.0, 0.0, 0.0, 0.0, 1.6506672840750468E9, 0.0, 2022-04-22 17:41:24.075
71.0, 1475.0408518738113, 1522.4609133619815, 991.0790981077589, 934.4682324784808, 0.5440000258386135, 1.0400000493973494, 0.3200000151991844, 0.0, 0.0, 0.0, 0.0, 0.0, 1.6506672840750468E9, 0.0, 2022-04-22 17:41:24.075
72.0, 1475.0408518738113, 1522.4609133619815, 991.0491789081134, 934.4682324784808, 0.4640000220388174, 1.0400000493973494, 0.3200000151991844, 0.0, 0.0, 0.0, 0.0, 0.0, 1.6506672840906909E9, 0.0, 2022-04-22 17:41:24.090
72.0, 1475.0408518738113, 1522.4609133619815, 991.0491789081134, 934.4682324784808, 0.4640000220388174, 1.0400000493973494, 0.3200000151991844, 0.0, 0.0, 0.0, 0.0, 0.0, 1.6506672840906909E9, 0.0, 2022-04-22 17:41:24.090
73.0, 1475.0408518738113, 1522.4609133619815, 991.0491789081134, 934.4682324784808, 0.4640000220388174, 1.0400000493973494, 0.3200000151991844, 0.0, 0.0, 0.0, 0.0, 0.0, 1.650667284091376E9, 0.0, 2022-04-22 17:41:24.091
73.0, 1475.0408518738113, 1522.4609133619815, 991.0491789081134, 934.4682324784808, 0.4640000220388174, 1.0400000493973494, 0.3200000151991844, 0.0, 0.0, 0.0, 0.0, 0.0, 1.650667284091376E9, 0.0, 2022-04-22 17:41:24.091
74.0, 1475.0408518738113, 1522.4609133619815, 991.0491789081134, 934.4682324784808, 0.4640000220388174, 1.0400000493973494, 0.3200000151991844, 0.0, 0.0, 0.0, 0.0, 0.0, 1.6506672841049614E9, 0.0, 2022-04-22 17:41:24.104
74.0, 1475.0408518738113, 1522.4609133619815, 991.0491789081134, 934.4682324784808, 0.4640000220388174, 1.0400000493973494, 0.3200000151991844, 0.0, 0.0, 0.0, 0.0, 0.0, 1.6506672841049614E9, 0.0, 2022-04-22 17:41:24.104
75.0, 1475.0408518738113, 1522.4609133619815, 991.0491789081134, 934.4682324784808, 0.4640000220388174, 1.0400000493973494, 0.3200000151991844, 0.0, 0.0, 0.0, 0.0, 0.0, 1.6506672841206827E9, 0.0, 2022-04-22 17:41:24.120
75.0, 1475.0408518738113, 1522.4609133619815, 991.0491789081134, 934.4682324784808, 0.4640000220388174, 1.0400000493973494, 0.3200000151991844, 0.0, 0.0, 0.0, 0.0, 0.0, 1.6506672841206827E9, 0.0, 2022-04-22 17:41:24.120
76.0, 1475.0408518738113, 1522.4609133619815, 991.0491789081134, 934.4682324784808, 0.4640000220388174, 1.0400000493973494, 0.3200000151991844, 0.0, 0.0, 0.0, 0.0, 0.0, 1.6506672841213923E9, 0.0, 2022-04-22 17:41:24.121
76.0, 1475.0408518738113, 1522.4609133619815, 991.0491789081134, 934.4682324784808, 0.4640000220388174, 1.0400000493973494, 0.3200000151991844, 0.0, 0.0, 0.0, 0.0, 0.0, 1.6506672841213923E9, 0.0, 2022-04-22 17:41:24.121
77.0, 1475.0408518738113, 1522.4609133619815, 991.0491789081134, 934.4682324784808, 0.4640000220388174, 1.0400000493973494, 0.3200000151991844, 0.0, 0.0, 0.0, 0.0, 0.0, 1.6506672841350179E9, 0.0, 2022-04-22 17:41:24.135
77.0, 1475.0408518738113, 1522.4609133619815, 991.0491789081134, 934.4682324784808, 0.4640000220388174, 1.0400000493973494, 0.3200000151991844, 0.0, 0.0, 0.0, 0.0, 0.0, 1.6506672841350179E9, 0.0, 2022-04-22 17:41:24.135
78.0, 1475.0408518738113, 1522.4609133619815, 991.0491789081134, 934.4682324784808, 0.4640000220388174, 1.0400000493973494, 0.3200000151991844, 0.0, 0.0, 0.0, 0.0, 0.0, 1.6506672841507373E9, 0.0, 2022-04-22 17:41:24.150
78.0, 1475.0408518738113, 1522.4609133619815, 991.0491789081134, 934.4682324784808, 0.4640000220388174, 1.0400000493973494, 0.3200000151991844, 0.0, 0.0, 0.0, 0.0, 0.0, 1.6506672841507373E9, 0.0, 2022-04-22 17:41:24.150
79.0, 1475.0408518738113, 1522.4609133619815, 991.0491789081134, 934.4682324784808, 0.4640000220388174, 1.0400000493973494, 0.3200000151991844, 0.0, 0.0, 0.0, 0.0, 0.0, 1.6506672841514137E9, 0.0, 2022-04-22 17:41:24.151
79.0, 1475.0408518738113, 1522.4609133619815, 991.0491789081134, 934.4682324784808, 0.4640000220388174, 1.0400000493973494, 0.3200000151991844, 0.0, 0.0, 0.0, 0.0, 0.0, 1.6506672841514137E9, 0.0, 2022-04-22 17:41:24.151
80.0, 1475.0408518738113, 1522.4609133619815, 991.0491789081134, 934.4682324784808, 0.4640000220388174, 1.0400000493973494, 0.4000000189989805, 0.0, 0.0, 0.0, 0.0, 0.0, 1.6506672841650245E9, 0.0, 2022-04-22 17:41:24.165
80.0, 1475.0408518738113, 1522.4609133619815, 991.0491789081134, 934.4682324784808, 0.4640000220388174, 1.0400000493973494, 0.4000000189989805, 0.0, 0.0, 0.0, 0.0, 0.0, 1.6506672841650245E9, 0.0, 2022-04-22 17:41:24.165
81.0, 1475.0408518738113, 1522.4609133619815, 991.0491789081134, 934.4682324784808, 0.4640000220388174, 0.6240000296384096, 0.4000000189989805, 0.0, 0.0, 0.0, 0.0, 0.0, 1.6506672841806693E9, 0.0, 2022-04-22 17:41:24.180
81.0, 1475.0408518738113, 1522.4609133619815, 991.0491789081134, 934.4682324784808, 0.4640000220388174, 0.6240000296384096, 0.4000000189989805, 0.0, 0.0, 0.0, 0.0, 0.0, 1.6506672841806693E9, 0.0, 2022-04-22 17:41:24.180
82.0, 1475.0408518738113, 1522.4609133619815, 991.0491789081134, 934.4682324784808, 0.12800000607967377, 0.6240000296384096, 0.4000000189989805, 0.0, 0.0, 0.0, 0.0, 0.0, 1.6506672841814108E9, 0.0, 2022-04-22 17:41:24.181
82.0, 1475.0408518738113, 1522.4609133619815, 991.0491789081134, 934.4682324784808, 0.12800000607967377, 0.6240000296384096, 0.4000000189989805, 0.0, 0.0, 0.0, 0.0, 0.0, 1.6506672841814108E9, 0.0, 2022-04-22 17:41:24.181
83.0, 1475.0408518738113, 1522.4609133619815, 991.0491789081134, 934.4682324784808, 0.12800000607967377, 0.6240000296384096, 0.4000000189989805, 0.0, 0.0, 0.0, 0.0, 0.0, 1.6506672841949894E9, 0.0, 2022-04-22 17:41:24.194
83.0, 1475.0408518738113, 1522.4609133619815, 991.0491789081134, 934.4682324784808, 0.12800000607967377, 0.6240000296384096, 0.4000000189989805, 0.0, 0.0, 0.0, 0.0, 0.0, 1.6506672841949894E9, 0.0, 2022-04-22 17:41:24.194
84.0, 1475.0408518738113, 1522.4609133619815, 991.0491789081134, 934.4682324784808, 0.12800000607967377, 0.6240000296384096, 0.4000000189989805, 0.0, 0.0, 0.0, 0.0, 0.0, 1.650667284210673E9, 0.0, 2022-04-22 17:41:24.210
84.0, 1475.0408518738113, 1522.4609133619815, 1057.4286632216536, 934.4682324784808, 0.12800000607967377, 0.6240000296384096, 0.4000000189989805, 0.0, 0.0, 0.0, 0.0, 0.0, 1.650667284210673E9, 0.0, 2022-04-22 17:41:24.210
85.0, 1475.0408518738113, 1522.4609133619815, 1092.1124954107217, 934.4682324784808, 0.12800000607967377, 0.6240000296384096, 0.4000000189989805, 0.0, 0.0, 0.0, 0.0, 0.0, 1.650667284211396E9, 0.0, 2022-04-22 17:41:24.211
85.0, 1475.0408518738113, 1522.4609133619815, 970.9042077967897, 934.4682324784808, 0.12800000607967377, 0.6240000296384096, 0.4000000189989805, 0.0, 0.0, 0.0, 0.0, 0.0, 1.650667284211396E9, 0.0, 2022-04-22 17:41:24.211
86.0, 1475.0408518738113, 1522.4609133619815, 983.0289634531364, 934.4682324784808, 0.12800000607967377, 0.6240000296384096, 0.4000000189989805, 0.0, 0.0, 0.0, 0.0, 0.0, 1.6506672842250185E9, 0.0, 2022-04-22 17:41:24.225
86.0, 1475.0408518738113, 1522.4609133619815, 1168.9206907507032, 934.4682324784808, 0.12800000607967377, 0.6240000296384096, 0.4000000189989805, 0.0, 0.0, 0.0, 0.0, 0.0, 1.6506672842250185E9, 0.0, 2022-04-22 17:41:24.225
87.0, 1475.0408518738113, 1522.4609133619815, 1034.230063796509, 934.4682324784808, 0.12800000607967377, 0.6240000296384096, 0.4000000189989805, 0.0, 0.0, 0.0, 0.0, 0.0, 1.6506672842406993E9, 0.0, 2022-04-22 17:41:24.240
87.0, 1475.0408518738113, 1522.4609133619815, 873.2778593534604, 934.4682324784808, 0.12800000607967377, 0.6240000296384096, 0.4000000189989805, 0.0, 0.0, 0.0, 0.0, 0.0, 1.6506672842406993E9, 0.0, 2022-04-22 17:41:24.240
88.0, 1475.0408518738113, 1522.4609133619815, 779.9243466095068, 1075.804661653936, 0.12800000607967377, 0.6240000296384096, 0.4000000189989805, 0.0, 0.0, 0.0, 0.0, 0.0, 1.6506672842413683E9, 0.0, 2022-04-22 17:41:24.241
88.0, 1475.0408518738113, 1694.6982659213245, 1024.3941269130446, 1178.2423913902603, 0.12800000607967377, 0.6240000296384096, 0.4000000189989805, 0.0, 0.0, 0.0, 0.0, 0.0, 1.6506672842413683E9, 0.0, 2022-04-22 17:41:24.241
89.0, 1475.0408518738113, 1743.5563189424574, 1168.0362044111826, 957.7154506030492, 0.12800000607967377, 0.6240000296384096, 0.4000000189989805, 0.0, 0.0, 0.0, 0.0, 0.0, 1.6506672842550676E9, 0.0, 2022-04-22 17:41:24.255
89.0, 1274.1222065542825, 1767.6150953574106, 1232.7888322439976, 995.2733959080651, 0.12800000607967377, 0.6240000296384096, 0.4000000189989805, 0.0, 0.0, 0.0, 0.0, 0.0, 1.6506672842550676E9, 0.0, 2022-04-22 17:41:24.255
90.0, 1202.1366122071631, 1614.8083930178545, 1025.5030072499067, 934.47758222837, 0.12800000607967377, 0.6240000296384096, 0.5280000250786543, 0.0, 0.0, 0.0, 0.0, 0.0, 1.6506672842707047E9, 0.0, 2022-04-22 17:41:24.270
90.0, 1083.3723492142744, 1727.353202384431, 820.3302257307805, 934.47758222837, 0.12800000607967377, 0.6240000296384096, 0.5280000250786543, 0.0, 0.0, 0.0, 0.0, 0.0, 1.6506672842707047E9, 0.0, 2022-04-22 17:41:24.270
91.0, 984.8521646815352, 1934.9288696250878, 787.170402773656, 934.47758222837, 0.12800000607967377, 0.7680000364780426, 0.5280000250786543, 0.0, 0.0, 0.0, 0.0, 0.0, 1.6506672842714803E9, 0.0, 2022-04-22 17:41:24.271
91.0, 984.8521646815352, 2159.2705083671026, 840.2134038452059, 934.47758222837, 0.12800000607967377, 0.7680000364780426, 0.5280000250786543, 0.0, 0.0, 0.0, 0.0, 0.0, 1.6506672842714803E9, 0.0, 2022-04-22 17:41:24.271
92.0, 984.8521646815352, 2262.2449137470685, 1019.7248618183658, 934.47758222837, 0.11200000531971455, 0.7680000364780426, 0.5280000250786543, 0.0, 0.0, 0.0, 0.0, 0.0, 1.6506672842849798E9, 0.0, 2022-04-22 17:41:24.284
92.0, 984.8521646815352, 2133.25015442539, 1253.5434070480987, 934.47758222837, 0.11200000531971455, 0.7680000364780426, 0.5280000250786543, 0.0, 0.0, 0.0, 0.0, 0.0, 1.6506672842849798E9, 0.0, 2022-04-22 17:41:24.284
93.0, 984.8521646815352, 2100.385783564765, 1270.67962864507, 934.47758222837, 0.11200000531971455, 0.7680000364780426, 0.5280000250786543, 0.0, 0.0, 0.0, 0.0, 0.0, 1.6506672843004956E9, 0.0, 2022-04-22 17:41:24.300
93.0, 984.8521646815352, 2331.8968105218373, 1204.7358426763676, 934.47758222837, 0.11200000531971455, 0.7680000364780426, 0.5280000250786543, 0.0, 0.0, 0.0, 0.0, 0.0, 1.6506672843004956E9, 0.0, 2022-04-22 17:41:24.300
94.0, 984.8521646815352, 2398.8335399287753, 1035.3090249337256, 934.47758222837, 0.11200000531971455, 0.7680000364780426, 0.5280000250786543, 0.0, 0.0, 0.0, 0.0, 0.0, 1.6506672843320863E9, 0.0, 2022-04-22 17:41:24.332
94.0, 984.8521646815352, 2314.0780571829528, 1268.5142265707254, 934.47758222837, 0.11200000531971455, 0.7680000364780426, 0.5280000250786543, 0.0, 0.0, 0.0, 0.0, 0.0, 1.6506672843320863E9, 0.0, 2022-04-22 17:41:24.332
95.0, 984.8521646815352, 2123.629261789378, 1433.9599208105356, 934.47758222837, 0.11200000531971455, 0.7680000364780426, 0.5280000250786543, 0.0, 0.0, 0.0, 0.0, 0.0, 1.6506672843327854E9, 0.0, 2022-04-22 17:41:24.332
95.0, 984.8521646815352, 2347.7801656336524, 1555.7123638680205, 934.47758222837, 0.11200000531971455, 0.7680000364780426, 0.5280000250786543, 0.0, 0.0, 0.0, 0.0, 0.0, 1.6506672843327854E9, 0.0, 2022-04-22 17:41:24.332
96.0, 984.8521646815352, 2479.342366274912, 1622.9221059717238, 934.47758222837, 0.11200000531971455, 0.7680000364780426, 0.5280000250786543, 0.0, 0.0, 0.0, 0.0, 0.0, 1.6506672843335528E9, 0.0, 2022-04-22 17:41:24.333
96.0, 984.8521646815352, 2565.188029857818, 1650.2458150479943, 934.47758222837, 0.11200000531971455, 0.7680000364780426, 0.5280000250786543, 0.0, 0.0, 0.0, 0.0, 0.0, 1.6506672843335528E9, 0.0, 2022-04-22 17:41:24.333
97.0, 984.8521646815352, 2595.896348393988, 1630.480443782173, 934.47758222837, 0.11200000531971455, 0.7680000364780426, 0.5280000250786543, 0.0, 0.0, 0.0, 0.0, 0.0, 1.650667284334355E9, 0.0, 2022-04-22 17:41:24.334
97.0, 984.8521646815352, 2618.788276022766, 1623.7897627614439, 934.47758222837, 0.11200000531971455, 0.7680000364780426, 0.5280000250786543, 0.0, 0.0, 0.0, 0.0, 0.0, 1.650667284334355E9, 0.0, 2022-04-22 17:41:24.334
98.0, 984.8521646815352, 2605.4031740813516, 1591.0394588494673, 934.47758222837, 0.11200000531971455, 0.7680000364780426, 0.5280000250786543, 0.0, 0.0, 0.0, 0.0, 0.0, 1.6506672843451583E9, 0.0, 2022-04-22 17:41:24.345
98.0, 984.8521646815352, 2545.0262291966937, 1528.8748417859897, 934.47758222837, 0.11200000531971455, 0.7680000364780426, 0.5280000250786543, 0.0, 0.0, 0.0, 0.0, 0.0, 1.6506672843451583E9, 0.0, 2022-04-22 17:41:24.345
99.0, 984.8521646815352, 2471.1706848717295, 1430.6912482492626, 934.47758222837, 0.11200000531971455, 0.7680000364780426, 0.5280000250786543, 0.0, 0.0, 0.0, 0.0, 0.0, 1.6506672843607104E9, 0.0, 2022-04-22 17:41:24.360
99.0, 984.8521646815352, 2371.640727350954, 1323.9881626134738, 1038.7497328929603, 0.11200000531971455, 0.7680000364780426, 0.5280000250786543, 0.0, 0.0, 0.0, 0.0, 0.0, 1.6506672843607104E9, 0.0, 2022-04-22 17:41:24.360
100.0, 984.8521646815352, 2290.3689614138566, 1234.7242304710671, 875.1646388811059, 0.11200000531971455, 0.7680000364780426, 0.4640000220388174, 0.0, 0.0, 0.0, 0.0, 0.0, 1.650667284361406E9, 0.0, 2022-04-22 17:41:24.361
100.0, 984.8521646815352, 2194.3657295512967, 1125.650048263371, 708.4829077059403, 0.11200000531971455, 0.7680000364780426, 0.4640000220388174, 0.0, 0.0, 0.0, 0.0, 0.0, 1.650667284361406E9, 0.0, 2022-04-22 17:41:24.361
0.0, -15686.27734375, 11814.912424817681, 9329.917199759744, -14604.337376218755, 0.11200000531971455, 0.7680000364780426, 0.4640000220388174, 0.0, 0.0, 0.0, 0.0, 0.0, 1.650667284375705E9, 0.0, 2022-04-22 17:41:24.375
1.0, -15686.27734375, 11674.348284983076, 9205.591705532745, -14809.809349734336, 0.11200000531971455, 0.8800000417977571, 0.4640000220388174, 0.0, 0.0, 0.0, 0.0, 0.0, 1.6506672843764095E9, 0.0, 2022-04-22 17:41:24.376
1.0, -15686.27734375, 11548.137881178409, 9103.627073140815, -15043.162277419586, 0.11200000531971455, 0.8800000417977571, 0.4640000220388174, 0.0, 0.0, 0.0, 0.0, 0.0, 1.6506672843764095E9, 0.0, 2022-04-22 17:41:24.376
2.0, -15686.27734375, 11412.00178289134, 9007.908073674887, -15247.160730352625, 0.20800000987946987, 0.8800000417977571, 0.4640000220388174, 0.0, 0.0, 0.0, 0.0, 0.0, 1.6506672843900068E9, 0.0, 2022-04-22 17:41:24.390
2.0, -15686.27734375, 11278.827685369179, 8877.864272415638, -15457.588071309496, 0.20800000987946987, 0.8800000417977571, 0.4640000220388174, 0.0, 0.0, 0.0, 0.0, 0.0, 1.6506672843900068E9, 0.0, 2022-04-22 17:41:24.390
3.0, -15686.27734375, 11122.720521318726, 8755.461086765863, -15216.764693462756, 0.20800000987946987, 0.8800000417977571, 0.4640000220388174, 0.0, 0.0, 0.0, 0.0, 0.0, 1.6506672844057848E9, 0.0, 2022-04-22 17:41:24.405
3.0, -15686.27734375, 10984.677074054256, 8632.392198923975, -14984.29251221707, 0.20800000987946987, 0.8800000417977571, 0.4640000220388174, 0.0, 0.0, 0.0, 0.0, 0.0, 1.6506672844057848E9, 0.0, 2022-04-22 17:41:24.405
4.0, -15686.27734375, 10817.140775739215, 8482.078139904886, -15221.086147861555, 0.20800000987946987, 0.8800000417977571, 0.4640000220388174, 0.0, 0.0, 0.0, 0.0, 0.0, 1.6506672844064043E9, 0.0, 2022-04-22 17:41:24.406
4.0, -15686.27734375, 10680.42873285897, 8395.207743734121, -15453.777113254648, 0.20800000987946987, 0.8800000417977571, 0.4640000220388174, 0.0, 0.0, 0.0, 0.0, 0.0, 1.6506672844064043E9, 0.0, 2022-04-22 17:41:24.406
5.0, -15686.27734375, 10549.790287506767, 8244.396278020926, -15238.590749604162, 0.20800000987946987, 0.8800000417977571, 0.4640000220388174, 0.0, 0.0, 0.0, 0.0, 0.0, 1.65066728442005E9, 0.0, 2022-04-22 17:41:24.420
5.0, -15686.27734375, 10402.729941449128, 8122.77473146189, -15052.489587909076, 0.20800000987946987, 0.8800000417977571, 0.4640000220388174, 0.0, 0.0, 0.0, 0.0, 0.0, 1.65066728442005E9, 0.0, 2022-04-22 17:41:24.420
6.0, -15686.27734375, 10232.57945306506, 7987.102380769327, -14827.100777179468, 0.20800000987946987, 0.8800000417977571, 0.4640000220388174, 0.0, 0.0, 0.0, 0.0, 0.0, 1.650667284435751E9, 0.0, 2022-04-22 17:41:24.435
6.0, -15686.27734375, 10091.050419041887, 7849.002835005522, -14631.260915999766, 0.20800000987946987, 0.8800000417977571, 0.4640000220388174, 0.0, 0.0, 0.0, 0.0, 0.0, 1.650667284435751E9, 0.0, 2022-04-22 17:41:24.435
7.0, -15686.27734375, 9947.71127344016, 7743.676032553427, -14408.194583142642, 0.20800000987946987, 0.8800000417977571, 0.4640000220388174, 0.0, 0.0, 0.0, 0.0, 0.0, 1.6506672844364936E9, 0.0, 2022-04-22 17:41:24.436
7.0, -15686.27734375, 9792.610142477788, 7630.020472900011, -14194.197507678065, 0.20800000987946987, 0.8800000417977571, 0.4640000220388174, 0.0, 0.0, 0.0, 0.0, 0.0, 1.6506672844364936E9, 0.0, 2022-04-22 17:41:24.436
8.0, -15686.27734375, 9640.168080383912, 7498.159080262296, -14030.992013511714, 0.20800000987946987, 0.8800000417977571, 0.4640000220388174, 0.0, 0.0, 0.0, 0.0, 0.0, 1.6506672844499974E9, 0.0, 2022-04-22 17:41:24.449
8.0, -15686.27734375, 9493.762216818519, 7387.996587167494, -13831.415992276277, 0.20800000987946987, 0.8800000417977571, 0.4640000220388174, 0.0, 0.0, 0.0, 0.0, 0.0, 1.6506672844499974E9, 0.0, 2022-04-22 17:41:24.449
9.0, -15686.27734375, 9349.200123931281, 7259.98729148414, -13634.592537408229, 0.20800000987946987, 0.8800000417977571, 0.4640000220388174, 0.0, 0.0, 0.0, 0.0, 0.0, 1.6506672844656672E9, 0.0, 2022-04-22 17:41:24.465
9.0, -15686.27734375, 9183.040108799934, 7130.332439820282, -13464.490667723585, 0.20800000987946987, 0.8800000417977571, 0.4640000220388174, 0.0, 0.0, 0.0, 0.0, 0.0, 1.6506672844656672E9, 0.0, 2022-04-22 17:41:24.465
10.0, -15686.27734375, 9048.613144792616, 7020.151247225702, -13289.332453298848, 0.20800000987946987, 0.8800000417977571, 0.25600001215934753, 0.0, 0.0, 0.0, 0.0, 0.0, 1.650667284466444E9, 0.0, 2022-04-22 17:41:24.466
10.0, -15686.27734375, 8892.259147345088, 6899.775087351911, -13093.698286616709, 0.20800000987946987, 0.8800000417977571, 0.25600001215934753, 0.0, 0.0, 0.0, 0.0, 0.0, 1.650667284466444E9, 0.0, 2022-04-22 17:41:24.466
11.0, -15686.27734375, 8741.911429226398, 6768.220366510563, -12908.651776709128, 0.20800000987946987, 0.800000037997961, 0.25600001215934753, 0.0, 0.0, 0.0, 0.0, 0.0, 1.6506672844963744E9, 0.0, 2022-04-22 17:41:24.496
11.0, -15679.06681663543, 8596.728512946516, 6653.861705665477, -12744.069999359082, 0.20800000987946987, 0.800000037997961, 0.25600001215934753, 0.0, 0.0, 0.0, 0.0, 0.0, 1.6506672844963744E9, 0.0, 2022-04-22 17:41:24.496
12.0, -15453.625647306442, 8462.832614732906, 6544.24149806425, -12560.986936928239, 0.2240000106394291, 0.800000037997961, 0.25600001215934753, 0.0, 0.0, 0.0, 0.0, 0.0, 1.6506672844971457E9, 0.0, 2022-04-22 17:41:24.497
12.0, -15224.044408726506, 8314.672738088295, 6429.437789124437, -12439.855317263398, 0.2240000106394291, 0.800000037997961, 0.25600001215934753, 0.0, 0.0, 0.0, 0.0, 0.0, 1.6506672844971457E9, 0.0, 2022-04-22 17:41:24.497
13.0, -15452.83839836577, 8179.415516290814, 6312.715511507355, -12282.080157832708, 0.2240000106394291, 0.800000037997961, 0.25600001215934753, 0.0, 0.0, 0.0, 0.0, 0.0, 1.6506672844979167E9, 0.0, 2022-04-22 17:41:24.497
13.0, -15223.21602088632, 8033.035832025111, 6202.358543614857, -12134.814117277507, 0.2240000106394291, 0.800000037997961, 0.25600001215934753, 0.0, 0.0, 0.0, 0.0, 0.0, 1.6506672844979167E9, 0.0, 2022-04-22 17:41:24.497
14.0, -15467.03318864759, 7894.293023468927, 6061.311956685968, -12027.090038953815, 0.2240000106394291, 0.800000037997961, 0.25600001215934753, 0.0, 0.0, 0.0, 0.0, 0.0, 1.650667284509951E9, 0.0, 2022-04-22 17:41:24.509
14.0, -15683.380791234318, 7759.320034068078, 5942.315819895826, -11864.602605578955, 0.2240000106394291, 0.800000037997961, 0.25600001215934753, 0.0, 0.0, 0.0, 0.0, 0.0, 1.650667284509951E9, 0.0, 2022-04-22 17:41:24.509
15.0, -15441.46162270056, 7623.116617581807, 5876.489840775728, -11707.739981737453, 0.2240000106394291, 0.800000037997961, 0.25600001215934753, 0.0, 0.0, 0.0, 0.0, 0.0, 1.6506672845257587E9, 0.0, 2022-04-22 17:41:24.525
15.0, -15214.763846986461, 7500.137487338856, 5772.950710502453, -11571.476726851892, 0.2240000106394291, 0.800000037997961, 0.25600001215934753, 0.0, 0.0, 0.0, 0.0, 0.0, 1.6506672845257587E9, 0.0, 2022-04-22 17:41:24.525
16.0, -14977.197922001127, 7383.048699526116, 5679.860860705376, -11434.955418869387, 0.2240000106394291, 0.800000037997961, 0.25600001215934753, 0.0, 0.0, 0.0, 0.0, 0.0, 1.6506672845264475E9, 0.0, 2022-04-22 17:41:24.526
16.0, -14738.016360234935, 7245.177287659608, 5578.494612306356, -11283.496950463858, 0.2240000106394291, 0.800000037997961, 0.25600001215934753, 0.0, 0.0, 0.0, 0.0, 0.0, 1.6506672845264475E9, 0.0, 2022-04-22 17:41:24.526
17.0, -14514.340423685033, 7133.227122385986, 5473.193989153951, -11149.619751750026, 0.2240000106394291, 0.800000037997961, 0.25600001215934753, 0.0, 0.0, 0.0, 0.0, 0.0, 1.6506672845399976E9, 0.0, 2022-04-22 17:41:24.539
17.0, -14298.806249338668, 7014.481558892876, 5377.078560292721, -11015.566777738277, 0.2240000106394291, 0.800000037997961, 0.25600001215934753, 0.0, 0.0, 0.0, 0.0, 0.0, 1.6506672845399976E9, 0.0, 2022-04-22 17:41:24.539
18.0, -14102.566218863707, 6892.26162834093, 5297.837560031563, -10910.66632388113, 0.2240000106394291, 0.800000037997961, 0.25600001215934753, 0.0, 0.0, 0.0, 0.0, 0.0, 1.650667284555709E9, 0.0, 2022-04-22 17:41:24.555
18.0, -13857.509274267126, 6762.509539278224, 5203.042315854691, -10784.00713208178, 0.2240000106394291, 0.800000037997961, 0.25600001215934753, 0.0, 0.0, 0.0, 0.0, 0.0, 1.650667284555709E9, 0.0, 2022-04-22 17:41:24.555
19.0, -13623.309259241913, 6661.113371679559, 5117.3574679698795, -10616.511972666252, 0.2240000106394291, 0.800000037997961, 0.25600001215934753, 0.0, 0.0, 0.0, 0.0, 0.0, 1.650667284556394E9, 0.0, 2022-04-22 17:41:24.556
19.0, -13787.189805350266, 6553.823121750727, 5021.163501209579, -10447.15434307279, 0.2240000106394291, 0.800000037997961, 0.25600001215934753, 0.0, 0.0, 0.0, 0.0, 0.0, 1.650667284556394E9, 0.0, 2022-04-22 17:41:24.556
20.0, -14017.812606067862, 6435.133656756952, 4936.447287413292, -10300.76343910722, 0.2240000106394291, 0.800000037997961, 0.288000013679266, 0.0, 0.0, 0.0, 0.0, 0.0, 1.65066728457E9, 0.0, 2022-04-22 17:41:24.570
20.0, -13808.082756452728, 6316.8780201580375, 4849.969580737874, -10177.903985662851, 0.2240000106394291, 0.800000037997961, 0.288000013679266, 0.0, 0.0, 0.0, 0.0, 0.0, 1.65066728457E9, 0.0, 2022-04-22 17:41:24.570
21.0, -13606.8686590367, 6217.018951441161, 4759.819292305969, -10063.960453712847, 0.2240000106394291, 0.9600000455975533, 0.288000013679266, 0.0, 0.0, 0.0, 0.0, 0.0, 1.6506672845856836E9, 0.0, 2022-04-22 17:41:24.585
21.0, -13440.506689307746, 6098.9802290396765, 4661.433744171634, -9975.216367664281, 0.2240000106394291, 0.9600000455975533, 0.288000013679266, 0.0, 0.0, 0.0, 0.0, 0.0, 1.6506672845856836E9, 0.0, 2022-04-22 17:41:24.585
22.0, -13252.771191332024, 5988.036096854135, 4595.43946955353, -9861.074621016625, 0.41600001975893974, 0.9600000455975533, 0.288000013679266, 0.0, 0.0, 0.0, 0.0, 0.0, 1.6506672845864205E9, 0.0, 2022-04-22 17:41:24.586
22.0, -13087.288098092657, 5877.14806316793, 4498.415245003067, -9784.769442220684, 0.41600001975893974, 0.9600000455975533, 0.288000013679266, 0.0, 0.0, 0.0, 0.0, 0.0, 1.6506672845864205E9, 0.0, 2022-04-22 17:41:24.586
23.0, -12868.705905282404, 5777.045900953934, 4429.286934222095, -9627.394452085253, 0.41600001975893974, 0.9600000455975533, 0.288000013679266, 0.0, 0.0, 0.0, 0.0, 0.0, 1.6506672846163275E9, 0.0, 2022-04-22 17:41:24.616
23.0, -12658.332792874891, 5684.4945967504755, 4353.643717718311, -9524.577122503426, 0.41600001975893974, 0.9600000455975533, 0.288000013679266, 0.0, 0.0, 0.0, 0.0, 0.0, 1.6506672846163275E9, 0.0, 2022-04-22 17:41:24.616
24.0, -12468.674986321945, 5581.131241775118, 4267.214629742317, -9436.711912944447, 0.41600001975893974, 0.9600000455975533, 0.288000013679266, 0.0, 0.0, 0.0, 0.0, 0.0, 1.650667284617054E9, 0.0, 2022-04-22 17:41:24.617
24.0, -12285.330130894203, 5484.750280017033, 4198.557546355762, -9319.028481038753, 0.41600001975893974, 0.9600000455975533, 0.288000013679266, 0.0, 0.0, 0.0, 0.0, 0.0, 1.650667284617054E9, 0.0, 2022-04-22 17:41:24.617
25.0, -12086.206637553405, 5378.507202075794, 4107.973429528996, -9196.011951796245, 0.41600001975893974, 0.9600000455975533, 0.288000013679266, 0.0, 0.0, 0.0, 0.0, 0.0, 1.6506672846178071E9, 0.0, 2022-04-22 17:41:24.617
25.0, -11904.41758050723, 5277.245670875534, 4019.573414276354, -9097.282332865987, 0.41600001975893974, 0.9600000455975533, 0.288000013679266, 0.0, 0.0, 0.0, 0.0, 0.0, 1.6506672846178071E9, 0.0, 2022-04-22 17:41:24.617
26.0, -11747.846668862272, 5189.821769511327, 3963.890043836087, -8995.366319173481, 0.41600001975893974, 0.9600000455975533, 0.288000013679266, 0.0, 0.0, 0.0, 0.0, 0.0, 1.6506672846300335E9, 0.0, 2022-04-22 17:41:24.630
26.0, -11603.254656775389, 5089.831804296002, 3893.7631797669455, -8915.24270252278, 0.41600001975893974, 0.9600000455975533, 0.288000013679266, 0.0, 0.0, 0.0, 0.0, 0.0, 1.6506672846300335E9, 0.0, 2022-04-22 17:41:24.630
27.0, -11445.752510041464, 4995.739661310799, 3814.047212211415, -8828.705157448072, 0.41600001975893974, 0.9600000455975533, 0.288000013679266, 0.0, 0.0, 0.0, 0.0, 0.0, 1.65066728464567E9, 0.0, 2022-04-22 17:41:24.645
27.0, -11280.950078594033, 4914.523993873037, 3732.820325073786, -8727.563303046394, 0.41600001975893974, 0.9600000455975533, 0.288000013679266, 0.0, 0.0, 0.0, 0.0, 0.0, 1.65066728464567E9, 0.0, 2022-04-22 17:41:24.645
28.0, -11134.70877062669, 4824.33256654162, 3678.7974702138454, -8644.372968432028, 0.41600001975893974, 0.9600000455975533, 0.288000013679266, 0.0, 0.0, 0.0, 0.0, 0.0, 1.6506672846463945E9, 0.0, 2022-04-22 17:41:24.646
28.0, -11001.093364909757, 4745.536614375189, 3612.350667701103, -8553.325104010757, 0.41600001975893974, 0.9600000455975533, 0.288000013679266, 0.0, 0.0, 0.0, 0.0, 0.0, 1.6506672846463945E9, 0.0, 2022-04-22 17:41:24.646
29.0, -10846.728994238656, 4656.156745334156, 3547.3138074716553, -8449.124011445325, 0.41600001975893974, 0.9600000455975533, 0.288000013679266, 0.0, 0.0, 0.0, 0.0, 0.0, 1.6506672846599824E9, 0.0, 2022-04-22 17:41:24.659
29.0, -10713.068709722254, 4574.4623707020655, 3477.5684131979942, -8370.821726073045, 0.41600001975893974, 0.9600000455975533, 0.288000013679266, 0.0, 0.0, 0.0, 0.0, 0.0, 1.6506672846599824E9, 0.0, 2022-04-22 17:41:24.659
30.0, -10584.176797649357, 4502.237422757782, 3426.9114682981744, -8293.933122884016, 0.41600001975893974, 0.9600000455975533, 0.3680000174790621, 0.0, 0.0, 0.0, 0.0, 0.0, 1.6506672846756632E9, 0.0, 2022-04-22 17:41:24.675
30.0, -10460.221553517971, 4426.650304753333, 3375.68605860509, -8223.99325381266, 0.41600001975893974, 0.9600000455975533, 0.3680000174790621, 0.0, 0.0, 0.0, 0.0, 0.0, 1.6506672846756632E9, 0.0, 2022-04-22 17:41:24.675
31.0, -10328.59951447742, 4346.852059398778, 3317.0294677000493, -8135.170629865024, 0.41600001975893974, 0.9760000463575125, 0.3680000174790621, 0.0, 0.0, 0.0, 0.0, 0.0, 1.6506672846763792E9, 0.0, 2022-04-22 17:41:24.676
31.0, -10173.595620913897, 4285.136230329983, 3259.5920841805637, -8043.161611155141, 0.41600001975893974, 0.9760000463575125, 0.3680000174790621, 0.0, 0.0, 0.0, 0.0, 0.0, 1.6506672846763792E9, 0.0, 2022-04-22 17:41:24.676
32.0, -10031.520561497193, 4208.636576736346, 3202.3678749585524, -7956.253815984819, 0.5440000258386135, 0.9760000463575125, 0.3680000174790621, 0.0, 0.0, 0.0, 0.0, 0.0, 1.650667284706384E9, 0.0, 2022-04-22 17:41:24.706
32.0, -9917.651827546302, 4119.952329087071, 3130.793669606559, -7893.45715582883, 0.5440000258386135, 0.9760000463575125, 0.3680000174790621, 0.0, 0.0, 0.0, 0.0, 0.0, 1.650667284706384E9, 0.0, 2022-04-22 17:41:24.706
33.0, -9797.357945471536, 4049.6571695199236, 3087.638964017853, -7823.1844356614165, 0.5440000258386135, 0.9760000463575125, 0.3680000174790621, 0.0, 0.0, 0.0, 0.0, 0.0, 1.650667284707126E9, 0.0, 2022-04-22 17:41:24.707
33.0, -9669.251412389334, 3982.813937611878, 3021.173462005332, -7731.526967547368, 0.5440000258386135, 0.9760000463575125, 0.3680000174790621, 0.0, 0.0, 0.0, 0.0, 0.0, 1.650667284707126E9, 0.0, 2022-04-22 17:41:24.707
34.0, -9547.252135934774, 3900.895168982446, 2966.8701146487147, -7660.842858384829, 0.5440000258386135, 0.9760000463575125, 0.3680000174790621, 0.0, 0.0, 0.0, 0.0, 0.0, 1.650667284707878E9, 0.0, 2022-04-22 17:41:24.707
34.0, -9426.928334660362, 3831.669620802626, 2906.900818859227, -7577.940496067051, 0.5440000258386135, 0.9760000463575125, 0.3680000174790621, 0.0, 0.0, 0.0, 0.0, 0.0, 1.650667284707878E9, 0.0, 2022-04-22 17:41:24.707
35.0, -9307.816260971595, 3760.0841957507655, 2851.348344917409, -7514.24252002174, 0.5440000258386135, 0.9760000463575125, 0.3680000174790621, 0.0, 0.0, 0.0, 0.0, 0.0, 1.6506672847200212E9, 0.0, 2022-04-22 17:41:24.720
35.0, -9190.413321562577, 3698.0205559860915, 2788.080457367003, -7433.22506728163, 0.5440000258386135, 0.9760000463575125, 0.3680000174790621, 0.0, 0.0, 0.0, 0.0, 0.0, 1.6506672847200212E9, 0.0, 2022-04-22 17:41:24.720
36.0, -9074.143571840134, 3638.268174394034, 2740.7146244281903, -7349.735540670808, 0.5440000258386135, 0.9760000463575125, 0.3680000174790621, 0.0, 0.0, 0.0, 0.0, 0.0, 1.6506672847357175E9, 0.0, 2022-04-22 17:41:24.735
36.0, -8970.604441566858, 3559.030914032832, 2686.5870523694903, -7309.161366051529, 0.5440000258386135, 0.9760000463575125, 0.3680000174790621, 0.0, 0.0, 0.0, 0.0, 0.0, 1.6506672847357175E9, 0.0, 2022-04-22 17:41:24.735
37.0, -8858.714114692528, 3487.060279285535, 2633.3757557999343, -7261.163490020204, 0.5440000258386135, 0.9760000463575125, 0.3680000174790621, 0.0, 0.0, 0.0, 0.0, 0.0, 1.6506672847364228E9, 0.0, 2022-04-22 17:41:24.736
37.0, -8749.269682389218, 3429.9894059617072, 2587.6255596419796, -7170.018388200086, 0.5440000258386135, 0.9760000463575125, 0.3680000174790621, 0.0, 0.0, 0.0, 0.0, 0.0, 1.6506672847364228E9, 0.0, 2022-04-22 17:41:24.736
38.0, -8642.282364356797, 3374.57530831825, 2546.1650287332013, -7106.709361750167, 0.5440000258386135, 0.9760000463575125, 0.3680000174790621, 0.0, 0.0, 0.0, 0.0, 0.0, 1.6506672847499576E9, 0.0, 2022-04-22 17:41:24.749
38.0, -8518.738509220537, 3313.207289945334, 2499.6967717837542, -7019.996041377541, 0.5440000258386135, 0.9760000463575125, 0.3680000174790621, 0.0, 0.0, 0.0, 0.0, 0.0, 1.6506672847499576E9, 0.0, 2022-04-22 17:41:24.749
39.0, -8419.477824496571, 3252.8789637601003, 2444.3125933399424, -6968.127368892077, 0.5440000258386135, 0.9760000463575125, 0.3680000174790621, 0.0, 0.0, 0.0, 0.0, 0.0, 1.6506672847656736E9, 0.0, 2022-04-22 17:41:24.765
39.0, -8324.222572625149, 3178.3427576432005, 2401.898387942463, -6910.446891875472, 0.5440000258386135, 0.9760000463575125, 0.3680000174790621, 0.0, 0.0, 0.0, 0.0, 0.0, 1.6506672847656736E9, 0.0, 2022-04-22 17:41:24.765
40.0, -8233.960087194573, 3118.672653850168, 2365.9542094683275, -6842.096480285283, 0.5440000258386135, 0.9760000463575125, 0.4800000227987766, 0.0, 0.0, 0.0, 0.0, 0.0, 1.6506672847664175E9, 0.0, 2022-04-22 17:41:24.766
40.0, -8142.369937279727, 3065.760549277067, 2326.80119683221, -6784.842351863626, 0.5440000258386135, 0.9760000463575125, 0.4800000227987766, 0.0, 0.0, 0.0, 0.0, 0.0, 1.6506672847664175E9, 0.0, 2022-04-22 17:41:24.766
41.0, -8046.24328871863, 3006.1540237832814, 2269.9060988062993, -6732.049924089108, 0.5440000258386135, 0.8640000410377979, 0.4800000227987766, 0.0, 0.0, 0.0, 0.0, 0.0, 1.6506672847799857E9, 0.0, 2022-04-22 17:41:24.779
41.0, -7961.706590120215, 2950.0854436475784, 2236.2170800054446, -6690.97086297581, 0.5440000258386135, 0.8640000410377979, 0.4800000227987766, 0.0, 0.0, 0.0, 0.0, 0.0, 1.6506672847799857E9, 0.0, 2022-04-22 17:41:24.779
42.0, -7855.987098172773, 2893.6765326159075, 2184.980450612493, -6597.361167084891, 0.2240000106394291, 0.8640000410377979, 0.4800000227987766, 0.0, 0.0, 0.0, 0.0, 0.0, 1.6506672847956796E9, 0.0, 2022-04-22 17:41:24.795
42.0, -7746.239733973052, 2840.326859747991, 2141.1712625315413, -6577.341482622083, 0.2240000106394291, 0.8640000410377979, 0.4800000227987766, 0.0, 0.0, 0.0, 0.0, 0.0, 1.6506672847956796E9, 0.0, 2022-04-22 17:41:24.795
43.0, -7680.739126149099, 2786.741573182866, 2101.894833196886, -6521.078427688684, 0.2240000106394291, 0.8640000410377979, 0.4800000227987766, 0.0, 0.0, 0.0, 0.0, 0.0, 1.6506672847964237E9, 0.0, 2022-04-22 17:41:24.796
43.0, -7696.618741360959, 2742.154485911131, 2066.713594313711, -6496.612002178561, 0.2240000106394291, 0.8640000410377979, 0.4800000227987766, 0.0, 0.0, 0.0, 0.0, 0.0, 1.6506672847964237E9, 0.0, 2022-04-22 17:41:24.796
44.0, -7659.163643304724, 2695.357117765583, 2026.1468994943425, -6484.969693616498, 0.2240000106394291, 0.8640000410377979, 0.4800000227987766, 0.0, 0.0, 0.0, 0.0, 0.0, 1.6506672848099844E9, 0.0, 2022-04-22 17:41:24.809
44.0, -7577.760980869178, 2634.4079681877047, 2010.7235520770773, -6401.214634108823, 0.2240000106394291, 0.8640000410377979, 0.4800000227987766, 0.0, 0.0, 0.0, 0.0, 0.0, 1.6506672848099844E9, 0.0, 2022-04-22 17:41:24.809
45.0, -7499.305359598715, 2615.6187108103186, 1955.4104317324236, -6352.704391783569, 0.2240000106394291, 0.8640000410377979, 0.4800000227987766, 0.0, 0.0, 0.0, 0.0, 0.0, 1.6506672848256907E9, 0.0, 2022-04-22 17:41:24.825
45.0, -7448.263205003459, 2587.116933248006, 1933.9658453864977, -6316.262806615327, 0.2240000106394291, 0.8640000410377979, 0.4800000227987766, 0.0, 0.0, 0.0, 0.0, 0.0, 1.6506672848256907E9, 0.0, 2022-04-22 17:41:24.825
46.0, -7383.746190867852, 2523.1422046059743, 1901.6418900694698, -6274.121613914613, 0.2240000106394291, 0.8640000410377979, 0.4800000227987766, 0.0, 0.0, 0.0, 0.0, 0.0, 1.6506672848264034E9, 0.0, 2022-04-22 17:41:24.826
46.0, -7317.598580351565, 2480.331569813192, 1858.5171036804095, -6240.926261907909, 0.2240000106394291, 0.8640000410377979, 0.4800000227987766, 0.0, 0.0, 0.0, 0.0, 0.0, 1.6506672848264034E9, 0.0, 2022-04-22 17:41:24.826
47.0, -7280.218280294444, 2443.6842901473865, 1837.9513938240707, -6223.184176518116, 0.2240000106394291, 0.8640000410377979, 0.4800000227987766, 0.0, 0.0, 0.0, 0.0, 0.0, 1.650667284856376E9, 0.0, 2022-04-22 17:41:24.856
47.0, -7179.4878148878925, 2391.7183802630752, 1800.825406963937, -6149.826038887259, 0.2240000106394291, 0.8640000410377979, 0.4800000227987766, 0.0, 0.0, 0.0, 0.0, 0.0, 1.650667284856376E9, 0.0, 2022-04-22 17:41:24.856
48.0, -7094.7977803912945, 2360.3069605352357, 1769.0399972405285, -6085.993426443543, 0.2240000106394291, 0.8640000410377979, 0.4800000227987766, 0.0, 0.0, 0.0, 0.0, 0.0, 1.650667284857083E9, 0.0, 2022-04-22 17:41:24.857
48.0, -7014.086999447551, 2322.470392683521, 1745.8974963147193, -6026.076489253435, 0.2240000106394291, 0.8640000410377979, 0.4800000227987766, 0.0, 0.0, 0.0, 0.0, 0.0, 1.650667284857083E9, 0.0, 2022-04-22 17:41:24.857
49.0, -6958.945914500859, 2294.3987036161125, 1718.4915094394237, -5985.210602437612, 0.2240000106394291, 0.8640000410377979, 0.4800000227987766, 0.0, 0.0, 0.0, 0.0, 0.0, 1.6506672848577988E9, 0.0, 2022-04-22 17:41:24.857
49.0, -6907.458711810876, 2253.4879380008206, 1687.9552263012156, -5951.012957242783, 0.2240000106394291, 0.8640000410377979, 0.4800000227987766, 0.0, 0.0, 0.0, 0.0, 0.0, 1.6506672848577988E9, 0.0, 2022-04-22 17:41:24.857
50.0, -6856.352978916373, 2196.0655140811577, 1648.764814665541, -5933.861776045989, 0.2240000106394291, 0.8640000410377979, -0.6880000326782465, 0.0, 0.0, 0.0, 0.0, 0.0, 1.6506672849027464E9, 0.0, 2022-04-22 17:41:24.902
50.0, -6792.9579347674735, 2166.045337136835, 1637.3469001008198, -5876.4019531267695, 0.2240000106394291, 0.8640000410377979, -0.6880000326782465, 0.0, 0.0, 0.0, 0.0, 0.0, 1.6506672849027464E9, 0.0, 2022-04-22 17:41:24.902
51.0, -6751.377727060113, 2121.248815467581, 1594.214633911848, -5861.318936605472, 0.2240000106394291, 0.9920000471174717, -0.6880000326782465, 0.0, 0.0, 0.0, 0.0, 0.0, 1.650667284903466E9, 0.0, 2022-04-22 17:41:24.903
51.0, -6683.524722164031, 2093.779250293039, 1583.481121039018, -5823.699282951187, 0.2240000106394291, 0.9920000471174717, -0.6880000326782465, 0.0, 0.0, 0.0, 0.0, 0.0, 1.650667284903466E9, 0.0, 2022-04-22 17:41:24.903
52.0, -6634.532032744493, 2062.345391165465, 1553.9172118892893, -5767.282892119605, 0.35200001671910286, 0.9920000471174717, -0.6880000326782465, 0.0, 0.0, 0.0, 0.0, 0.0, 1.6506672849041877E9, 0.0, 2022-04-22 17:41:24.904
52.0, -6571.432440692093, 2014.5232904320583, 1528.448493191041, -5741.627178423572, 0.35200001671910286, 0.9920000471174717, -0.6880000326782465, 0.0, 0.0, 0.0, 0.0, 0.0, 1.6506672849041877E9, 0.0, 2022-04-22 17:41:24.904
53.0, -6490.048477756325, 1979.1625363510102, 1491.0756729338318, -5704.071103068534, 0.35200001671910286, 0.9920000471174717, -0.6880000326782465, 0.0, 0.0, 0.0, 0.0, 0.0, 1.6506672849049468E9, 0.0, 2022-04-22 17:41:24.904
53.0, -6489.6707478608005, 1954.6474921414629, 1460.5917483950034, -5682.375943425577, 0.35200001671910286, 0.9920000471174717, -0.6880000326782465, 0.0, 0.0, 0.0, 0.0, 0.0, 1.6506672849049468E9, 0.0, 2022-04-22 17:41:24.904
54.0, -6423.410940345842, 1927.1143486676738, 1451.6085087014362, -5629.516197451856, 0.35200001671910286, 0.9920000471174717, -0.6880000326782465, 0.0, 0.0, 0.0, 0.0, 0.0, 1.6506672849320555E9, 0.0, 2022-04-22 17:41:24.932
54.0, -6319.47912057722, 1901.0883848760277, 1432.8903094232082, -5559.090141386259, 0.35200001671910286, 0.9920000471174717, -0.6880000326782465, 0.0, 0.0, 0.0, 0.0, 0.0, 1.6506672849320555E9, 0.0, 2022-04-22 17:41:24.932
55.0, -6560.15477237571, 1838.104729722254, 1386.4183125738055, -5432.722661783453, 0.35200001671910286, 0.9920000471174717, -0.6880000326782465, 0.0, 0.0, 0.0, 0.0, 0.0, 1.6506672849327965E9, 0.0, 2022-04-22 17:41:24.932
55.0, -6520.081744350493, 1807.2617747876793, 1356.416835129261, -5381.26163839316, 0.35200001671910286, 0.9920000471174717, -0.6880000326782465, 0.0, 0.0, 0.0, 0.0, 0.0, 1.6506672849327965E9, 0.0, 2022-04-22 17:41:24.932
56.0, -6552.652533064596, 1778.767477025278, 1337.5602595526725, -5307.424793567974, 0.35200001671910286, 0.9920000471174717, -0.6880000326782465, 0.0, 0.0, 0.0, 0.0, 0.0, 1.6506672849337265E9, 0.0, 2022-04-22 17:41:24.933
56.0, -6552.173825870268, 1748.6687621818855, 1318.3633530801162, -5264.217729379889, 0.35200001671910286, 0.9920000471174717, -0.6880000326782465, 0.0, 0.0, 0.0, 0.0, 0.0, 1.6506672849337265E9, 0.0, 2022-04-22 17:41:24.933
57.0, -6455.359035717323, 1715.8324405709282, 1292.2102326899767, -5238.528356584255, 0.35200001671910286, 0.9920000471174717, -0.6880000326782465, 0.0, 0.0, 0.0, 0.0, 0.0, 1.6506672849342432E9, 0.0, 2022-04-22 17:41:24.934
57.0, -6373.664661085233, 1672.1317095886916, 1265.2792131090537, -5250.294081844855, 0.35200001671910286, 0.9920000471174717, -0.6880000326782465, 0.0, 0.0, 0.0, 0.0, 0.0, 1.6506672849342432E9, 0.0, 2022-04-22 17:41:24.934
58.0, -6365.5789973810315, 1642.0329947452992, 1242.2601288817823, -5200.276659837458, 0.35200001671910286, 0.9920000471174717, -0.6880000326782465, 0.0, 0.0, 0.0, 0.0, 0.0, 1.6506672849449916E9, 0.0, 2022-04-22 17:41:24.944
58.0, -6307.184199472889, 1615.1131948642433, 1234.0248691793531, -5139.95207355218, 0.35200001671910286, 0.9920000471174717, -0.6880000326782465, 0.0, 0.0, 0.0, 0.0, 0.0, 1.6506672849449916E9, 0.0, 2022-04-22 17:41:24.944
59.0, -6160.755896507762, 1593.2609594231471, 1198.1143498048186, -5127.217714203056, 0.35200001671910286, 0.9920000471174717, -0.6880000326782465, 0.0, 0.0, 0.0, 0.0, 0.0, 1.6506672849599855E9, 0.0, 2022-04-22 17:41:24.959
59.0, -6001.851287290454, 1567.4668694287539, 1169.4442767444998, -5094.9012386859395, 0.35200001671910286, 0.9920000471174717, -0.6880000326782465, 0.0, 0.0, 0.0, 0.0, 0.0, 1.6506672849599855E9, 0.0, 2022-04-22 17:41:24.959
60.0, -5827.60186855495, 1511.7760191885754, 1124.2288862802088, -5022.855805939529, 0.35200001671910286, 0.9920000471174717, -0.0800000037997961, 0.0, 0.0, 0.0, 0.0, 0.0, 1.6506672849756515E9, 0.0, 2022-04-22 17:41:24.975
60.0, -5801.362730465829, 1473.6252997405827, 1093.400890945457, -4971.742593245115, 0.35200001671910286, 0.9920000471174717, -0.0800000037997961, 0.0, 0.0, 0.0, 0.0, 0.0, 1.6506672849756515E9, 0.0, 2022-04-22 17:41:24.975
61.0, -5709.04703995958, 1445.785484470427, 1086.766308424063, -4945.911104251165, 0.35200001671910286, 1.0400000493973494, -0.0800000037997961, 0.0, 0.0, 0.0, 0.0, 0.0, 1.650667284976382E9, 0.0, 2022-04-22 17:41:24.976
61.0, -5616.353619557805, 1409.8263463964686, 1063.0590826049447, -4930.263362836558, 0.35200001671910286, 1.0400000493973494, -0.0800000037997961, 0.0, 0.0, 0.0, 0.0, 0.0, 1.650667284976382E9, 0.0, 2022-04-22 17:41:24.976
62.0, -5532.931411146186, 1377.341575381346, 1038.981606690213, -4884.909596073907, 0.49600002355873585, 1.0400000493973494, -0.0800000037997961, 0.0, 0.0, 0.0, 0.0, 0.0, 1.650667285023052E9, 0.0, 2022-04-22 17:41:25.023
62.0, -5464.842792552896, 1357.321890918538, 1024.040706367232, -4834.121754675638, 0.49600002355873585, 1.0400000493973494, -0.0800000037997961, 0.0, 0.0, 0.0, 0.0, 0.0, 1.650667285023052E9, 0.0, 2022-04-22 17:41:25.023
63.0, -5377.770441784523, 1331.187470028177, 1017.6192981433123, -4802.4074030513875, 0.49600002355873585, 1.0400000493973494, -0.0800000037997961, 0.0, 0.0, 0.0, 0.0, 0.0, 1.6506672850234904E9, 0.0, 2022-04-22 17:41:25.023
63.0, -5328.837590764277, 1286.536804457195, 974.4084940552711, -4780.689804008696, 0.49600002355873585, 1.0400000493973494, -0.0800000037997961, 0.0, 0.0, 0.0, 0.0, 0.0, 1.6506672850234904E9, 0.0, 2022-04-22 17:41:25.023
64.0, -5294.505309171043, 1251.5051615722477, 948.9098561573774, -4764.514736700337, 0.49600002355873585, 1.0400000493973494, -0.0800000037997961, 0.0, 0.0, 0.0, 0.0, 0.0, 1.6506672850242271E9, 0.0, 2022-04-22 17:41:25.024
64.0, -5276.13866048865, 1230.1278934255242, 928.9313105940819, -4738.709427006077, 0.49600002355873585, 1.0400000493973494, -0.0800000037997961, 0.0, 0.0, 0.0, 0.0, 0.0, 1.6506672850242271E9, 0.0, 2022-04-22 17:41:25.024
65.0, -5258.284378100187, 1210.0483705634251, 914.2746426677331, -4729.812205011491, 0.49600002355873585, 1.0400000493973494, -0.0800000037997961, 0.0, 0.0, 0.0, 0.0, 0.0, 1.650667285025035E9, 0.0, 2022-04-22 17:41:25.025
65.0, -5241.668002597056, 1192.2576664742082, 886.1954738004133, -4715.623024579603, 0.49600002355873585, 1.0400000493973494, -0.0800000037997961, 0.0, 0.0, 0.0, 0.0, 0.0, 1.650667285025035E9, 0.0, 2022-04-22 17:41:25.025
66.0, -5228.533473952673, 1158.527508773841, 864.7770667541772, -4693.602493640501, 0.49600002355873585, 1.0400000493973494, -0.0800000037997961, 0.0, 0.0, 0.0, 0.0, 0.0, 1.6506672850504563E9, 0.0, 2022-04-22 17:41:25.050
66.0, -5209.919991873205, 1124.3410832788795, 860.8950506001711, -4666.129188566003, 0.49600002355873585, 1.0400000493973494, -0.0800000037997961, 0.0, 0.0, 0.0, 0.0, 0.0, 1.6506672850504563E9, 0.0, 2022-04-22 17:41:25.050
67.0, -5185.704139660113, 1105.376050603576, 834.869086808525, -4650.690881548915, 0.49600002355873585, 1.0400000493973494, -0.0800000037997961, 0.0, 0.0, 0.0, 0.0, 0.0, 1.650667285067109E9, 0.0, 2022-04-22 17:41:25.067
67.0, -5159.966148165055, 1089.0289478972554, 818.4247467033565, -4653.970773810055, 0.49600002355873585, 1.0400000493973494, -0.0800000037997961, 0.0, 0.0, 0.0, 0.0, 0.0, 1.650667285067109E9, 0.0, 2022-04-22 17:41:25.067
68.0, -5126.609980460256, 1071.993703599088, 801.1314493082464, -4654.281185506377, 0.49600002355873585, 1.0400000493973494, -0.0800000037997961, 0.0, 0.0, 0.0, 0.0, 0.0, 1.650667285067838E9, 0.0, 2022-04-22 17:41:25.067
68.0, -5094.2860251432285, 1055.3623684961349, 781.1828229445964, -4602.980977814179, 0.49600002355873585, 1.0400000493973494, -0.0800000037997961, 0.0, 0.0, 0.0, 0.0, 0.0, 1.650667285067838E9, 0.0, 2022-04-22 17:41:25.067
69.0, -5064.3518658978865, 1036.3487171214074, 777.0464935936034, -4580.938007475343, 0.49600002355873585, 1.0400000493973494, -0.0800000037997961, 0.0, 0.0, 0.0, 0.0, 0.0, 1.650667285068647E9, 0.0, 2022-04-22 17:41:25.068
69.0, -5024.428433870897, 1019.9342962158844, 761.3987521789968, -4558.0236404468305, 0.49600002355873585, 1.0400000493973494, -0.0800000037997961, 0.0, 0.0, 0.0, 0.0, 0.0, 1.650667285068647E9, 0.0, 2022-04-22 17:41:25.068
70.0, -5001.039099548012, 988.279782990925, 742.5720958020538, -4534.166818629485, 0.49600002355873585, 1.0400000493973494, -0.2400000113993883, 0.0, 0.0, 0.0, 0.0, 0.0, 1.6506672850692768E9, 0.0, 2022-04-22 17:41:25.069
70.0, -4978.386525516398, 964.8904486680403, 714.22739403788, -4524.33088174602, 0.49600002355873585, 1.0400000493973494, -0.2400000113993883, 0.0, 0.0, 0.0, 0.0, 0.0, 1.6506672850692768E9, 0.0, 2022-04-22 17:41:25.069
71.0, -4964.361900682561, 943.0382132269442, 701.7099488861859, -4503.129388897214, 0.49600002355873585, 0.9600000455975533, -0.2400000113993883, 0.0, 0.0, 0.0, 0.0, 0.0, 1.6506672850968597E9, 0.0, 2022-04-22 17:41:25.096
71.0, -4944.398314719088, 923.1905641620979, 685.7293563755229, -4490.832597842906, 0.49600002355873585, 0.9600000455975533, -0.2400000113993883, 0.0, 0.0, 0.0, 0.0, 0.0, 1.6506672850968597E9, 0.0, 2022-04-22 17:41:25.096
72.0, -4916.883870745078, 898.8699947502464, 692.120845399797, -4460.887218897697, 0.4640000220388174, 0.9600000455975533, -0.2400000113993883, 0.0, 0.0, 0.0, 0.0, 0.0, 1.6506672850975573E9, 0.0, 2022-04-22 17:41:25.097
72.0, -4901.643778425641, 886.404908197932, 670.2199912592769, -4454.839800669346, 0.4640000220388174, 0.9600000455975533, -0.2400000113993883, 0.0, 0.0, 0.0, 0.0, 0.0, 1.6506672850975573E9, 0.0, 2022-04-22 17:41:25.097
73.0, -4859.715760022402, 885.0922033134848, 654.5011917455122, -4420.784271672834, 0.4640000220388174, 0.9600000455975533, -0.2400000113993883, 0.0, 0.0, 0.0, 0.0, 0.0, 1.6506672851107056E9, 0.0, 2022-04-22 17:41:25.110
73.0, -4825.196483431384, 861.2204218963161, 645.1551817562431, -4416.135576027911, 0.4640000220388174, 0.9600000455975533, -0.2400000113993883, 0.0, 0.0, 0.0, 0.0, 0.0, 1.6506672851107056E9, 0.0, 2022-04-22 17:41:25.110
74.0, -4779.472466573119, 841.6345658283681, 627.4205761663616, -4377.278015488293, 0.4640000220388174, 0.9600000455975533, -0.2400000113993883, 0.0, 0.0, 0.0, 0.0, 0.0, 1.6506672851114275E9, 0.0, 2022-04-22 17:41:25.111
74.0, -4763.368457363918, 822.964985249564, 619.2301952634007, -4367.131666908506, 0.4640000220388174, 0.9600000455975533, -0.2400000113993883, 0.0, 0.0, 0.0, 0.0, 0.0, 1.6506672851114275E9, 0.0, 2022-04-22 17:41:25.111
75.0, -4761.520946785808, 811.6106489840895, 608.4630232909694, -4360.919693082105, 0.4640000220388174, 0.9600000455975533, -0.2400000113993883, 0.0, 0.0, 0.0, 0.0, 0.0, 1.6506672851256816E9, 0.0, 2022-04-22 17:41:25.125
75.0, -4745.0953061804175, 781.3735578423366, 573.6520345034078, -4349.075429922435, 0.4640000220388174, 0.9600000455975533, -0.2400000113993883, 0.0, 0.0, 0.0, 0.0, 0.0, 1.6506672851256816E9, 0.0, 2022-04-22 17:41:25.125
76.0, -4723.91251283139, 775.2700411146507, 571.9167209239677, -4339.617222934496, 0.4640000220388174, 0.9600000455975533, -0.2400000113993883, 0.0, 0.0, 0.0, 0.0, 0.0, 1.6506672851264284E9, 0.0, 2022-04-22 17:41:25.126
76.0, -4695.5266721677035, 755.3700334504247, 555.075951423496, -4337.212467262987, 0.4640000220388174, 0.9600000455975533, -0.2400000113993883, 0.0, 0.0, 0.0, 0.0, 0.0, 1.6506672851264284E9, 0.0, 2022-04-22 17:41:25.126
77.0, -4664.556560634635, 738.312349752523, 547.4091565143317, -4282.146180315409, 0.4640000220388174, 0.9600000455975533, -0.2400000113993883, 0.0, 0.0, 0.0, 0.0, 0.0, 1.6506672851400168E9, 0.0, 2022-04-22 17:41:25.140
77.0, -4637.674159753136, 732.0629769265652, 545.47562823724, -4257.182348111179, 0.4640000220388174, 0.9600000455975533, -0.2400000113993883, 0.0, 0.0, 0.0, 0.0, 0.0, 1.6506672851400168E9, 0.0, 2022-04-22 17:41:25.140
78.0, -4616.36046990566, 704.9935810472816, 532.2176828943193, -4248.606757512782, 0.4640000220388174, 0.9600000455975533, -0.2400000113993883, 0.0, 0.0, 0.0, 0.0, 0.0, 1.6506672851720324E9, 0.0, 2022-04-22 17:41:25.172
78.0, -4588.95822293032, 698.9573825187981, 524.7715420825407, -4230.92451052228, 0.4640000220388174, 0.9600000455975533, -0.2400000113993883, 0.0, 0.0, 0.0, 0.0, 0.0, 1.6506672851720324E9, 0.0, 2022-04-22 17:41:25.172
79.0, -4575.509542689659, 679.2331501524895, 508.9854243695736, -4238.067719437648, 0.4640000220388174, 0.9600000455975533, -0.2400000113993883, 0.0, 0.0, 0.0, 0.0, 0.0, 1.650667285172752E9, 0.0, 2022-04-22 17:41:25.172
79.0, -4578.8043945506215, 660.8852009698749, 482.8958822786808, -4228.590812949929, 0.4640000220388174, 0.9600000455975533, -0.2400000113993883, 0.0, 0.0, 0.0, 0.0, 0.0, 1.650667285172752E9, 0.0, 2022-04-22 17:41:25.172
80.0, -4603.472774658352, 632.3834234075621, 473.32173839211464, -4242.9295893800445, 0.4640000220388174, 0.9600000455975533, 0.03200000151991844, 0.0, 0.0, 0.0, 0.0, 0.0, 1.650667285173509E9, 0.0, 2022-04-22 17:41:25.173
80.0, -4563.444625432603, 638.053111740388, 477.9218153376132, -4186.041971154045, 0.4640000220388174, 0.9600000455975533, 0.03200000151991844, 0.0, 0.0, 0.0, 0.0, 0.0, 1.650667285173509E9, 0.0, 2022-04-22 17:41:25.173
81.0, -4526.217661273666, 641.7743121962994, 466.93772916775197, -4173.775099299382, 0.4640000220388174, 1.0560000501573086, 0.03200000151991844, 0.0, 0.0, 0.0, 0.0, 0.0, 1.6506672851742477E9, 0.0, 2022-04-22 17:41:25.174
81.0, -4493.261662864126, 617.5808993829414, 445.71753681916744, -4149.806080483366, 0.4640000220388174, 1.0560000501573086, 0.03200000151991844, 0.0, 0.0, 0.0, 0.0, 0.0, 1.6506672851742477E9, 0.0, 2022-04-22 17:41:25.174
82.0, -4485.437792156823, 611.6456781532615, 455.75168840028346, -4144.749735743273, 0.4800000227987766, 1.0560000501573086, 0.03200000151991844, 0.0, 0.0, 0.0, 0.0, 0.0, 1.6506672851850204E9, 0.0, 2022-04-22 17:41:25.185
82.0, -4459.494106164202, 601.9107185686007, 447.3518730998039, -4117.736438363325, 0.4800000227987766, 1.0560000501573086, 0.03200000151991844, 0.0, 0.0, 0.0, 0.0, 0.0, 1.6506672851850204E9, 0.0, 2022-04-22 17:41:25.185
83.0, -4451.371043460444, 595.5940275434405, 441.248356372118, -4114.658500699792, 0.4800000227987766, 1.0560000501573086, 0.03200000151991844, 0.0, 0.0, 0.0, 0.0, 0.0, 1.650667285200019E9, 0.0, 2022-04-22 17:41:25.200
83.0, -4436.325425938703, 571.7372057260945, 429.41531291231513, -4105.088096713182, 0.4800000227987766, 1.0560000501573086, 0.03200000151991844, 0.0, 0.0, 0.0, 0.0, 0.0, 1.650667285200019E9, 0.0, 2022-04-22 17:41:25.200
84.0, -4404.416599516757, 575.5556435808539, 423.0911420872435, -4081.743641189765, 0.4800000227987766, 1.0560000501573086, 0.03200000151991844, 0.0, 0.0, 0.0, 0.0, 0.0, 1.6506672852320864E9, 0.0, 2022-04-22 17:41:25.232
84.0, -4385.616122439504, 562.9970595296472, 410.192227140069, -4076.3245261539705, 0.4800000227987766, 1.0560000501573086, 0.03200000151991844, 0.0, 0.0, 0.0, 0.0, 0.0, 1.6506672852320864E9, 0.0, 2022-04-22 17:41:25.232
85.0, -4359.967888543382, 551.4071095669642, 402.9293414261192, -4056.8134680851363, 0.4800000227987766, 1.0560000501573086, 0.03200000151991844, 0.0, 0.0, 0.0, 0.0, 0.0, 1.6506672852327826E9, 0.0, 2022-04-22 17:41:25.232
85.0, -4333.676391854882, 543.1942892642692, 416.4229004662484, -4038.9629255966283, 0.4800000227987766, 1.0560000501573086, 0.03200000151991844, 0.0, 0.0, 0.0, 0.0, 0.0, 1.6506672852327826E9, 0.0, 2022-04-22 17:41:25.232
86.0, -4302.620262622833, 554.7543200273067, 425.0171905644238, -3991.59335275786, 0.4800000227987766, 1.0560000501573086, 0.03200000151991844, 0.0, 0.0, 0.0, 0.0, 0.0, 1.650667285233536E9, 0.0, 2022-04-22 17:41:25.233
86.0, -4286.160962917842, 544.3947971500456, 420.10296202264726, -3993.9008710305206, 0.4800000227987766, 1.0560000501573086, 0.03200000151991844, 0.0, 0.0, 0.0, 0.0, 0.0, 1.650667285233536E9, 0.0, 2022-04-22 17:41:25.233
87.0, -4249.741817149334, 573.2556051081046, 430.6868788972497, -3954.6468810955994, 0.4800000227987766, 1.0560000501573086, 0.03200000151991844, 0.0, 0.0, 0.0, 0.0, 0.0, 1.6506672852342849E9, 0.0, 2022-04-22 17:41:25.234
87.0, -4219.426188108511, 584.6211610734463, 445.16403162572533, -3949.6653343546204, 0.4800000227987766, 1.0560000501573086, 0.03200000151991844, 0.0, 0.0, 0.0, 0.0, 0.0, 1.6506672852342849E9, 0.0, 2022-04-22 17:41:25.234
88.0, -4179.566334380768, 595.033042550087, 456.8100800877437, -3927.9776545115747, 0.4800000227987766, 1.0560000501573086, 0.03200000151991844, 0.0, 0.0, 0.0, 0.0, 0.0, 1.6506672852607365E9, 0.0, 2022-04-22 17:41:25.260
88.0, -4157.242871545255, 605.7403761232272, 465.5128272846341, -3913.8707518787123, 0.4800000227987766, 1.0560000501573086, 0.03200000151991844, 0.0, 0.0, 0.0, 0.0, 0.0, 1.6506672852607365E9, 0.0, 2022-04-22 17:41:25.260
89.0, -4126.818785405718, 626.3808839786798, 479.1933813225478, -3898.750336357858, 0.4800000227987766, 1.0560000501573086, 0.03200000151991844, 0.0, 0.0, 0.0, 0.0, 0.0, 1.6506672852614107E9, 0.0, 2022-04-22 17:41:25.261
89.0, -4094.1619789926335, 636.7030078563839, 496.24732512049377, -3870.779624589253, 0.4800000227987766, 1.0560000501573086, 0.03200000151991844, 0.0, 0.0, 0.0, 0.0, 0.0, 1.6506672852614107E9, 0.0, 2022-04-22 17:41:25.261
90.0, -4076.3637951035053, 650.0207915985957, 501.3485486600548, -3862.5967234862037, 0.4800000227987766, 1.0560000501573086, 0.19200000911951065, 0.0, 0.0, 0.0, 0.0, 0.0, 1.6506672852756884E9, 0.0, 2022-04-22 17:41:25.275
90.0, -4046.68394905515, 660.6608069725335, 527.1388987544924, -3852.2372006089427, 0.4800000227987766, 1.0560000501573086, 0.19200000911951065, 0.0, 0.0, 0.0, 0.0, 0.0, 1.6506672852756884E9, 0.0, 2022-04-22 17:41:25.275
91.0, -4020.1568386694416, 671.3419612459838, 536.4849087437615, -3836.926050190348, 0.4800000227987766, 0.9920000471174717, 0.19200000911951065, 0.0, 0.0, 0.0, 0.0, 0.0, 1.6506672852764626E9, 0.0, 2022-04-22 17:41:25.276
91.0, -3987.6458883546293, 686.8700258620083, 555.0235928241163, -3804.0598093797453, 0.4800000227987766, 0.9920000471174717, 0.19200000911951065, 0.0, 0.0, 0.0, 0.0, 0.0, 1.6506672852764626E9, 0.0, 2022-04-22 17:41:25.276
92.0, -3957.3115598140284, 702.7234617741778, 582.6876327963546, -3763.6688898582943, 0.4480000212788582, 0.9920000471174717, 0.19200000911951065, 0.0, 0.0, 0.0, 0.0, 0.0, 1.6506672852900426E9, 0.0, 2022-04-22 17:41:25.290
92.0, -3938.8962924322113, 698.9835618184879, 574.276597796008, -3747.0712138549425, 0.4480000212788582, 0.9920000471174717, 0.19200000911951065, 0.0, 0.0, 0.0, 0.0, 0.0, 1.6506672852900426E9, 0.0, 2022-04-22 17:41:25.290
93.0, -3908.42358759325, 704.0698257582262, 572.4814458172768, -3745.133945677895, 0.4480000212788582, 0.9920000471174717, 0.19200000911951065, 0.0, 0.0, 0.0, 0.0, 0.0, 1.6506672853220596E9, 0.0, 2022-04-22 17:41:25.322
93.0, -3882.337785402313, 683.3021613042802, 567.6719344742596, -3719.9681588760577, 0.4480000212788582, 0.9920000471174717, 0.19200000911951065, 0.0, 0.0, 0.0, 0.0, 0.0, 1.6506672853220596E9, 0.0, 2022-04-22 17:41:25.322
94.0, -3860.42197166197, 677.1500258771703, 550.2290410809219, -3719.7923835781403, 0.4480000212788582, 0.9920000471174717, 0.19200000911951065, 0.0, 0.0, 0.0, 0.0, 0.0, 1.650667285322761E9, 0.0, 2022-04-22 17:41:25.322
94.0, -3841.1427873903885, 674.6854318063706, 539.8395990040153, -3720.5141842695884, 0.4480000212788582, 0.9920000471174717, 0.19200000911951065, 0.0, 0.0, 0.0, 0.0, 0.0, 1.650667285322761E9, 0.0, 2022-04-22 17:41:25.322
95.0, -3809.974461159669, 660.6982059720904, 553.2882792446762, -3678.694622965064, 0.4480000212788582, 0.9920000471174717, 0.19200000911951065, 0.0, 0.0, 0.0, 0.0, 0.0, 1.6506672853237898E9, 0.0, 2022-04-22 17:41:25.323
95.0, -3797.408397308551, 627.2148816687986, 523.6495720958337, -3672.4901289385743, 0.4480000212788582, 0.9920000471174717, 0.19200000911951065, 0.0, 0.0, 0.0, 0.0, 0.0, 1.6506672853237898E9, 0.0, 2022-04-22 17:41:25.323
96.0, -3804.873237620108, 583.2897566892207, 500.8361823661253, -3680.3850577450357, 0.4480000212788582, 0.9920000471174717, 0.19200000911951065, 0.0, 0.0, 0.0, 0.0, 0.0, 1.6506672853242273E9, 0.0, 2022-04-22 17:41:25.324
96.0, -3789.6107059009373, 567.3802222777158, 489.4257476013154, -3656.427258628886, 0.4480000212788582, 0.9920000471174717, 0.19200000911951065, 0.0, 0.0, 0.0, 0.0, 0.0, 1.6506672853242273E9, 0.0, 2022-04-22 17:41:25.324
97.0, -3790.7775546871126, 547.1511034173891, 470.98056101985276, -3660.0886206855066, 0.4480000212788582, 0.9920000471174717, 0.19200000911951065, 0.0, 0.0, 0.0, 0.0, 0.0, 1.6506672853827302E9, 0.0, 2022-04-22 17:41:25.382
97.0, -3801.204395763576, 531.6716575007886, 448.8478330820799, -3648.6781859206967, 0.4480000212788582, 0.9920000471174717, 0.19200000911951065, 0.0, 0.0, 0.0, 0.0, 0.0, 1.6506672853827302E9, 0.0, 2022-04-22 17:41:25.382
98.0, -3783.2678355760872, 513.817375112325, 434.3968596532941, -3627.55523097096, 0.4480000212788582, 0.9920000471174717, 0.19200000911951065, 0.0, 0.0, 0.0, 0.0, 0.0, 1.6506672853834856E9, 0.0, 2022-04-22 17:41:25.383
98.0, -3611.3670740127563, 480.8950358023867, 410.28198473900557, -3537.0010333438404, 0.4480000212788582, 0.9920000471174717, 0.19200000911951065, 0.0, 0.0, 0.0, 0.0, 0.0, 1.6506672853834856E9, 0.0, 2022-04-22 17:41:25.383
99.0, -3567.3222722345963, 463.4409227091819, 397.72714058775455, -3568.6218874691986, 0.4480000212788582, 0.9920000471174717, 0.19200000911951065, 0.0, 0.0, 0.0, 0.0, 0.0, 1.650667285384212E9, 0.0, 2022-04-22 17:41:25.384
99.0, -3558.604565437883, 438.27139600738883, 391.79939915798604, -3530.418809421826, 0.4480000212788582, 0.9920000471174717, 0.19200000911951065, 0.0, 0.0, 0.0, 0.0, 0.0, 1.650667285384212E9, 0.0, 2022-04-22 17:41:25.384
100.0, -3562.2434880947694, 419.5419770292938, 370.1491183144972, -3549.937347290572, 0.4480000212788582, 0.9920000471174717, 0.2400000113993883, 0.0, 0.0, 0.0, 0.0, 0.0, 1.6506672853849924E9, 0.0, 2022-04-22 17:41:25.384
100.0, -3571.148189889267, 387.397536910139, 344.9347128132358, -3537.068351543043, 0.4480000212788582, 0.9920000471174717, 0.2400000113993883, 0.0, 0.0, 0.0, 0.0, 0.0, 1.6506672853849924E9, 0.0, 2022-04-22 17:41:25.384
0.0, -611.5447008544579, 389.53675968479365, 327.4880795199424, -581.1056551150978, 0.4480000212788582, 0.9920000471174717, 0.2400000113993883, 0.0, 0.0, 0.0, 0.0, 0.0, 1.650667285428413E9, 0.0, 2022-04-22 17:41:25.428
1.0, -593.1107339728624, 381.4436161806807, 325.9061018386856, -566.4751664884388, 0.4480000212788582, 1.0240000486373901, 0.2400000113993883, 0.0, 0.0, 0.0, 0.0, 0.0, 1.6506672854292006E9, 0.0, 2022-04-22 17:41:25.429
1.0, -596.0241160383448, 356.44612487684935, 318.79655202291906, -571.3258167309687, 0.4480000212788582, 1.0240000486373901, 0.2400000113993883, 0.0, 0.0, 0.0, 0.0, 0.0, 1.6506672854292006E9, 0.0, 2022-04-22 17:41:25.429
2.0, -593.7203376656398, 331.02602487802505, 306.24170787166804, -568.9771595587954, 0.4640000220388174, 1.0240000486373901, 0.2400000113993883, 0.0, 0.0, 0.0, 0.0, 0.0, 1.6506672854299283E9, 0.0, 2022-04-22 17:41:25.429
2.0, -585.4663784634322, 319.2528198175132, 292.6546513326466, -551.0331195713952, 0.4640000220388174, 1.0240000486373901, 0.2400000113993883, 0.0, 0.0, 0.0, 0.0, 0.0, 1.6506672854299283E9, 0.0, 2022-04-22 17:41:25.429
3.0, -576.2475250726566, 318.4786605266854, 280.55607497598976, -559.2571595739573, 0.4640000220388174, 1.0240000486373901, 0.2400000113993883, 0.0, 0.0, 0.0, 0.0, 0.0, 1.6506672854306736E9, 0.0, 2022-04-22 17:41:25.430
3.0, -559.0477251764387, 318.628256524913, 268.5322966184467, -557.4620075952262, 0.4640000220388174, 1.0240000486373901, 0.2400000113993883, 0.0, 0.0, 0.0, 0.0, 0.0, 1.6506672854306736E9, 0.0, 2022-04-22 17:41:25.430
4.0, -558.7560129798949, 299.8165597477928, 246.12655598390847, -541.3243392864242, 0.4640000220388174, 1.0240000486373901, 0.2400000113993883, 0.0, 0.0, 0.0, 0.0, 0.0, 1.6506672854420712E9, 0.0, 2022-04-22 17:41:25.442
4.0, -559.5825308701023, 276.92463211901486, 246.30981108173728, -549.4287024904042, 0.4640000220388174, 1.0240000486373901, 0.2400000113993883, 0.0, 0.0, 0.0, 0.0, 0.0, 1.6506672854420712E9, 0.0, 2022-04-22 17:41:25.442
5.0, -538.4371365206316, 280.71315077412874, 235.05645211506635, -530.8900184100494, 0.4640000220388174, 1.0240000486373901, 0.2400000113993883, 0.0, 0.0, 0.0, 0.0, 0.0, 1.6506672854427793E9, 0.0, 2022-04-22 17:41:25.442
5.0, -519.0906340498477, 259.03295073099434, 240.7485798476264, -509.8343816595152, 0.4640000220388174, 1.0240000486373901, 0.2400000113993883, 0.0, 0.0, 0.0, 0.0, 0.0, 1.6506672854427793E9, 0.0, 2022-04-22 17:41:25.442
6.0, -523.3653396992013, 268.046109624207, 235.53515930939466, -520.4220384340733, 0.4640000220388174, 1.0240000486373901, 0.2400000113993883, 0.0, 0.0, 0.0, 0.0, 0.0, 1.650667285443497E9, 0.0, 2022-04-22 17:41:25.443
6.0, -511.47993764001876, 254.55629048403352, 234.45058832224458, -511.29294264223427, 0.4640000220388174, 1.0240000486373901, 0.2400000113993883, 0.0, 0.0, 0.0, 0.0, 0.0, 1.650667285443497E9, 0.0, 2022-04-22 17:41:25.443
7.0, -598.3522037607618, 474.0678484332748, 406.2111036372371, -421.8981140013784, 0.4640000220388174, 1.0240000486373901, 0.2400000113993883, 0.0, 0.0, 0.0, 0.0, 0.0, 1.6506672854442592E9, 0.0, 2022-04-22 17:41:25.444
7.0, -490.1868172422983, 342.6926427897997, 284.13328928360716, -490.19429704220966, 0.4640000220388174, 1.0240000486373901, 0.2400000113993883, 0.0, 0.0, 0.0, 0.0, 0.0, 1.6506672854442592E9, 0.0, 2022-04-22 17:41:25.444
8.0, -490.1868172422983, 163.29338181531057, 449.8800454698503, -490.19429704220966, 0.4640000220388174, 1.0240000486373901, 0.2400000113993883, 0.0, 0.0, 0.0, 0.0, 0.0, 1.650667285455079E9, 0.0, 2022-04-22 17:41:25.455
8.0, -490.1868172422983, 330.10226958896965, 242.73820662405342, -490.19429704220966, 0.4640000220388174, 1.0240000486373901, 0.2400000113993883, 0.0, 0.0, 0.0, 0.0, 0.0, 1.650667285455079E9, 0.0, 2022-04-22 17:41:25.455
9.0, -490.1868172422983, 454.7961439616047, 85.86436308268458, -490.19429704220966, 0.4640000220388174, 1.0240000486373901, 0.2400000113993883, 0.0, 0.0, 0.0, 0.0, 0.0, 1.6506672854707196E9, 0.0, 2022-04-22 17:41:25.470
9.0, -490.1868172422983, 507.014497092925, 166.3563598790206, -490.19429704220966, 0.4640000220388174, 1.0240000486373901, 0.2400000113993883, 0.0, 0.0, 0.0, 0.0, 0.0, 1.6506672854707196E9, 0.0, 2022-04-22 17:41:25.470
10.0, -490.1868172422983, 378.1412845198065, 407.91836796700954, -490.19429704220966, 0.4640000220388174, 1.0240000486373901, 0.1600000075995922, 0.0, 0.0, 0.0, 0.0, 0.0, 1.6506672854714327E9, 0.0, 2022-04-22 17:41:25.471
10.0, -490.1868172422983, 400.7153206523508, 586.7005454488099, -490.19429704220966, 0.4640000220388174, 1.0240000486373901, 0.1600000075995922, 0.0, 0.0, 0.0, 0.0, 0.0, 1.6506672854714327E9, 0.0, 2022-04-22 17:41:25.471
11.0, -490.1868172422983, 438.4658708050847, 526.5797837111168, -490.19429704220966, 0.4640000220388174, 1.2160000577569008, 0.1600000075995922, 0.0, 0.0, 0.0, 0.0, 0.0, 1.6506672854850523E9, 0.0, 2022-04-22 17:41:25.485
11.0, -490.1868172422983, 332.1087259151973, 688.394035093952, -468.0671789543703, 0.4640000220388174, 1.2160000577569008, 0.1600000075995922, 0.0, 0.0, 0.0, 0.0, 0.0, 1.6506672854850523E9, 0.0, 2022-04-22 17:41:25.485
12.0, -490.1868172422983, 522.6042700582184, 499.6730734799057, -666.1509801074862, 0.0800000037997961, 1.2160000577569008, 0.1600000075995922, 0.0, 0.0, 0.0, 0.0, 0.0, 1.6506672855007095E9, 0.0, 2022-04-22 17:41:25.500
12.0, -490.1868172422983, 297.811973371543, 628.0825384585187, -686.488556066528, 0.0800000037997961, 1.2160000577569008, 0.1600000075995922, 0.0, 0.0, 0.0, 0.0, 0.0, 1.6506672855007095E9, 0.0, 2022-04-22 17:41:25.500
13.0, -490.1868172422983, 119.68614833196625, 442.57415090641007, -911.2228843038902, 0.0800000037997961, 1.2160000577569008, 0.1600000075995922, 0.0, 0.0, 0.0, 0.0, 0.0, 1.6506672855014744E9, 0.0, 2022-04-22 17:41:25.501
13.0, -587.7495873863809, 361.9007689622231, 230.47133476939052, -752.3238849365152, 0.0800000037997961, 1.2160000577569008, 0.1600000075995922, 0.0, 0.0, 0.0, 0.0, 0.0, 1.6506672855014744E9, 0.0, 2022-04-22 17:41:25.501
14.0, -607.0792603073642, 173.7108731418848, 78.66318571800366, -555.2274173717014, 0.0800000037997961, 1.2160000577569008, 0.1600000075995922, 0.0, 0.0, 0.0, 0.0, 0.0, 1.6506672855150876E9, 0.0, 2022-04-22 17:41:25.515
14.0, -490.18494729232043, -11.720846461132169, 233.71756793092936, -682.5579212130979, 0.0800000037997961, 1.2160000577569008, 0.1600000075995922, 0.0, 0.0, 0.0, 0.0, 0.0, 1.6506672855150876E9, 0.0, 2022-04-22 17:41:25.515
15.0, -490.18494729232043, 189.55682925414294, 406.54208478331566, -471.6593528618105, 0.0800000037997961, 1.2160000577569008, 0.1600000075995922, 0.0, 0.0, 0.0, 0.0, 0.0, 1.6506672855307307E9, 0.0, 2022-04-22 17:41:25.530
15.0, -490.18494729232043, 214.07187346369028, 352.66882592160255, -452.8738353843801, 0.0800000037997961, 1.2160000577569008, 0.1600000075995922, 0.0, 0.0, 0.0, 0.0, 0.0, 1.6506672855307307E9, 0.0, 2022-04-22 17:41:25.530
16.0, -490.18494729232043, 235.42670221067965, 400.46848725527525, -595.1022306992672, 0.0800000037997961, 1.2160000577569008, 0.1600000075995922, 0.0, 0.0, 0.0, 0.0, 0.0, 1.6506672855314176E9, 0.0, 2022-04-22 17:41:25.531
16.0, -490.18494729232043, 471.31715201586485, 582.1266478030011, -449.2891412768513, 0.0800000037997961, 1.2160000577569008, 0.1600000075995922, 0.0, 0.0, 0.0, 0.0, 0.0, 1.6506672855314176E9, 0.0, 2022-04-22 17:41:25.531
17.0, -490.18494729232043, 529.3828387279063, 556.7551665036008, -457.36919513111934, 0.0800000037997961, 1.2160000577569008, 0.1600000075995922, 0.0, 0.0, 0.0, 0.0, 0.0, 1.6506672855450416E9, 0.0, 2022-04-22 17:41:25.545
17.0, -490.18494729232043, 596.5944507815875, 679.6464090975933, -330.4033315354027, 0.0800000037997961, 1.2160000577569008, 0.1600000075995922, 0.0, 0.0, 0.0, 0.0, 0.0, 1.6506672855450416E9, 0.0, 2022-04-22 17:41:25.545
18.0, -490.18494729232043, 568.619999113027, 851.223669314757, -504.49380452279, 0.0800000037997961, 1.2160000577569008, 0.1600000075995922, 0.0, 0.0, 0.0, 0.0, 0.0, 1.6506672855607533E9, 0.0, 2022-04-22 17:41:25.560
18.0, -490.18494729232043, 581.4011072115973, 1051.983368886169, -581.5750125595368, 0.0800000037997961, 1.2160000577569008, 0.1600000075995922, 0.0, 0.0, 0.0, 0.0, 0.0, 1.6506672855607533E9, 0.0, 2022-04-22 17:41:25.560
19.0, -490.18494729232043, 723.8183674742468, 1114.987593489699, -490.1793374423869, 0.0800000037997961, 1.2160000577569008, 0.1600000075995922, 0.0, 0.0, 0.0, 0.0, 0.0, 1.6506672855614636E9, 0.0, 2022-04-22 17:41:25.561
19.0, -490.18494729232043, 490.23543594172224, 1289.5193746718578, -490.1793374423869, 0.0800000037997961, 1.2160000577569008, 0.1600000075995922, 0.0, 0.0, 0.0, 0.0, 0.0, 1.6506672855614636E9, 0.0, 2022-04-22 17:41:25.561
20.0, -490.18494729232043, 490.23543594172224, 1243.264292019885, -490.1793374423869, 0.0800000037997961, 1.2160000577569008, 0.576000027358532, 0.0, 0.0, 0.0, 0.0, 0.0, 1.650667285575095E9, 0.0, 2022-04-22 17:41:25.575
20.0, -490.18494729232043, 490.23543594172224, 1470.6445994758978, -490.1793374423869, 0.0800000037997961, 1.2160000577569008, 0.576000027358532, 0.0, 0.0, 0.0, 0.0, 0.0, 1.650667285575095E9, 0.0, 2022-04-22 17:41:25.575
21.0, -490.18494729232043, 490.23543594172224, 1470.6445994758978, -490.1793374423869, 0.0800000037997961, 1.0720000509172678, 0.576000027358532, 0.0, 0.0, 0.0, 0.0, 0.0, 1.6506672856071465E9, 0.0, 2022-04-22 17:41:25.607
21.0, -490.18494729232043, 490.23543594172224, 1470.6445994758978, -490.1793374423869, 0.0800000037997961, 1.0720000509172678, 0.576000027358532, 0.0, 0.0, 0.0, 0.0, 0.0, 1.6506672856071465E9, 0.0, 2022-04-22 17:41:25.607
22.0, -490.18494729232043, 490.23543594172224, 1470.6445994758978, -490.1793374423869, 0.288000013679266, 1.0720000509172678, 0.576000027358532, 0.0, 0.0, 0.0, 0.0, 0.0, 1.650667285607744E9, 0.0, 2022-04-22 17:41:25.607
22.0, -490.18494729232043, 490.23543594172224, 1470.6445994758978, -490.1793374423869, 0.288000013679266, 1.0720000509172678, 0.576000027358532, 0.0, 0.0, 0.0, 0.0, 0.0, 1.650667285607744E9, 0.0, 2022-04-22 17:41:25.607
23.0, -490.18494729232043, 490.23543594172224, 1470.6445994758978, -490.1793374423869, 0.288000013679266, 1.0720000509172678, 0.576000027358532, 0.0, 0.0, 0.0, 0.0, 0.0, 1.6506672856084664E9, 0.0, 2022-04-22 17:41:25.608
23.0, -490.18494729232043, 490.23543594172224, 1470.6445994758978, -490.1793374423869, 0.288000013679266, 1.0720000509172678, 0.576000027358532, 0.0, 0.0, 0.0, 0.0, 0.0, 1.6506672856084664E9, 0.0, 2022-04-22 17:41:25.608
24.0, -490.18494729232043, 490.23543594172224, 1470.6445994758978, -490.1793374423869, 0.288000013679266, 1.0720000509172678, 0.576000027358532, 0.0, 0.0, 0.0, 0.0, 0.0, 1.650667285609228E9, 0.0, 2022-04-22 17:41:25.609
24.0, -490.18494729232043, 490.23543594172224, 1470.6445994758978, -490.1793374423869, 0.288000013679266, 1.0720000509172678, 0.576000027358532, 0.0, 0.0, 0.0, 0.0, 0.0, 1.650667285609228E9, 0.0, 2022-04-22 17:41:25.609
25.0, -490.18494729232043, 490.23543594172224, 1470.6445994758978, -490.1793374423869, 0.288000013679266, 1.0720000509172678, 0.576000027358532, 0.0, 0.0, 0.0, 0.0, 0.0, 1.6506672856357205E9, 0.0, 2022-04-22 17:41:25.635
25.0, -490.18494729232043, 490.23543594172224, 1470.6445994758978, -490.1793374423869, 0.288000013679266, 1.0720000509172678, 0.576000027358532, 0.0, 0.0, 0.0, 0.0, 0.0, 1.6506672856357205E9, 0.0, 2022-04-22 17:41:25.635
26.0, -490.18494729232043, 490.23543594172224, 1470.6445994758978, -490.1793374423869, 0.288000013679266, 1.0720000509172678, 0.576000027358532, 0.0, 0.0, 0.0, 0.0, 0.0, 1.650667285636445E9, 0.0, 2022-04-22 17:41:25.636
26.0, -490.18494729232043, 490.23543594172224, 1470.6445994758978, -490.1793374423869, 0.288000013679266, 1.0720000509172678, 0.576000027358532, 0.0, 0.0, 0.0, 0.0, 0.0, 1.650667285636445E9, 0.0, 2022-04-22 17:41:25.636
27.0, -490.18494729232043, 490.23543594172224, 1470.6445994758978, -490.1793374423869, 0.288000013679266, 1.0720000509172678, 0.576000027358532, 0.0, 0.0, 0.0, 0.0, 0.0, 1.6506672856507192E9, 0.0, 2022-04-22 17:41:25.650
27.0, -490.18494729232043, 490.23543594172224, 1470.6445994758978, -490.1793374423869, 0.288000013679266, 1.0720000509172678, 0.576000027358532, 0.0, 0.0, 0.0, 0.0, 0.0, 1.6506672856507192E9, 0.0, 2022-04-22 17:41:25.650
28.0, -490.18494729232043, 490.23543594172224, 1470.6445994758978, -490.1793374423869, 0.288000013679266, 1.0720000509172678, 0.576000027358532, 0.0, 0.0, 0.0, 0.0, 0.0, 1.6506672856514287E9, 0.0, 2022-04-22 17:41:25.651
28.0, -490.18494729232043, 490.23543594172224, 1470.6445994758978, -490.1793374423869, 0.288000013679266, 1.0720000509172678, 0.576000027358532, 0.0, 0.0, 0.0, 0.0, 0.0, 1.6506672856514287E9, 0.0, 2022-04-22 17:41:25.651
29.0, -490.18494729232043, 490.23543594172224, 1470.6445994758978, -490.1793374423869, 0.288000013679266, 1.0720000509172678, 0.576000027358532, 0.0, 0.0, 0.0, 0.0, 0.0, 1.6506672856650805E9, 0.0, 2022-04-22 17:41:25.665
29.0, -490.18494729232043, 490.23543594172224, 1470.6445994758978, -490.1793374423869, 0.288000013679266, 1.0720000509172678, 0.576000027358532, 0.0, 0.0, 0.0, 0.0, 0.0, 1.6506672856650805E9, 0.0, 2022-04-22 17:41:25.665
30.0, -490.18494729232043, 490.23543594172224, 1470.6445994758978, -490.1793374423869, 0.288000013679266, 1.0720000509172678, 0.4640000220388174, 0.0, 0.0, 0.0, 0.0, 0.0, 1.6506672856806471E9, 0.0, 2022-04-22 17:41:25.680
30.0, -490.18494729232043, 490.23543594172224, 1470.6445994758978, -490.1793374423869, 0.288000013679266, 1.0720000509172678, 0.4640000220388174, 0.0, 0.0, 0.0, 0.0, 0.0, 1.6506672856806471E9, 0.0, 2022-04-22 17:41:25.680
31.0, -490.18494729232043, 490.23543594172224, 1470.6445994758978, -490.1793374423869, 0.288000013679266, 1.0240000486373901, 0.4640000220388174, 0.0, 0.0, 0.0, 0.0, 0.0, 1.6506672856814637E9, 0.0, 2022-04-22 17:41:25.681
31.0, -490.18494729232043, 490.23543594172224, 1471.4224986666813, -490.1793374423869, 0.288000013679266, 1.0240000486373901, 0.4640000220388174, 0.0, 0.0, 0.0, 0.0, 0.0, 1.6506672856814637E9, 0.0, 2022-04-22 17:41:25.681
32.0, -490.18494729232043, 490.23543594172224, 1289.6427913703956, -490.1793374423869, 0.33600001595914364, 1.0240000486373901, 0.4640000220388174, 0.0, 0.0, 0.0, 0.0, 0.0, 1.6506672856950388E9, 0.0, 2022-04-22 17:41:25.695
32.0, -490.18494729232043, 490.23543594172224, 1142.4347192645073, -490.1793374423869, 0.33600001595914364, 1.0240000486373901, 0.4640000220388174, 0.0, 0.0, 0.0, 0.0, 0.0, 1.6506672856950388E9, 0.0, 2022-04-22 17:41:25.695
33.0, -490.18494729232043, 490.23543594172224, 1227.9176125517115, -490.1793374423869, 0.33600001595914364, 1.0240000486373901, 0.4640000220388174, 0.0, 0.0, 0.0, 0.0, 0.0, 1.6506672857107048E9, 0.0, 2022-04-22 17:41:25.710
33.0, -490.18494729232043, 490.23543594172224, 1381.8705942276865, -490.1793374423869, 0.33600001595914364, 1.0240000486373901, 0.4640000220388174, 0.0, 0.0, 0.0, 0.0, 0.0, 1.6506672857107048E9, 0.0, 2022-04-22 17:41:25.710
34.0, -490.18494729232043, 490.5458476380445, 1342.8578278399073, -297.2509883781895, 0.33600001595914364, 1.0240000486373901, 0.4640000220388174, 0.0, 0.0, 0.0, 0.0, 0.0, 1.650667285711404E9, 0.0, 2022-04-22 17:41:25.711
34.0, -407.7033237195574, 681.3892024769448, 1529.2993204309605, -110.56453234003857, 0.33600001595914364, 1.0240000486373901, 0.4640000220388174, 0.0, 0.0, 0.0, 0.0, 0.0, 1.650667285711404E9, 0.0, 2022-04-22 17:41:25.711
35.0, -257.8212231453508, 487.3463632259518, 1431.0315791452304, 85.60257008578628, 0.33600001595914364, 1.0240000486373901, 0.4640000220388174, 0.0, 0.0, 0.0, 0.0, 0.0, 1.6506672857250087E9, 0.0, 2022-04-22 17:41:25.725
35.0, -311.2026851628907, 291.3438163981773, 1218.4575356137939, -111.23397443210706, 0.33600001595914364, 1.0240000486373901, 0.4640000220388174, 0.0, 0.0, 0.0, 0.0, 0.0, 1.6506672857250087E9, 0.0, 2022-04-22 17:41:25.725
36.0, -120.76510946918279, 382.6759132160805, 1296.8682780847885, -130.27567505650222, 0.33600001595914364, 1.0240000486373901, 0.4640000220388174, 0.0, 0.0, 0.0, 0.0, 0.0, 1.650667285740694E9, 0.0, 2022-04-22 17:41:25.740
36.0, -101.72153889480978, 397.7327504376881, 1084.2717951536179, -79.75336655508727, 0.33600001595914364, 1.0240000486373901, 0.4640000220388174, 0.0, 0.0, 0.0, 0.0, 0.0, 1.650667285740694E9, 0.0, 2022-04-22 17:41:25.740
37.0, 0.7461100411601365, 363.1255861977115, 1100.588978660293, 100.89502100460231, 0.33600001595914364, 1.0240000486373901, 0.4640000220388174, 0.0, 0.0, 0.0, 0.0, 0.0, 1.650667285741403E9, 0.0, 2022-04-22 17:41:25.741
37.0, -150.31966886902228, 492.5261246645823, 1252.4962350605056, 54.501562054269016, 0.33600001595914364, 1.0240000486373901, 0.4640000220388174, 0.0, 0.0, 0.0, 0.0, 0.0, 1.650667285741403E9, 0.0, 2022-04-22 17:41:25.741
38.0, 21.979392039589584, 356.2198609295301, 1409.0185280060396, 0.029919199645519257, 0.33600001595914364, 1.0240000486373901, 0.4640000220388174, 0.0, 0.0, 0.0, 0.0, 0.0, 1.6506672857550256E9, 0.0, 2022-04-22 17:41:25.755
38.0, 0.029919199645519257, 351.5094569353387, 1174.6969662322663, 0.029919199645519257, 0.33600001595914364, 1.0240000486373901, 0.4640000220388174, 0.0, 0.0, 0.0, 0.0, 0.0, 1.6506672857550256E9, 0.0, 2022-04-22 17:41:25.755
39.0, 0.029919199645519257, 308.6745127928443, 988.2124647917226, 0.029919199645519257, 0.33600001595914364, 1.0240000486373901, 0.4640000220388174, 0.0, 0.0, 0.0, 0.0, 0.0, 1.650667285770692E9, 0.0, 2022-04-22 17:41:25.770
39.0, -18.75746822776273, 186.8715810859576, 957.5808142046444, 84.54043849837035, 0.33600001595914364, 1.0240000486373901, 0.4640000220388174, 0.0, 0.0, 0.0, 0.0, 0.0, 1.650667285770692E9, 0.0, 2022-04-22 17:41:25.770
40.0, -114.19410524703562, 64.92840313073248, 1182.3394517917186, 71.5349364024587, 0.33600001595914364, 1.0240000486373901, 0.3200000151991844, 0.0, 0.0, 0.0, 0.0, 0.0, 1.65066728577139E9, 0.0, 2022-04-22 17:41:25.771
40.0, -110.22981129400432, 94.78589442698285, 1308.899536242243, -31.81532892305404, 0.33600001595914364, 1.0240000486373901, 0.3200000151991844, 0.0, 0.0, 0.0, 0.0, 0.0, 1.65066728577139E9, 0.0, 2022-04-22 17:41:25.771
41.0, -74.12294717179611, -110.71038843831047, 1243.1371354213916, 78.6482261181809, 0.33600001595914364, 1.0240000486373901, 0.3200000151991844, 0.0, 0.0, 0.0, 0.0, 0.0, 1.650667285785244E9, 0.0, 2022-04-22 17:41:25.785
41.0, -287.6338356421329, -9.908864932600409, 1395.2987050185911, 180.21455916482955, 0.33600001595914364, 1.0240000486373901, 0.3200000151991844, 0.0, 0.0, 0.0, 0.0, 0.0, 1.650667285785244E9, 0.0, 2022-04-22 17:41:25.785
42.0, -490.16437784256414, -109.99045769684017, 1592.2231371854432, 0.033659099601209164, 0.3680000174790621, 1.0240000486373901, 0.3200000151991844, 0.0, 0.0, 0.0, 0.0, 0.0, 1.65066728581709E9, 0.0, 2022-04-22 17:41:25.817
42.0, -490.16437784256414, -320.4963365527801, 1528.4036143915728, 0.033659099601209164, 0.3680000174790621, 1.0240000486373901, 0.3200000151991844, 0.0, 0.0, 0.0, 0.0, 0.0, 1.65066728581709E9, 0.0, 2022-04-22 17:41:25.817
43.0, -490.16437784256414, -442.213250560686, 1730.6723635951057, -110.56827223999426, 0.3680000174790621, 1.0240000486373901, 0.3200000151991844, 0.0, 0.0, 0.0, 0.0, 0.0, 1.6506672858178537E9, 0.0, 2022-04-22 17:41:25.817
43.0, -490.16437784256414, -242.7494263239205, 1823.2872460978106, -133.45832991879433, 0.3680000174790621, 1.0240000486373901, 0.3200000151991844, 0.0, 0.0, 0.0, 0.0, 0.0, 1.6506672858178537E9, 0.0, 2022-04-22 17:41:25.817
44.0, -490.16437784256414, -115.54794903099537, 1867.5003433739766, 84.93312799371779, 0.3680000174790621, 1.0240000486373901, 0.3200000151991844, 0.0, 0.0, 0.0, 0.0, 0.0, 1.6506672858185391E9, 0.0, 2022-04-22 17:41:25.818
44.0, -490.16437784256414, -45.38742586225271, 1915.7338331025094, -119.87688322970644, 0.3680000174790621, 1.0240000486373901, 0.3200000151991844, 0.0, 0.0, 0.0, 0.0, 0.0, 1.6506672858185391E9, 0.0, 2022-04-22 17:41:25.818
45.0, -490.16437784256414, -19.103408973664045, 1924.2757646013051, -189.33617515675724, 0.3680000174790621, 1.0240000486373901, 0.3200000151991844, 0.0, 0.0, 0.0, 0.0, 0.0, 1.650667285819267E9, 0.0, 2022-04-22 17:41:25.819
45.0, -490.16437784256414, 15.378468617796898, 1902.580604958348, -69.35644467826933, 0.3680000174790621, 1.0240000486373901, 0.3200000151991844, 0.0, 0.0, 0.0, 0.0, 0.0, 1.650667285819267E9, 0.0, 2022-04-22 17:41:25.819
46.0, -490.16437784256414, 49.7631088104099, 1930.5438369270414, -223.16918010590598, 0.3680000174790621, 1.0240000486373901, 0.3200000151991844, 0.0, 0.0, 0.0, 0.0, 0.0, 1.6506672858299756E9, 0.0, 2022-04-22 17:41:25.829
46.0, -490.16437784256414, 15.70010001398623, 1880.0589274251834, -33.6647094511427, 0.3680000174790621, 1.0240000486373901, 0.3200000151991844, 0.0, 0.0, 0.0, 0.0, 0.0, 1.6506672858299756E9, 0.0, 2022-04-22 17:41:25.829
47.0, -490.16437784256414, -23.224778724834323, 1845.7191660320386, -159.02054611593485, 0.3680000174790621, 1.0240000486373901, 0.3200000151991844, 0.0, 0.0, 0.0, 0.0, 0.0, 1.6506672858449614E9, 0.0, 2022-04-22 17:41:25.844
47.0, -490.16437784256414, -75.84517110139132, 1786.1537794377655, -244.59132705209777, 0.3680000174790621, 1.0240000486373901, 0.3200000151991844, 0.0, 0.0, 0.0, 0.0, 0.0, 1.6506672858449614E9, 0.0, 2022-04-22 17:41:25.844
48.0, -490.16437784256414, -158.73631371930242, 1737.9988276083022, -84.43385134963319, 0.3680000174790621, 1.0240000486373901, 0.3200000151991844, 0.0, 0.0, 0.0, 0.0, 0.0, 1.650667285877024E9, 0.0, 2022-04-22 17:41:25.877
48.0, -490.16437784256414, -204.8044013734907, 1689.312809985131, -108.16351656848565, 0.3680000174790621, 1.0240000486373901, 0.3200000151991844, 0.0, 0.0, 0.0, 0.0, 0.0, 1.650667285877024E9, 0.0, 2022-04-22 17:41:25.877
49.0, -490.16437784256414, -319.6473792628385, 1648.4413133193739, 115.83592132758349, 0.3680000174790621, 1.0240000486373901, 0.3200000151991844, 0.0, 0.0, 0.0, 0.0, 0.0, 1.650667285877768E9, 0.0, 2022-04-22 17:41:25.877
49.0, -490.16437784256414, -117.11683706240728, 1692.1794433011673, 0.033659099601209164, 0.3680000174790621, 1.0240000486373901, 0.3200000151991844, 0.0, 0.0, 0.0, 0.0, 0.0, 1.650667285877768E9, 0.0, 2022-04-22 17:41:25.877
50.0, -490.16437784256414, -6.393358974251896, 1493.96661559958, 0.033659099601209164, 0.3680000174790621, 1.0240000486373901, 0.288000013679266, 0.0, 0.0, 0.0, 0.0, 0.0, 1.6506672858784869E9, 0.0, 2022-04-22 17:41:25.878
50.0, -490.16437784256414, 0.03178914962336421, 1541.2426909394562, 0.033659099601209164, 0.3680000174790621, 1.0240000486373901, 0.288000013679266, 0.0, 0.0, 0.0, 0.0, 0.0, 1.6506672858784869E9, 0.0, 2022-04-22 17:41:25.878
51.0, -490.16437784256414, 0.03178914962336421, 1470.6651689256541, 0.033659099601209164, 0.3680000174790621, 1.1040000524371862, 0.288000013679266, 0.0, 0.0, 0.0, 0.0, 0.0, 1.6506672858792396E9, 0.0, 2022-04-22 17:41:25.879
51.0, -490.16437784256414, 0.03178914962336421, 1470.6651689256541, 0.033659099601209164, 0.3680000174790621, 1.1040000524371862, 0.288000013679266, 0.0, 0.0, 0.0, 0.0, 0.0, 1.6506672858792396E9, 0.0, 2022-04-22 17:41:25.879
52.0, -490.16437784256414, 0.03178914962336421, 1470.6651689256541, 0.033659099601209164, 0.25600001215934753, 1.1040000524371862, 0.288000013679266, 0.0, 0.0, 0.0, 0.0, 0.0, 1.6506672858900352E9, 0.0, 2022-04-22 17:41:25.890
52.0, -490.16437784256414, 0.03178914962336421, 1470.6651689256541, 0.033659099601209164, 0.25600001215934753, 1.1040000524371862, 0.288000013679266, 0.0, 0.0, 0.0, 0.0, 0.0, 1.6506672858900352E9, 0.0, 2022-04-22 17:41:25.890
53.0, -490.16437784256414, 0.03178914962336421, 1470.6651689256541, 0.033659099601209164, 0.25600001215934753, 1.1040000524371862, 0.288000013679266, 0.0, 0.0, 0.0, 0.0, 0.0, 1.650667285905086E9, 0.0, 2022-04-22 17:41:25.905
53.0, -490.16437784256414, 0.03178914962336421, 1470.6651689256541, 0.033659099601209164, 0.25600001215934753, 1.1040000524371862, 0.288000013679266, 0.0, 0.0, 0.0, 0.0, 0.0, 1.650667285905086E9, 0.0, 2022-04-22 17:41:25.905
54.0, -490.16437784256414, 0.03178914962336421, 1470.6651689256541, 0.033659099601209164, 0.25600001215934753, 1.1040000524371862, 0.288000013679266, 0.0, 0.0, 0.0, 0.0, 0.0, 1.6506672859206953E9, 0.0, 2022-04-22 17:41:25.920
54.0, -490.16437784256414, 0.03178914962336421, 1470.6651689256541, 0.033659099601209164, 0.25600001215934753, 1.1040000524371862, 0.288000013679266, 0.0, 0.0, 0.0, 0.0, 0.0, 1.6506672859206953E9, 0.0, 2022-04-22 17:41:25.920
55.0, -490.16437784256414, 0.03178914962336421, 1470.6651689256541, 0.033659099601209164, 0.25600001215934753, 1.1040000524371862, 0.288000013679266, 0.0, 0.0, 0.0, 0.0, 0.0, 1.6506672859214475E9, 0.0, 2022-04-22 17:41:25.921
55.0, -490.16437784256414, 0.03178914962336421, 1470.6651689256541, 0.033659099601209164, 0.25600001215934753, 1.1040000524371862, 0.288000013679266, 0.0, 0.0, 0.0, 0.0, 0.0, 1.6506672859214475E9, 0.0, 2022-04-22 17:41:25.921
56.0, -490.16437784256414, 0.03178914962336421, 1470.6651689256541, 0.033659099601209164, 0.25600001215934753, 1.1040000524371862, 0.288000013679266, 0.0, 0.0, 0.0, 0.0, 0.0, 1.65066728593503E9, 0.0, 2022-04-22 17:41:25.935
56.0, -490.16437784256414, 0.03178914962336421, 1470.6651689256541, 0.033659099601209164, 0.25600001215934753, 1.1040000524371862, 0.288000013679266, 0.0, 0.0, 0.0, 0.0, 0.0, 1.65066728593503E9, 0.0, 2022-04-22 17:41:25.935
57.0, -490.16437784256414, 0.03178914962336421, 1470.6651689256541, 0.033659099601209164, 0.25600001215934753, 1.1040000524371862, 0.288000013679266, 0.0, 0.0, 0.0, 0.0, 0.0, 1.6506672859507291E9, 0.0, 2022-04-22 17:41:25.950
57.0, -490.16437784256414, 0.03178914962336421, 1470.6651689256541, 0.033659099601209164, 0.25600001215934753, 1.1040000524371862, 0.288000013679266, 0.0, 0.0, 0.0, 0.0, 0.0, 1.6506672859507291E9, 0.0, 2022-04-22 17:41:25.950
58.0, -490.16437784256414, 0.03178914962336421, 1470.6651689256541, 0.033659099601209164, 0.25600001215934753, 1.1040000524371862, 0.288000013679266, 0.0, 0.0, 0.0, 0.0, 0.0, 1.6506672859514256E9, 0.0, 2022-04-22 17:41:25.951
58.0, -490.16437784256414, 0.03178914962336421, 1470.6651689256541, 0.033659099601209164, 0.25600001215934753, 1.1040000524371862, 0.288000013679266, 0.0, 0.0, 0.0, 0.0, 0.0, 1.6506672859514256E9, 0.0, 2022-04-22 17:41:25.951
59.0, -490.16437784256414, 0.03178914962336421, 1470.6651689256541, 0.033659099601209164, 0.25600001215934753, 1.1040000524371862, 0.288000013679266, 0.0, 0.0, 0.0, 0.0, 0.0, 1.6506672859650545E9, 0.0, 2022-04-22 17:41:25.965
59.0, -490.16437784256414, 0.03178914962336421, 1470.6651689256541, 0.033659099601209164, 0.25600001215934753, 1.1040000524371862, 0.288000013679266, 0.0, 0.0, 0.0, 0.0, 0.0, 1.6506672859650545E9, 0.0, 2022-04-22 17:41:25.965
60.0, -490.16437784256414, 0.03178914962336421, 1470.6651689256541, 0.033659099601209164, 0.25600001215934753, 1.1040000524371862, 0.06400000303983688, 0.0, 0.0, 0.0, 0.0, 0.0, 1.6506672859971108E9, 0.0, 2022-04-22 17:41:25.997
60.0, -490.16437784256414, 0.03178914962336421, 1470.6651689256541, 0.033659099601209164, 0.25600001215934753, 1.1040000524371862, 0.06400000303983688, 0.0, 0.0, 0.0, 0.0, 0.0, 1.6506672859971108E9, 0.0, 2022-04-22 17:41:25.997
61.0, -490.16437784256414, 0.03178914962336421, 1470.6651689256541, 0.033659099601209164, 0.25600001215934753, 1.0240000486373901, 0.06400000303983688, 0.0, 0.0, 0.0, 0.0, 0.0, 1.6506672859978428E9, 0.0, 2022-04-22 17:41:25.997
61.0, -490.16437784256414, 0.03178914962336421, 1470.6651689256541, 0.033659099601209164, 0.25600001215934753, 1.0240000486373901, 0.06400000303983688, 0.0, 0.0, 0.0, 0.0, 0.0, 1.6506672859978428E9, 0.0, 2022-04-22 17:41:25.997
62.0, -490.16437784256414, 0.03178914962336421, 1470.6651689256541, 0.033659099601209164, 0.1600000075995922, 1.0240000486373901, 0.06400000303983688, 0.0, 0.0, 0.0, 0.0, 0.0, 1.6506672859986646E9, 0.0, 2022-04-22 17:41:25.998
62.0, -490.16437784256414, 0.03178914962336421, 1470.6651689256541, 0.033659099601209164, 0.1600000075995922, 1.0240000486373901, 0.06400000303983688, 0.0, 0.0, 0.0, 0.0, 0.0, 1.6506672859986646E9, 0.0, 2022-04-22 17:41:25.998
63.0, -490.16437784256414, 0.03178914962336421, 1470.6651689256541, 0.033659099601209164, 0.1600000075995922, 1.0240000486373901, 0.06400000303983688, 0.0, 0.0, 0.0, 0.0, 0.0, 1.6506672859993808E9, 0.0, 2022-04-22 17:41:25.999
63.0, -490.16437784256414, 0.03178914962336421, 1470.6651689256541, 0.033659099601209164, 0.1600000075995922, 1.0240000486373901, 0.06400000303983688, 0.0, 0.0, 0.0, 0.0, 0.0, 1.6506672859993808E9, 0.0, 2022-04-22 17:41:25.999
64.0, -490.16437784256414, 0.03178914962336421, 1470.6651689256541, 0.033659099601209164, 0.1600000075995922, 1.0240000486373901, 0.06400000303983688, 0.0, 0.0, 0.0, 0.0, 0.0, 1.650667286010064E9, 0.0, 2022-04-22 17:41:26.010
64.0, -490.16437784256414, 0.03178914962336421, 1470.6651689256541, 0.033659099601209164, 0.1600000075995922, 1.0240000486373901, 0.06400000303983688, 0.0, 0.0, 0.0, 0.0, 0.0, 1.650667286010064E9, 0.0, 2022-04-22 17:41:26.010
65.0, -490.16437784256414, 0.03178914962336421, 1470.6651689256541, 0.033659099601209164, 0.1600000075995922, 1.0240000486373901, 0.06400000303983688, 0.0, 0.0, 0.0, 0.0, 0.0, 1.6506672860249827E9, 0.0, 2022-04-22 17:41:26.024
65.0, -490.16437784256414, 0.03178914962336421, 1470.6651689256541, 0.033659099601209164, 0.1600000075995922, 1.0240000486373901, 0.06400000303983688, 0.0, 0.0, 0.0, 0.0, 0.0, 1.6506672860249827E9, 0.0, 2022-04-22 17:41:26.024
66.0, -490.16437784256414, 0.03178914962336421, 1470.6651689256541, 0.033659099601209164, 0.1600000075995922, 1.0240000486373901, 0.06400000303983688, 0.0, 0.0, 0.0, 0.0, 0.0, 1.6506672860406897E9, 0.0, 2022-04-22 17:41:26.040
66.0, -490.16437784256414, 0.03178914962336421, 1470.6651689256541, 0.033659099601209164, 0.1600000075995922, 1.0240000486373901, 0.06400000303983688, 0.0, 0.0, 0.0, 0.0, 0.0, 1.6506672860406897E9, 0.0, 2022-04-22 17:41:26.040
67.0, -490.16437784256414, 0.03178914962336421, 1470.6651689256541, 0.033659099601209164, 0.1600000075995922, 1.0240000486373901, 0.06400000303983688, 0.0, 0.0, 0.0, 0.0, 0.0, 1.650667286041495E9, 0.0, 2022-04-22 17:41:26.041
67.0, -490.16437784256414, 0.03178914962336421, 1470.6651689256541, 0.033659099601209164, 0.1600000075995922, 1.0240000486373901, 0.06400000303983688, 0.0, 0.0, 0.0, 0.0, 0.0, 1.650667286041495E9, 0.0, 2022-04-22 17:41:26.041
68.0, -490.16437784256414, 0.03178914962336421, 1470.6651689256541, 0.033659099601209164, 0.1600000075995922, 1.0240000486373901, 0.06400000303983688, 0.0, 0.0, 0.0, 0.0, 0.0, 1.6506672860550246E9, 0.0, 2022-04-22 17:41:26.055
68.0, -490.16437784256414, 0.03178914962336421, 1470.6651689256541, 0.033659099601209164, 0.1600000075995922, 1.0240000486373901, 0.06400000303983688, 0.0, 0.0, 0.0, 0.0, 0.0, 1.6506672860550246E9, 0.0, 2022-04-22 17:41:26.055
69.0, -490.16437784256414, 0.03178914962336421, 1470.6651689256541, 0.033659099601209164, 0.1600000075995922, 1.0240000486373901, 0.06400000303983688, 0.0, 0.0, 0.0, 0.0, 0.0, 1.6506672860707285E9, 0.0, 2022-04-22 17:41:26.070
69.0, -490.16437784256414, 0.03178914962336421, 1470.6651689256541, 0.033659099601209164, 0.1600000075995922, 1.0240000486373901, 0.06400000303983688, 0.0, 0.0, 0.0, 0.0, 0.0, 1.6506672860707285E9, 0.0, 2022-04-22 17:41:26.070
70.0, -490.16437784256414, 0.03178914962336421, 1470.6651689256541, 0.033659099601209164, 0.1600000075995922, 1.0240000486373901, 0.04800000227987766, 0.0, 0.0, 0.0, 0.0, 0.0, 1.6506672860713937E9, 0.0, 2022-04-22 17:41:26.071
70.0, -490.16437784256414, 0.03178914962336421, 1470.6651689256541, 0.033659099601209164, 0.1600000075995922, 1.0240000486373901, 0.04800000227987766, 0.0, 0.0, 0.0, 0.0, 0.0, 1.6506672860713937E9, 0.0, 2022-04-22 17:41:26.071
71.0, -490.16437784256414, 0.03178914962336421, 1470.6651689256541, 0.033659099601209164, 0.1600000075995922, 0.9760000463575125, 0.04800000227987766, 0.0, 0.0, 0.0, 0.0, 0.0, 1.6506672860850508E9, 0.0, 2022-04-22 17:41:26.085
71.0, -490.16437784256414, 0.03178914962336421, 1470.6651689256541, 0.033659099601209164, 0.1600000075995922, 0.9760000463575125, 0.04800000227987766, 0.0, 0.0, 0.0, 0.0, 0.0, 1.6506672860850508E9, 0.0, 2022-04-22 17:41:26.085
72.0, -490.16437784256414, 0.03178914962336421, 1470.6651689256541, 0.033659099601209164, 0.3200000151991844, 0.9760000463575125, 0.04800000227987766, 0.0, 0.0, 0.0, 0.0, 0.0, 1.6506672861007843E9, 0.0, 2022-04-22 17:41:26.100
