%OpenBCI Raw EEG Data
%Number of channels = 4
%Sample Rate = 200 Hz
%Board = OpenBCI_GUI$BoardGanglionBLE
Sample Index, EXG Channel 0, EXG Channel 1, EXG Channel 2, EXG Channel 3, Accel Channel 0, Accel Channel 1, Accel Channel 2, Other, Other, Other, Other, Other, Timestamp, Other, Timestamp (Formatted)
0.0, 2145.4889770303853, 245.32621739339083, 982.237974612508, 2466.6977645247243, 0.0, 0.0, 0.0, 0.0, 0.0, 0.0, 0.0, 0.0, 1.6384950723324594E9, 0.0, 2021-12-02 19:31:12.332
1.0, 2114.6123629962094, 223.91529014706612, 964.0583209278993, 2439.4525933475234, 0.0, 0.11200000531971455, 0.0, 0.0, 0.0, 0.0, 0.0, 0.0, 1.6384950723458426E9, 0.0, 2021-12-02 19:31:12.345
1.0, 2103.6993349255063, 242.88406272232533, 976.4822685807012, 2463.515109662432, 0.0, 0.11200000531971455, 0.0, 0.0, 0.0, 0.0, 0.0, 0.0, 1.6384950723458426E9, 0.0, 2021-12-02 19:31:12.345
2.0, 2057.062782478053, 243.4824467152357, 971.1454313439317, 2470.1347325840034, 0.0800000037997961, 0.11200000531971455, 0.0, 0.0, 0.0, 0.0, 0.0, 0.0, 1.6384950723625717E9, 0.0, 2021-12-02 19:31:12.362
2.0, 2027.697088025976, 246.18265448324382, 986.1835690657608, 2472.490869556088, 0.0800000037997961, 0.11200000531971455, 0.0, 0.0, 0.0, 0.0, 0.0, 0.0, 1.6384950723625717E9, 0.0, 2021-12-02 19:31:12.362
3.0, 1996.5250218953006, 244.86620969884098, 983.8685709931888, 2478.837479780894, 0.0800000037997961, 0.11200000531971455, 0.0, 0.0, 0.0, 0.0, 0.0, 0.0, 1.638495072363339E9, 0.0, 2021-12-02 19:31:12.363
3.0, 1950.9206818356179, 247.25974567048252, 982.1070781140588, 2477.1133859013207, 0.0800000037997961, 0.11200000531971455, 0.0, 0.0, 0.0, 0.0, 0.0, 0.0, 1.638495072363339E9, 0.0, 2021-12-02 19:31:12.363
4.0, 1912.0631212959997, 251.28013812284917, 997.5491250311024, 2479.7350557702594, 0.0800000037997961, 0.11200000531971455, 0.0, 0.0, 0.0, 0.0, 0.0, 0.0, 1.6384950723756187E9, 0.0, 2021-12-02 19:31:12.375
4.0, 1879.3090774840675, 257.8623620448634, 1003.439467461314, 2499.5004270360805, 0.0800000037997961, 0.11200000531971455, 0.0, 0.0, 0.0, 0.0, 0.0, 0.0, 1.6384950723756187E9, 0.0, 2021-12-02 19:31:12.375
5.0, 1825.1927251252346, 238.72903387155384, 979.354511746671, 2491.9981877249666, 0.0800000037997961, 0.11200000531971455, 0.0, 0.0, 0.0, 0.0, 0.0, 0.0, 1.638495072391657E9, 0.0, 2021-12-02 19:31:12.391
5.0, 1773.122098042164, 260.9365598084405, 1013.6456544403918, 2507.8254443374462, 0.0800000037997961, 0.11200000531971455, 0.0, 0.0, 0.0, 0.0, 0.0, 0.0, 1.638495072391657E9, 0.0, 2021-12-02 19:31:12.391
6.0, 1737.338735266123, 254.7844243813306, 994.1233766716905, 2515.376302347984, 0.0800000037997961, 0.11200000531971455, 0.0, 0.0, 0.0, 0.0, 0.0, 0.0, 1.638495072406331E9, 0.0, 2021-12-02 19:31:12.406
6.0, 1669.9120789649896, 265.3795609558001, 995.3687633569352, 2496.4224893725477, 0.0800000037997961, 0.11200000531971455, 0.0, 0.0, 0.0, 0.0, 0.0, 0.0, 1.638495072406331E9, 0.0, 2021-12-02 19:31:12.406
7.0, 1649.3127100090496, 279.29198879096657, 1004.8494097446091, 2502.690561698284, 0.0800000037997961, 0.11200000531971455, 0.0, 0.0, 0.0, 0.0, 0.0, 0.0, 1.638495072407008E9, 0.0, 2021-12-02 19:31:12.407
7.0, 1638.5941567360424, 295.8148667952046, 1031.7392904260196, 2530.3284223708324, 0.0800000037997961, 0.11200000531971455, 0.0, 0.0, 0.0, 0.0, 0.0, 0.0, 1.638495072407008E9, 0.0, 2021-12-02 19:31:12.407
8.0, 1561.555957548786, 261.69575949944556, 1002.2426994754933, 2525.545090327505, 0.0800000037997961, 0.11200000531971455, 0.0, 0.0, 0.0, 0.0, 0.0, 0.0, 1.6384950724212475E9, 0.0, 2021-12-02 19:31:12.421
8.0, 1525.7052765735425, 279.70337778609246, 1016.0167510122992, 2522.7887840601616, 0.0800000037997961, 0.11200000531971455, 0.0, 0.0, 0.0, 0.0, 0.0, 0.0, 1.6384950724212475E9, 0.0, 2021-12-02 19:31:12.421
9.0, 1482.6739876833744, 293.92995721753687, 1031.1820453326218, 2531.4990110569634, 0.0800000037997961, 0.11200000531971455, 0.0, 0.0, 0.0, 0.0, 0.0, 0.0, 1.6384950724219732E9, 0.0, 2021-12-02 19:31:12.421
9.0, 1499.7653304808773, 296.22625579033047, 1036.8666932652704, 2540.800142246764, 0.0800000037997961, 0.11200000531971455, 0.0, 0.0, 0.0, 0.0, 0.0, 0.0, 1.6384950724219732E9, 0.0, 2021-12-02 19:31:12.421
10.0, 1461.958681828808, 305.89763707574457, 1043.819167282898, 2517.95683331741, 0.0800000037997961, 0.11200000531971455, 1.008000047877431, 0.0, 0.0, 0.0, 0.0, 0.0, 1.638495072483291E9, 0.0, 2021-12-02 19:31:12.483
10.0, 1432.8622601735406, 306.1407305728644, 1041.3657929119654, 2518.3906617122702, 0.0800000037997961, 0.11200000531971455, 1.008000047877431, 0.0, 0.0, 0.0, 0.0, 0.0, 1.638495072483291E9, 0.0, 2021-12-02 19:31:12.483
11.0, 1428.8456076211296, 320.6291030012071, 1067.687208800111, 2552.9435974028893, 0.0800000037997961, 0.03200000151991844, 1.008000047877431, 0.0, 0.0, 0.0, 0.0, 0.0, 1.6384950724840128E9, 0.0, 2021-12-02 19:31:12.484
11.0, 1415.247331382241, 306.57455896772444, 1044.5334881744348, 2529.5542630800046, 0.0800000037997961, 0.03200000151991844, 1.008000047877431, 0.0, 0.0, 0.0, 0.0, 0.0, 1.6384950724840128E9, 0.0, 2021-12-02 19:31:12.484
12.0, 1418.2542109466158, 304.1847628960386, 1039.6603985321708, 2522.519511263352, 0.04800000227987766, 0.03200000151991844, 1.008000047877431, 0.0, 0.0, 0.0, 0.0, 0.0, 1.6384950724848428E9, 0.0, 2021-12-02 19:31:12.484
12.0, 1403.7957577179186, 306.41748316958547, 1049.5337344151922, 2525.1187417325564, 0.04800000227987766, 0.03200000151991844, 1.008000047877431, 0.0, 0.0, 0.0, 0.0, 0.0, 1.6384950724848428E9, 0.0, 2021-12-02 19:31:12.484
13.0, 1421.5640224074014, 312.9623080920428, 1051.9048309870996, 2523.48440545192, 0.04800000227987766, 0.03200000151991844, 1.008000047877431, 0.0, 0.0, 0.0, 0.0, 0.0, 1.6384950724855285E9, 0.0, 2021-12-02 19:31:12.485
13.0, 1389.8683702829294, 307.1430237609893, 1046.508155351039, 2507.200881044846, 0.04800000227987766, 0.03200000151991844, 1.008000047877431, 0.0, 0.0, 0.0, 0.0, 0.0, 1.6384950724855285E9, 0.0, 2021-12-02 19:31:12.485
14.0, 1410.3443225403316, 324.6794146532193, 1058.8984439042397, 2538.290669376496, 0.04800000227987766, 0.03200000151991844, 1.008000047877431, 0.0, 0.0, 0.0, 0.0, 0.0, 1.6384950724977694E9, 0.0, 2021-12-02 19:31:12.497
14.0, 1430.685638399329, 328.55021110735834, 1071.8871164503507, 2545.7031510886736, 0.04800000227987766, 0.03200000151991844, 1.008000047877431, 0.0, 0.0, 0.0, 0.0, 0.0, 1.6384950724977694E9, 0.0, 2021-12-02 19:31:12.497
15.0, 1429.3093552156352, 335.91407412011176, 1070.7576666637324, 2533.555956032593, 0.04800000227987766, 0.03200000151991844, 1.008000047877431, 0.0, 0.0, 0.0, 0.0, 0.0, 1.6384950724984815E9, 0.0, 2021-12-02 19:31:12.498
15.0, 1423.5162501842715, 312.87629039306194, 1049.9189441106282, 2503.520819488447, 0.04800000227987766, 0.03200000151991844, 1.008000047877431, 0.0, 0.0, 0.0, 0.0, 0.0, 1.6384950724984815E9, 0.0, 2021-12-02 19:31:12.498
16.0, 1464.5055536986329, 327.35344312153757, 1063.0272934553213, 2505.525405864697, 0.04800000227987766, 0.03200000151991844, 1.008000047877431, 0.0, 0.0, 0.0, 0.0, 0.0, 1.6384950724991784E9, 0.0, 2021-12-02 19:31:12.499
16.0, 1425.51335676061, 309.2186682363972, 1056.119698237162, 2502.7952788970433, 0.04800000227987766, 0.03200000151991844, 1.008000047877431, 0.0, 0.0, 0.0, 0.0, 0.0, 1.6384950724991784E9, 0.0, 2021-12-02 19:31:12.499
17.0, 1456.4011904946528, 318.75915302336216, 1053.3970510694198, 2495.951261978131, 0.04800000227987766, 0.03200000151991844, 1.008000047877431, 0.0, 0.0, 0.0, 0.0, 0.0, 1.6384950725000162E9, 0.0, 2021-12-02 19:31:12.500
17.0, 1493.00359136099, 328.53899140749127, 1064.5120337377302, 2508.8950557247736, 0.04800000227987766, 0.03200000151991844, 1.008000047877431, 0.0, 0.0, 0.0, 0.0, 0.0, 1.6384950725000162E9, 0.0, 2021-12-02 19:31:12.500
18.0, 1518.7976813553832, 308.4893877450377, 1044.6195058734156, 2502.653162698727, 0.04800000227987766, 0.03200000151991844, 1.008000047877431, 0.0, 0.0, 0.0, 0.0, 0.0, 1.6384950725105927E9, 0.0, 2021-12-02 19:31:12.510
18.0, 1494.2190588465892, 316.45911455061287, 1048.9166509225033, 2488.879111161921, 0.04800000227987766, 0.03200000151991844, 1.008000047877431, 0.0, 0.0, 0.0, 0.0, 0.0, 1.6384950725105927E9, 0.0, 2021-12-02 19:31:12.510
19.0, 1462.1456768265925, 331.6019694712013, 1075.6045770063065, 2499.990353930276, 0.04800000227987766, 0.03200000151991844, 1.008000047877431, 0.0, 0.0, 0.0, 0.0, 0.0, 1.638495072525587E9, 0.0, 2021-12-02 19:31:12.525
19.0, 1511.5908941407688, 307.5469329562038, 1052.6864700778387, 2493.8344786032103, 0.04800000227987766, 0.03200000151991844, 1.008000047877431, 0.0, 0.0, 0.0, 0.0, 0.0, 1.638495072525587E9, 0.0, 2021-12-02 19:31:12.525
20.0, 1534.6436374676414, 310.8118656175211, 1042.8692326941527, 2492.633970717434, 0.04800000227987766, 0.03200000151991844, 0.5120000243186951, 0.0, 0.0, 0.0, 0.0, 0.0, 1.6384950725412629E9, 0.0, 2021-12-02 19:31:12.541
20.0, 1533.6263846796937, 306.447402369231, 1037.509956057649, 2483.8788649211638, 0.04800000227987766, 0.03200000151991844, 0.5120000243186951, 0.0, 0.0, 0.0, 0.0, 0.0, 1.6384950725412629E9, 0.0, 2021-12-02 19:31:12.541
21.0, 1573.2842838098295, 327.46938002016395, 1045.9808294572867, 2495.8615043791942, 0.04800000227987766, 0.04800000227987766, 0.5120000243186951, 0.0, 0.0, 0.0, 0.0, 0.0, 1.6384950725420263E9, 0.0, 2021-12-02 19:31:12.542
21.0, 1562.5171118373983, 321.01805259659886, 1044.8663392704912, 2499.5228664358146, 0.04800000227987766, 0.04800000227987766, 0.5120000243186951, 0.0, 0.0, 0.0, 0.0, 0.0, 1.6384950725420263E9, 0.0, 2021-12-02 19:31:12.542
22.0, 1572.820536215324, 325.3039779458195, 1056.736781729851, 2484.8699384094216, 0.06400000303983688, 0.04800000227987766, 0.5120000243186951, 0.0, 0.0, 0.0, 0.0, 0.0, 1.638495072555642E9, 0.0, 2021-12-02 19:31:12.555
22.0, 1563.882175321225, 323.2732122698799, 1044.9112180699594, 2495.9063831786625, 0.06400000303983688, 0.04800000227987766, 0.5120000243186951, 0.0, 0.0, 0.0, 0.0, 0.0, 1.638495072555642E9, 0.0, 2021-12-02 19:31:12.555
23.0, 1561.7018136470579, 302.0978987207636, 1028.7735497611575, 2470.718156977091, 0.06400000303983688, 0.04800000227987766, 0.5120000243186951, 0.0, 0.0, 0.0, 0.0, 0.0, 1.6384950725713663E9, 0.0, 2021-12-02 19:31:12.571
23.0, 1595.469370346982, 319.6716886125505, 1039.4472242346965, 2475.1873374241404, 0.06400000303983688, 0.04800000227987766, 0.5120000243186951, 0.0, 0.0, 0.0, 0.0, 0.0, 1.6384950725713663E9, 0.0, 2021-12-02 19:31:12.571
24.0, 1606.240282219369, 327.66385481785983, 1057.8437921167351, 2497.1742092636414, 0.06400000303983688, 0.04800000227987766, 0.5120000243186951, 0.0, 0.0, 0.0, 0.0, 0.0, 1.6384950725719724E9, 0.0, 2021-12-02 19:31:12.571
24.0, 1590.4130256068893, 310.2247013244778, 1049.5374743151478, 2461.8209349825047, 0.06400000303983688, 0.04800000227987766, 0.5120000243186951, 0.0, 0.0, 0.0, 0.0, 0.0, 1.6384950725719724E9, 0.0, 2021-12-02 19:31:12.571
25.0, 1589.1601591217332, 317.3679102398455, 1035.0715412865393, 2474.6338322306983, 0.06400000303983688, 0.04800000227987766, 0.5120000243186951, 0.0, 0.0, 0.0, 0.0, 0.0, 1.6384950725857005E9, 0.0, 2021-12-02 19:31:12.585
25.0, 1570.4270002436824, 304.01646739803255, 1044.4549502753653, 2482.2407887405716, 0.06400000303983688, 0.04800000227987766, 0.5120000243186951, 0.0, 0.0, 0.0, 0.0, 0.0, 1.6384950725857005E9, 0.0, 2021-12-02 19:31:12.585
26.0, 1616.6297242962755, 328.13134231232107, 1058.6703100069426, 2474.446837232914, 0.06400000303983688, 0.04800000227987766, 0.5120000243186951, 0.0, 0.0, 0.0, 0.0, 0.0, 1.6384950726012452E9, 0.0, 2021-12-02 19:31:12.601
26.0, 1600.5631140866317, 305.4862480806187, 1037.9363046525978, 2458.5036437218077, 0.06400000303983688, 0.04800000227987766, 0.5120000243186951, 0.0, 0.0, 0.0, 0.0, 0.0, 1.6384950726012452E9, 0.0, 2021-12-02 19:31:12.601
27.0, 1645.3596357558854, 323.7481795642525, 1047.1177590438165, 2462.651192772668, 0.06400000303983688, 0.04800000227987766, 0.5120000243186951, 0.0, 0.0, 0.0, 0.0, 0.0, 1.638495072602014E9, 0.0, 2021-12-02 19:31:12.602
27.0, 1619.1765961661004, 332.8585758563131, 1046.280021453742, 2468.451777603943, 0.06400000303983688, 0.04800000227987766, 0.5120000243186951, 0.0, 0.0, 0.0, 0.0, 0.0, 1.638495072602014E9, 0.0, 2021-12-02 19:31:12.602
28.0, 1577.4056535609998, 258.011958043091, 1053.6588440663181, 2468.9604039979167, 0.06400000303983688, 0.04800000227987766, 0.5120000243186951, 0.0, 0.0, 0.0, 0.0, 0.0, 1.6384950726156378E9, 0.0, 2021-12-02 19:31:12.615
28.0, 1626.3759035808034, 307.02334696240723, 1024.20713191526, 2452.4038668940775, 0.06400000303983688, 0.04800000227987766, 0.5120000243186951, 0.0, 0.0, 0.0, 0.0, 0.0, 1.6384950726156378E9, 0.0, 2021-12-02 19:31:12.615
29.0, 1638.6913941348903, 297.2622080780566, 1056.1309179370292, 2452.134594097268, 0.06400000303983688, 0.04800000227987766, 0.5120000243186951, 0.0, 0.0, 0.0, 0.0, 0.0, 1.6384950726312947E9, 0.0, 2021-12-02 19:31:12.631
29.0, 1610.533687368501, 267.937652525492, 1025.7330110971816, 2444.292023890186, 0.06400000303983688, 0.04800000227987766, 0.5120000243186951, 0.0, 0.0, 0.0, 0.0, 0.0, 1.6384950726312947E9, 0.0, 2021-12-02 19:31:12.631
30.0, 1680.4024983406998, 316.2347205532715, 1027.9021530714817, 2450.8256291127764, 0.06400000303983688, 0.04800000227987766, 0.7680000364780426, 0.0, 0.0, 0.0, 0.0, 0.0, 1.638495072631987E9, 0.0, 2021-12-02 19:31:12.631
30.0, 1666.8266615015455, 294.41988411173224, 1038.306554748211, 2451.431492905598, 0.06400000303983688, 0.04800000227987766, 0.7680000364780426, 0.0, 0.0, 0.0, 0.0, 0.0, 1.638495072631987E9, 0.0, 2021-12-02 19:31:12.631
31.0, 1656.1866461276077, 309.1550899371505, 1045.3824454643764, 2452.781596789602, 0.06400000303983688, 0.04800000227987766, 0.7680000364780426, 0.0, 0.0, 0.0, 0.0, 0.0, 1.6384950726456175E9, 0.0, 2021-12-02 19:31:12.645
31.0, 1642.2966576921754, 276.59178102295846, 1043.927624381613, 2460.7363639953546, 0.06400000303983688, 0.04800000227987766, 0.7680000364780426, 0.0, 0.0, 0.0, 0.0, 0.0, 1.6384950726456175E9, 0.0, 2021-12-02 19:31:12.645
32.0, 1666.2020982089452, 295.27258130162954, 1032.9846771112643, 2438.1585879628547, 0.06400000303983688, 0.04800000227987766, 0.7680000364780426, 0.0, 0.0, 0.0, 0.0, 0.0, 1.638495072661262E9, 0.0, 2021-12-02 19:31:12.661
32.0, 1676.7523559839465, 321.91936848592013, 1060.1438305894844, 2461.514263186138, 0.06400000303983688, 0.04800000227987766, 0.7680000364780426, 0.0, 0.0, 0.0, 0.0, 0.0, 1.638495072661262E9, 0.0, 2021-12-02 19:31:12.661
33.0, 1709.0837911008857, 277.92692530713975, 1030.2919491431676, 2449.939272823278, 0.06400000303983688, 0.04800000227987766, 0.7680000364780426, 0.0, 0.0, 0.0, 0.0, 0.0, 1.6384950726620471E9, 0.0, 2021-12-02 19:31:12.662
33.0, 1731.9644990297966, 292.445216935128, 1029.6150272511877, 2440.5147249349393, 0.06400000303983688, 0.04800000227987766, 0.7680000364780426, 0.0, 0.0, 0.0, 0.0, 0.0, 1.6384950726620471E9, 0.0, 2021-12-02 19:31:12.662
34.0, 1727.6710938806646, 281.7565828617662, 1035.471710581798, 2436.1203424870037, 0.06400000303983688, 0.04800000227987766, 0.7680000364780426, 0.0, 0.0, 0.0, 0.0, 0.0, 1.638495072675652E9, 0.0, 2021-12-02 19:31:12.675
34.0, 1746.4042527587153, 286.6184528041631, 1039.1667317380197, 2456.304582547862, 0.06400000303983688, 0.04800000227987766, 0.7680000364780426, 0.0, 0.0, 0.0, 0.0, 0.0, 1.638495072675652E9, 0.0, 2021-12-02 19:31:12.675
35.0, 1751.2773424009793, 291.12129235081375, 1034.4170587942936, 2449.984151622746, 0.06400000303983688, 0.04800000227987766, 0.7680000364780426, 0.0, 0.0, 0.0, 0.0, 0.0, 1.6384950726912966E9, 0.0, 2021-12-02 19:31:12.691
35.0, 1748.0647683390416, 295.01452820468694, 1035.4679706818424, 2458.488684121985, 0.06400000303983688, 0.04800000227987766, 0.7680000364780426, 0.0, 0.0, 0.0, 0.0, 0.0, 1.6384950726912966E9, 0.0, 2021-12-02 19:31:12.691
36.0, 1797.4538871538825, 299.60338545031846, 1037.704430855345, 2468.3844594047405, 0.06400000303983688, 0.04800000227987766, 0.7680000364780426, 0.0, 0.0, 0.0, 0.0, 0.0, 1.6384950726920118E9, 0.0, 2021-12-02 19:31:12.692
36.0, 1804.2006666739471, 277.2350438153371, 1018.720698680263, 2465.4299384397455, 0.06400000303983688, 0.04800000227987766, 0.7680000364780426, 0.0, 0.0, 0.0, 0.0, 0.0, 1.6384950726920118E9, 0.0, 2021-12-02 19:31:12.692
37.0, 1774.341305427719, 297.56513997446746, 1034.9593442878686, 2465.5608349381946, 0.06400000303983688, 0.04800000227987766, 0.7680000364780426, 0.0, 0.0, 0.0, 0.0, 0.0, 1.6384950727056313E9, 0.0, 2021-12-02 19:31:12.705
37.0, 1781.9108629380353, 275.4959903359413, 1015.2874705209397, 2467.1054136198945, 0.06400000303983688, 0.04800000227987766, 0.7680000364780426, 0.0, 0.0, 0.0, 0.0, 0.0, 1.6384950727056313E9, 0.0, 2021-12-02 19:31:12.705
38.0, 1771.0614131665789, 273.55498225893825, 1032.457351217512, 2419.0177799896337, 0.06400000303983688, 0.04800000227987766, 0.7680000364780426, 0.0, 0.0, 0.0, 0.0, 0.0, 1.6384950727213411E9, 0.0, 2021-12-02 19:31:12.721
38.0, 1735.6445605861954, 273.26700996235013, 1006.8240769212134, 2430.1776414574124, 0.06400000303983688, 0.04800000227987766, 0.7680000364780426, 0.0, 0.0, 0.0, 0.0, 0.0, 1.6384950727213411E9, 0.0, 2021-12-02 19:31:12.721
39.0, 1745.4991969694383, 282.22033045627177, 1017.0639229998924, 2430.577810752671, 0.06400000303983688, 0.04800000227987766, 0.7680000364780426, 0.0, 0.0, 0.0, 0.0, 0.0, 1.638495072721983E9, 0.0, 2021-12-02 19:31:12.721
39.0, 1778.0625058836304, 302.57286601513624, 1035.015442787204, 2463.133639866952, 0.06400000303983688, 0.04800000227987766, 0.7680000364780426, 0.0, 0.0, 0.0, 0.0, 0.0, 1.638495072721983E9, 0.0, 2021-12-02 19:31:12.721
40.0, 1765.3206667345949, 293.6606844207272, 1037.7343500549905, 2442.9980185055174, 0.06400000303983688, 0.04800000227987766, 0.8800000417977571, 0.0, 0.0, 0.0, 0.0, 0.0, 1.6384950727356224E9, 0.0, 2021-12-02 19:31:12.735
40.0, 1781.3049991452135, 294.8537125065923, 1053.6102253668942, 2453.8175490773283, 0.06400000303983688, 0.04800000227987766, 0.8800000417977571, 0.0, 0.0, 0.0, 0.0, 0.0, 1.6384950727356224E9, 0.0, 2021-12-02 19:31:12.735
41.0, 1782.3072923333384, 303.4854016043246, 1038.474850246217, 2444.968945782166, 0.06400000303983688, 0.06400000303983688, 0.8800000417977571, 0.0, 0.0, 0.0, 0.0, 0.0, 1.6384950727517588E9, 0.0, 2021-12-02 19:31:12.751
41.0, 1788.691301557701, 276.7226775214076, 1019.0872088759206, 2421.7703463570215, 0.06400000303983688, 0.06400000303983688, 0.8800000417977571, 0.0, 0.0, 0.0, 0.0, 0.0, 1.6384950727517588E9, 0.0, 2021-12-02 19:31:12.751
42.0, 1826.886899805162, 324.73551315255463, 1061.1162045779638, 2440.709199732635, 0.0800000037997961, 0.06400000303983688, 0.8800000417977571, 0.0, 0.0, 0.0, 0.0, 0.0, 1.6384950727662394E9, 0.0, 2021-12-02 19:31:12.766
42.0, 1805.6554877567105, 287.3178140958771, 1030.5088633405976, 2437.059057375882, 0.0800000037997961, 0.06400000303983688, 0.8800000417977571, 0.0, 0.0, 0.0, 0.0, 0.0, 1.6384950727662394E9, 0.0, 2021-12-02 19:31:12.766
43.0, 1818.9059532997198, 280.11102688126266, 1013.9186671371572, 2441.143028127495, 0.0800000037997961, 0.06400000303983688, 0.8800000417977571, 0.0, 0.0, 0.0, 0.0, 0.0, 1.6384950727669916E9, 0.0, 2021-12-02 19:31:12.766
43.0, 1830.2004511659034, 296.93309688195586, 1039.9072319292463, 2443.603882298339, 0.0800000037997961, 0.06400000303983688, 0.8800000417977571, 0.0, 0.0, 0.0, 0.0, 0.0, 1.6384950727669916E9, 0.0, 2021-12-02 19:31:12.766
44.0, 1843.9371037031524, 309.0653323382139, 1046.0331880566664, 2456.001650651451, 0.0800000037997961, 0.06400000303983688, 0.8800000417977571, 0.0, 0.0, 0.0, 0.0, 0.0, 1.6384950727812395E9, 0.0, 2021-12-02 19:31:12.781
44.0, 1809.5711630103178, 270.91835279017687, 1018.0288171884604, 2430.7573259505443, 0.0800000037997961, 0.06400000303983688, 0.8800000417977571, 0.0, 0.0, 0.0, 0.0, 0.0, 1.6384950727812395E9, 0.0, 2021-12-02 19:31:12.781
45.0, 1805.5208513583057, 280.82160787284374, 1020.325115761254, 2436.7598653794266, 0.0800000037997961, 0.06400000303983688, 0.8800000417977571, 0.0, 0.0, 0.0, 0.0, 0.0, 1.638495072781983E9, 0.0, 2021-12-02 19:31:12.781
45.0, 1846.0351875782944, 293.8888183180243, 1030.1610526447184, 2452.44500579359, 0.0800000037997961, 0.06400000303983688, 0.8800000417977571, 0.0, 0.0, 0.0, 0.0, 0.0, 1.638495072781983E9, 0.0, 2021-12-02 19:31:12.781
46.0, 1841.1396585362963, 289.38597877137363, 1031.8253081250004, 2455.9866910516284, 0.0800000037997961, 0.06400000303983688, 0.8800000417977571, 0.0, 0.0, 0.0, 0.0, 0.0, 1.6384950727956417E9, 0.0, 2021-12-02 19:31:12.795
46.0, 1819.3547412944026, 266.4192531434819, 1011.8131034621038, 2420.8503309679218, 0.0800000037997961, 0.06400000303983688, 0.8800000417977571, 0.0, 0.0, 0.0, 0.0, 0.0, 1.6384950727956417E9, 0.0, 2021-12-02 19:31:12.795
47.0, 1815.8504550359212, 277.104147316888, 1013.9972050362267, 2425.585044311825, 0.0800000037997961, 0.06400000303983688, 0.8800000417977571, 0.0, 0.0, 0.0, 0.0, 0.0, 1.638495072811386E9, 0.0, 2021-12-02 19:31:12.811
47.0, 1834.7481695120223, 290.8146205544472, 1037.8315874538384, 2455.8632743530907, 0.0800000037997961, 0.06400000303983688, 0.8800000417977571, 0.0, 0.0, 0.0, 0.0, 0.0, 1.638495072811386E9, 0.0, 2021-12-02 19:31:12.811
48.0, 1840.7993276403286, 272.3469945732504, 1015.2201523217373, 2417.6714160055853, 0.0800000037997961, 0.06400000303983688, 0.8800000417977571, 0.0, 0.0, 0.0, 0.0, 0.0, 1.6384950728119545E9, 0.0, 2021-12-02 19:31:12.811
48.0, 1824.6055608321913, 257.0208845548332, 997.7211604290642, 2430.618949652184, 0.0800000037997961, 0.06400000303983688, 0.8800000417977571, 0.0, 0.0, 0.0, 0.0, 0.0, 1.6384950728119545E9, 0.0, 2021-12-02 19:31:12.811
49.0, 1842.579520019237, 267.5000842306763, 1016.1476475107484, 2439.792924243491, 0.0800000037997961, 0.06400000303983688, 0.8800000417977571, 0.0, 0.0, 0.0, 0.0, 0.0, 1.6384950728255956E9, 0.0, 2021-12-02 19:31:12.825
49.0, 1832.6388659370132, 263.96587877254933, 1008.4284940022044, 2422.7838592450134, 0.0800000037997961, 0.06400000303983688, 0.8800000417977571, 0.0, 0.0, 0.0, 0.0, 0.0, 1.6384950728255956E9, 0.0, 2021-12-02 19:31:12.825
50.0, 1829.385152975563, 255.8241165690124, 1004.5988364475779, 2420.9999269661494, 0.0800000037997961, 0.06400000303983688, 0.944000044837594, 0.0, 0.0, 0.0, 0.0, 0.0, 1.6384950728412304E9, 0.0, 2021-12-02 19:31:12.841
50.0, 1817.9709783107974, 265.2337048575282, 1009.0418375949375, 2433.1920008216985, 0.0800000037997961, 0.06400000303983688, 0.944000044837594, 0.0, 0.0, 0.0, 0.0, 0.0, 1.6384950728412304E9, 0.0, 2021-12-02 19:31:12.841
51.0, 1823.715464642737, 271.3895801845938, 1010.6462546759285, 2428.588183976244, 0.0800000037997961, 0.06400000303983688, 0.944000044837594, 0.0, 0.0, 0.0, 0.0, 0.0, 1.6384950728419557E9, 0.0, 2021-12-02 19:31:12.841
51.0, 1829.9311783690937, 254.6049091834575, 1005.9900792310946, 2432.668414827902, 0.0800000037997961, 0.06400000303983688, 0.944000044837594, 0.0, 0.0, 0.0, 0.0, 0.0, 1.6384950728419557E9, 0.0, 2021-12-02 19:31:12.841
52.0, 1823.5546489446424, 270.349887996912, 1010.074049982708, 2432.2645056326874, 0.0800000037997961, 0.06400000303983688, 0.944000044837594, 0.0, 0.0, 0.0, 0.0, 0.0, 1.6384950728557177E9, 0.0, 2021-12-02 19:31:12.855
52.0, 1861.3164187972434, 284.135159233585, 1015.23511192156, 2438.3642824604176, 0.0800000037997961, 0.06400000303983688, 0.944000044837594, 0.0, 0.0, 0.0, 0.0, 0.0, 1.6384950728557177E9, 0.0, 2021-12-02 19:31:12.855
53.0, 1854.2554876809008, 307.2926197592169, 1035.1126801860519, 2452.190692596603, 0.0800000037997961, 0.06400000303983688, 0.944000044837594, 0.0, 0.0, 0.0, 0.0, 0.0, 1.6384950728712473E9, 0.0, 2021-12-02 19:31:12.871
53.0, 1852.419196802657, 307.43099605757743, 1037.6221530563198, 2425.47658721311, 0.0800000037997961, 0.06400000303983688, 0.944000044837594, 0.0, 0.0, 0.0, 0.0, 0.0, 1.6384950728712473E9, 0.0, 2021-12-02 19:31:12.871
54.0, 1852.2957801041193, 305.91259667556733, 1047.618905637879, 2453.0284301866777, 0.0800000037997961, 0.06400000303983688, 0.944000044837594, 0.0, 0.0, 0.0, 0.0, 0.0, 1.6384950728720489E9, 0.0, 2021-12-02 19:31:12.872
54.0, 1868.1866150158457, 314.31241197604686, 1045.2590287658386, 2439.037464452442, 0.0800000037997961, 0.06400000303983688, 0.944000044837594, 0.0, 0.0, 0.0, 0.0, 0.0, 1.6384950728720489E9, 0.0, 2021-12-02 19:31:12.872
55.0, 1818.9022133997642, 276.71145782154053, 1016.7647310034372, 2435.6154559929855, 0.0800000037997961, 0.06400000303983688, 0.944000044837594, 0.0, 0.0, 0.0, 0.0, 0.0, 1.6384950729020169E9, 0.0, 2021-12-02 19:31:12.902
55.0, 1821.5538024683483, 258.87587493285537, 1011.1623608698137, 2421.669369058218, 0.0800000037997961, 0.06400000303983688, 0.944000044837594, 0.0, 0.0, 0.0, 0.0, 0.0, 1.6384950729020169E9, 0.0, 2021-12-02 19:31:12.902
56.0, 1848.1370113533922, 303.5601996034384, 1042.951510493178, 2431.269692244474, 0.0800000037997961, 0.06400000303983688, 0.944000044837594, 0.0, 0.0, 0.0, 0.0, 0.0, 1.6384950729026897E9, 0.0, 2021-12-02 19:31:12.902
56.0, 1829.987276868429, 285.0589145226404, 1022.266123838257, 2421.5646518594585, 0.0800000037997961, 0.06400000303983688, 0.944000044837594, 0.0, 0.0, 0.0, 0.0, 0.0, 1.6384950729026897E9, 0.0, 2021-12-02 19:31:12.902
57.0, 1838.6189659661613, 309.8581911288202, 1044.0809602797963, 2425.959034307394, 0.0800000037997961, 0.06400000303983688, 0.944000044837594, 0.0, 0.0, 0.0, 0.0, 0.0, 1.6384950729035585E9, 0.0, 2021-12-02 19:31:12.903
57.0, 1837.8859455748461, 297.5202611749992, 1033.2763893078081, 2423.0493921418674, 0.0800000037997961, 0.06400000303983688, 0.944000044837594, 0.0, 0.0, 0.0, 0.0, 0.0, 1.6384950729035585E9, 0.0, 2021-12-02 19:31:12.903
58.0, 1801.0217517116107, 253.6026159953326, 989.4634613269009, 2386.7087842724286, 0.0800000037997961, 0.06400000303983688, 0.944000044837594, 0.0, 0.0, 0.0, 0.0, 0.0, 1.638495072915615E9, 0.0, 2021-12-02 19:31:12.915
58.0, 1830.6454992606305, 286.3678795071319, 1019.371441272553, 2371.6070682513528, 0.0800000037997961, 0.06400000303983688, 0.944000044837594, 0.0, 0.0, 0.0, 0.0, 0.0, 1.638495072915615E9, 0.0, 2021-12-02 19:31:12.915
59.0, 1807.3646220364608, 271.1689260872081, 1024.9027533070184, 2400.969022803474, 0.0800000037997961, 0.06400000303983688, 0.944000044837594, 0.0, 0.0, 0.0, 0.0, 0.0, 1.638495072931312E9, 0.0, 2021-12-02 19:31:12.931
59.0, 1827.3319478998892, 272.48537087161094, 1018.0549964881502, 2422.282712650951, 0.0800000037997961, 0.06400000303983688, 0.944000044837594, 0.0, 0.0, 0.0, 0.0, 0.0, 1.638495072931312E9, 0.0, 2021-12-02 19:31:12.931
60.0, 1825.465737822, 290.9155978532508, 1022.0043308413588, 2407.229615329299, 0.0800000037997961, 0.06400000303983688, 0.9760000463575125, 0.0, 0.0, 0.0, 0.0, 0.0, 1.638495072932011E9, 0.0, 2021-12-02 19:31:12.932
60.0, 1830.9222518573515, 289.0531276753172, 1027.8610141719691, 2402.090992790181, 0.0800000037997961, 0.06400000303983688, 0.9760000463575125, 0.0, 0.0, 0.0, 0.0, 0.0, 1.638495072932011E9, 0.0, 2021-12-02 19:31:12.932
61.0, 1840.4253376447596, 294.5171215105802, 1037.7081707553007, 2406.90798393311, 0.0800000037997961, 0.06400000303983688, 0.9760000463575125, 0.0, 0.0, 0.0, 0.0, 0.0, 1.6384950729457073E9, 0.0, 2021-12-02 19:31:12.945
61.0, 1855.7065688637085, 296.60398568585515, 1029.6150272511877, 2401.6384648955427, 0.0800000037997961, 0.06400000303983688, 0.9760000463575125, 0.0, 0.0, 0.0, 0.0, 0.0, 1.6384950729457073E9, 0.0, 2021-12-02 19:31:12.945
62.0, 1847.1272383653559, 299.83525924757123, 1032.9921569111757, 2392.228876607027, 0.0800000037997961, 0.06400000303983688, 0.9760000463575125, 0.0, 0.0, 0.0, 0.0, 0.0, 1.63849507296128E9, 0.0, 2021-12-02 19:31:12.961
62.0, 1859.9663149132393, 301.57431272696704, 1044.0622607800178, 2404.1853367653675, 0.0800000037997961, 0.06400000303983688, 0.9760000463575125, 0.0, 0.0, 0.0, 0.0, 0.0, 1.63849507296128E9, 0.0, 2021-12-02 19:31:12.961
63.0, 1880.4946257700212, 308.9568752394989, 1050.356512405444, 2404.0880993665196, 0.0800000037997961, 0.06400000303983688, 0.9760000463575125, 0.0, 0.0, 0.0, 0.0, 0.0, 1.638495072962008E9, 0.0, 2021-12-02 19:31:12.962
63.0, 1865.2994122500531, 293.9075178178027, 1041.1077398150228, 2396.1146326609887, 0.0800000037997961, 0.06400000303983688, 0.9760000463575125, 0.0, 0.0, 0.0, 0.0, 0.0, 1.638495072962008E9, 0.0, 2021-12-02 19:31:12.962
64.0, 1845.0927327894606, 302.89823731128126, 1047.6600445373915, 2398.6353252311237, 0.0800000037997961, 0.06400000303983688, 0.9760000463575125, 0.0, 0.0, 0.0, 0.0, 0.0, 1.6384950729755907E9, 0.0, 2021-12-02 19:31:12.975
64.0, 1869.3759032017551, 316.2197609534487, 1058.3785978103988, 2404.4770489619114, 0.0800000037997961, 0.06400000303983688, 0.9760000463575125, 0.0, 0.0, 0.0, 0.0, 0.0, 1.6384950729755907E9, 0.0, 2021-12-02 19:31:12.975
65.0, 1859.7606204156764, 301.3611384294927, 1044.881298870314, 2373.581735427957, 0.0800000037997961, 0.06400000303983688, 0.9760000463575125, 0.0, 0.0, 0.0, 0.0, 0.0, 1.6384950729912777E9, 0.0, 2021-12-02 19:31:12.991
65.0, 1871.70586087415, 309.13265053741634, 1054.0253542619757, 2398.1304387371056, 0.0800000037997961, 0.06400000303983688, 0.9760000463575125, 0.0, 0.0, 0.0, 0.0, 0.0, 1.6384950729912777E9, 0.0, 2021-12-02 19:31:12.991
66.0, 1886.0558570041321, 313.32133848778903, 1042.6036997972988, 2399.40200472204, 0.0800000037997961, 0.06400000303983688, 0.9760000463575125, 0.0, 0.0, 0.0, 0.0, 0.0, 1.6384950729919577E9, 0.0, 2021-12-02 19:31:12.991
66.0, 1867.868723519612, 296.2935739895329, 1043.228263089899, 2385.3250212888233, 0.0800000037997961, 0.06400000303983688, 0.9760000463575125, 0.0, 0.0, 0.0, 0.0, 0.0, 1.6384950729919577E9, 0.0, 2021-12-02 19:31:12.991
67.0, 1851.9666689080186, 299.259314654395, 1038.8413604418747, 2365.3838747250848, 0.0800000037997961, 0.06400000303983688, 0.9760000463575125, 0.0, 0.0, 0.0, 0.0, 0.0, 1.6384950730057015E9, 0.0, 2021-12-02 19:31:13.005
67.0, 1860.2056685104035, 307.4384758574888, 1048.5202215272002, 2370.5711159636267, 0.0800000037997961, 0.06400000303983688, 0.9760000463575125, 0.0, 0.0, 0.0, 0.0, 0.0, 1.6384950730057015E9, 0.0, 2021-12-02 19:31:13.005
68.0, 1850.6277847238816, 308.6576832430437, 1053.441929868888, 2366.154294115957, 0.0800000037997961, 0.06400000303983688, 0.9760000463575125, 0.0, 0.0, 0.0, 0.0, 0.0, 1.638495073021246E9, 0.0, 2021-12-02 19:31:13.021
68.0, 1884.6758339204825, 336.70319301076233, 1069.6020375774242, 2374.0230436227284, 0.0800000037997961, 0.06400000303983688, 0.9760000463575125, 0.0, 0.0, 0.0, 0.0, 0.0, 1.638495073021246E9, 0.0, 2021-12-02 19:31:13.021
69.0, 1885.06852341583, 338.13557469379157, 1067.2085016057827, 2366.0533168171532, 0.0800000037997961, 0.06400000303983688, 0.9760000463575125, 0.0, 0.0, 0.0, 0.0, 0.0, 1.6384950730221183E9, 0.0, 2021-12-02 19:31:13.022
69.0, 1871.1560955806635, 333.2325658518821, 1065.4881476261653, 2364.5087381354533, 0.0800000037997961, 0.06400000303983688, 0.9760000463575125, 0.0, 0.0, 0.0, 0.0, 0.0, 1.6384950730221183E9, 0.0, 2021-12-02 19:31:13.022
70.0, 1830.5033830623142, 311.114797513932, 1048.800714023877, 2343.4718008846976, 0.0800000037997961, 0.06400000303983688, 0.9920000471174717, 0.0, 0.0, 0.0, 0.0, 0.0, 1.638495073035575E9, 0.0, 2021-12-02 19:31:13.035
70.0, 1837.657811677549, 311.922615904361, 1053.625184966717, 2346.0298924543895, 0.0800000037997961, 0.06400000303983688, 0.9920000471174717, 0.0, 0.0, 0.0, 0.0, 0.0, 1.638495073035575E9, 0.0, 2021-12-02 19:31:13.035
71.0, 1848.4324634498917, 337.5371907008812, 1060.764653982129, 2362.896841254551, 0.0800000037997961, 0.06400000303983688, 0.9920000471174717, 0.0, 0.0, 0.0, 0.0, 0.0, 1.6384950730512931E9, 0.0, 2021-12-02 19:31:13.051
71.0, 1854.4050836791284, 336.6695339111611, 1069.4374819793738, 2349.66507521132, 0.0800000037997961, 0.06400000303983688, 0.9920000471174717, 0.0, 0.0, 0.0, 0.0, 0.0, 1.6384950730512931E9, 0.0, 2021-12-02 19:31:13.051
72.0, 1834.920204909984, 336.3927813144401, 1072.728593940381, 2340.4686612202786, 0.0800000037997961, 0.06400000303983688, 0.9920000471174717, 0.0, 0.0, 0.0, 0.0, 0.0, 1.6384950730520692E9, 0.0, 2021-12-02 19:31:13.052
72.0, 1821.1124942735769, 333.10914915334433, 1068.457628190983, 2339.7692999285646, 0.0800000037997961, 0.06400000303983688, 0.9920000471174717, 0.0, 0.0, 0.0, 0.0, 0.0, 1.6384950730520692E9, 0.0, 2021-12-02 19:31:13.052
73.0, 1823.8688005409203, 334.3059171391651, 1071.5542653542943, 2336.134117171634, 0.0800000037997961, 0.06400000303983688, 0.9920000471174717, 0.0, 0.0, 0.0, 0.0, 0.0, 1.6384950730656188E9, 0.0, 2021-12-02 19:31:13.065
73.0, 1824.8449144293554, 316.4778140503913, 1050.4088710048236, 2314.521235327702, 0.0800000037997961, 0.06400000303983688, 0.9920000471174717, 0.0, 0.0, 0.0, 0.0, 0.0, 1.6384950730656188E9, 0.0, 2021-12-02 19:31:13.065
74.0, 1843.2340025114827, 347.8780140783638, 1081.7791518331505, 2339.1073376364075, 0.0800000037997961, 0.06400000303983688, 0.9920000471174717, 0.0, 0.0, 0.0, 0.0, 0.0, 1.6384950730813336E9, 0.0, 2021-12-02 19:31:13.081
74.0, 1832.0217824443243, 336.3890414144844, 1071.823538151104, 2343.0529320896603, 0.0800000037997961, 0.06400000303983688, 0.9920000471174717, 0.0, 0.0, 0.0, 0.0, 0.0, 1.6384950730813336E9, 0.0, 2021-12-02 19:31:13.081
75.0, 1837.814887475688, 327.8134508160874, 1063.1843692534603, 2329.450915950816, 0.0800000037997961, 0.06400000303983688, 0.9920000471174717, 0.0, 0.0, 0.0, 0.0, 0.0, 1.638495073082E9, 0.0, 2021-12-02 19:31:13.082
75.0, 1831.277542353142, 327.903208415024, 1059.3995904983021, 2337.701135253068, 0.0800000037997961, 0.06400000303983688, 0.9920000471174717, 0.0, 0.0, 0.0, 0.0, 0.0, 1.638495073082E9, 0.0, 2021-12-02 19:31:13.082
76.0, 1830.6828982601874, 338.6479409877211, 1070.701568164397, 2336.7287612645887, 0.0800000037997961, 0.06400000303983688, 0.9920000471174717, 0.0, 0.0, 0.0, 0.0, 0.0, 1.6384950730956364E9, 0.0, 2021-12-02 19:31:13.095
76.0, 1823.173179149162, 321.8520502867177, 1058.483315009158, 2332.349338416476, 0.0800000037997961, 0.06400000303983688, 0.9920000471174717, 0.0, 0.0, 0.0, 0.0, 0.0, 1.6384950730956364E9, 0.0, 2021-12-02 19:31:13.095
77.0, 1807.1290083392523, 320.5243858024478, 1049.63097181404, 2319.1325319730677, 0.0800000037997961, 0.06400000303983688, 0.9920000471174717, 0.0, 0.0, 0.0, 0.0, 0.0, 1.6384950731112747E9, 0.0, 2021-12-02 19:31:13.111
77.0, 1821.9240525639616, 323.8603765629232, 1055.7195289419033, 2328.1344711664133, 0.0800000037997961, 0.06400000303983688, 0.9920000471174717, 0.0, 0.0, 0.0, 0.0, 0.0, 1.6384950731112747E9, 0.0, 2021-12-02 19:31:13.111
78.0, 1837.2314630826004, 334.18250044062734, 1067.275819804985, 2336.751200664323, 0.0800000037997961, 0.06400000303983688, 0.9920000471174717, 0.0, 0.0, 0.0, 0.0, 0.0, 1.6384950731119816E9, 0.0, 2021-12-02 19:31:13.111
78.0, 1808.7633446198888, 309.90680982824415, 1048.9465701221488, 2316.3949252055027, 0.0800000037997961, 0.06400000303983688, 0.9920000471174717, 0.0, 0.0, 0.0, 0.0, 0.0, 1.6384950731119816E9, 0.0, 2021-12-02 19:31:13.111
79.0, 1804.6868536681868, 310.49397412128747, 1051.1905100955628, 2320.650931355078, 0.0800000037997961, 0.06400000303983688, 0.9920000471174717, 0.0, 0.0, 0.0, 0.0, 0.0, 1.6384950731419542E9, 0.0, 2021-12-02 19:31:13.141
79.0, 1814.212378855329, 317.91767553333193, 1055.480175344739, 2328.029753967654, 0.0800000037997961, 0.06400000303983688, 0.9920000471174717, 0.0, 0.0, 0.0, 0.0, 0.0, 1.6384950731419542E9, 0.0, 2021-12-02 19:31:13.141
80.0, 1806.8298163427971, 310.2546205241233, 1047.3870318406262, 2311.892085658852, 0.0800000037997961, 0.06400000303983688, 1.008000047877431, 0.0, 0.0, 0.0, 0.0, 0.0, 1.6384950731426628E9, 0.0, 2021-12-02 19:31:13.142
80.0, 1825.536795921158, 321.75855278782547, 1060.1625300892629, 2325.800773594063, 0.0800000037997961, 0.06400000303983688, 1.008000047877431, 0.0, 0.0, 0.0, 0.0, 0.0, 1.6384950731426628E9, 0.0, 2021-12-02 19:31:13.142
81.0, 1806.4558263472281, 308.7810999415815, 1049.5524339149706, 2332.502674314659, 0.0800000037997961, 0.06400000303983688, 1.008000047877431, 0.0, 0.0, 0.0, 0.0, 0.0, 1.6384950731434388E9, 0.0, 2021-12-02 19:31:13.143
81.0, 1784.3455378091894, 306.90741006378084, 1053.4269702690654, 2303.42495215917, 0.0800000037997961, 0.06400000303983688, 1.008000047877431, 0.0, 0.0, 0.0, 0.0, 0.0, 1.6384950731434388E9, 0.0, 2021-12-02 19:31:13.143
82.0, 1821.9502318636514, 307.09814496152103, 1047.1140191438608, 2317.427137593273, 0.0800000037997961, 0.06400000303983688, 1.008000047877431, 0.0, 0.0, 0.0, 0.0, 0.0, 1.6384950731720188E9, 0.0, 2021-12-02 19:31:13.172
82.0, 1847.5274076606147, 330.4575600847602, 1079.8643230558373, 2326.2757408884354, 0.0800000037997961, 0.06400000303983688, 1.008000047877431, 0.0, 0.0, 0.0, 0.0, 0.0, 1.6384950731720188E9, 0.0, 2021-12-02 19:31:13.172
83.0, 1846.8878847681917, 318.53849892597646, 1058.5132342088036, 2324.8620587051846, 0.0800000037997961, 0.06400000303983688, 1.008000047877431, 0.0, 0.0, 0.0, 0.0, 0.0, 1.6384950731727123E9, 0.0, 2021-12-02 19:31:13.172
83.0, 1809.7357186083682, 306.0621926737949, 1044.5933265737258, 2342.4358485969715, 0.0800000037997961, 0.06400000303983688, 1.008000047877431, 0.0, 0.0, 0.0, 0.0, 0.0, 1.6384950731727123E9, 0.0, 2021-12-02 19:31:13.172
84.0, 1803.7630983791314, 317.0687182433903, 1057.458582421299, 2340.124590424355, 0.0800000037997961, 0.06400000303983688, 1.008000047877431, 0.0, 0.0, 0.0, 0.0, 0.0, 1.638495073173412E9, 0.0, 2021-12-02 19:31:13.173
84.0, 1819.74743078975, 314.64900297205895, 1058.6329110073857, 2339.1447366359644, 0.0800000037997961, 0.06400000303983688, 1.008000047877431, 0.0, 0.0, 0.0, 0.0, 0.0, 1.638495073173412E9, 0.0, 2021-12-02 19:31:13.173
85.0, 1821.4902241691016, 307.3786374581978, 1051.7140960893594, 2338.4416354442947, 0.0800000037997961, 0.06400000303983688, 1.008000047877431, 0.0, 0.0, 0.0, 0.0, 0.0, 1.6384950731856344E9, 0.0, 2021-12-02 19:31:13.185
85.0, 1796.193540868815, 292.7406690316275, 1034.5255158930086, 2327.5884457728826, 0.0800000037997961, 0.06400000303983688, 1.008000047877431, 0.0, 0.0, 0.0, 0.0, 0.0, 1.6384950731856344E9, 0.0, 2021-12-02 19:31:13.185
86.0, 1866.4849605360068, 319.98210030887276, 1056.5572665319778, 2352.623336076271, 0.0800000037997961, 0.06400000303983688, 1.008000047877431, 0.0, 0.0, 0.0, 0.0, 0.0, 1.638495073201328E9, 0.0, 2021-12-02 19:31:13.201
86.0, 1818.6329406029545, 308.9980141390115, 1044.215596678201, 2337.401943256613, 0.0800000037997961, 0.06400000303983688, 1.008000047877431, 0.0, 0.0, 0.0, 0.0, 0.0, 1.638495073201328E9, 0.0, 2021-12-02 19:31:13.201
87.0, 1798.0111322472803, 298.354258865118, 1036.9302715645172, 2337.6450367537327, 0.0800000037997961, 0.06400000303983688, 1.008000047877431, 0.0, 0.0, 0.0, 0.0, 0.0, 1.638495073201994E9, 0.0, 2021-12-02 19:31:13.201
87.0, 1826.3633138113655, 307.5544127561152, 1053.0791595731862, 2345.2557331635617, 0.0800000037997961, 0.06400000303983688, 1.008000047877431, 0.0, 0.0, 0.0, 0.0, 0.0, 1.638495073201994E9, 0.0, 2021-12-02 19:31:13.201
88.0, 1829.1457993783988, 313.76638658251613, 1051.104492396582, 2349.2836054158397, 0.0800000037997961, 0.06400000303983688, 1.008000047877431, 0.0, 0.0, 0.0, 0.0, 0.0, 1.6384950732156334E9, 0.0, 2021-12-02 19:31:13.215
88.0, 1844.6963033941574, 324.4512807559222, 1055.300660146866, 2346.6282764473, 0.0800000037997961, 0.06400000303983688, 1.008000047877431, 0.0, 0.0, 0.0, 0.0, 0.0, 1.6384950732156334E9, 0.0, 2021-12-02 19:31:13.215
89.0, 1836.7190967886709, 312.94734849222004, 1055.1996828480624, 2364.3479224373586, 0.0800000037997961, 0.06400000303983688, 1.008000047877431, 0.0, 0.0, 0.0, 0.0, 0.0, 1.6384950732313175E9, 0.0, 2021-12-02 19:31:13.231
89.0, 1830.372486563865, 299.5211076512933, 1041.889378905762, 2355.794771238696, 0.0800000037997961, 0.06400000303983688, 1.008000047877431, 0.0, 0.0, 0.0, 0.0, 0.0, 1.6384950732313175E9, 0.0, 2021-12-02 19:31:13.231
90.0, 1835.8514399989508, 304.2932199947536, 1034.0842076982372, 2349.0704311183654, 0.0800000037997961, 0.06400000303983688, 1.008000047877431, 0.0, 0.0, 0.0, 0.0, 0.0, 1.6384950732320223E9, 0.0, 2021-12-02 19:31:13.232
90.0, 1840.189723947551, 309.558999132365, 1041.1376590146683, 2364.76305133244, 0.0800000037997961, 0.06400000303983688, 1.008000047877431, 0.0, 0.0, 0.0, 0.0, 0.0, 1.6384950732320223E9, 0.0, 2021-12-02 19:31:13.232
91.0, 1867.0908243288286, 307.75262745376676, 1044.2978744772263, 2375.646160203498, 0.0800000037997961, 0.06400000303983688, 1.008000047877431, 0.0, 0.0, 0.0, 0.0, 0.0, 1.6384950732456384E9, 0.0, 2021-12-02 19:31:13.245
91.0, 1858.354418032337, 319.8287644106895, 1052.7500483770855, 2357.010238724295, 0.0800000037997961, 0.06400000303983688, 1.008000047877431, 0.0, 0.0, 0.0, 0.0, 0.0, 1.6384950732456384E9, 0.0, 2021-12-02 19:31:13.245
92.0, 1851.5814592125826, 299.04988025687635, 1040.2662623249926, 2372.05211634608, 0.0800000037997961, 0.06400000303983688, 1.008000047877431, 0.0, 0.0, 0.0, 0.0, 0.0, 1.6384950732613063E9, 0.0, 2021-12-02 19:31:13.261
92.0, 1854.7790736746974, 299.15833735559136, 1041.6874243081547, 2371.3938939538784, 0.0800000037997961, 0.06400000303983688, 1.008000047877431, 0.0, 0.0, 0.0, 0.0, 0.0, 1.6384950732613063E9, 0.0, 2021-12-02 19:31:13.261
93.0, 1842.6692776181735, 293.49238892272115, 1033.411025706213, 2376.65967309149, 0.0800000037997961, 0.06400000303983688, 1.008000047877431, 0.0, 0.0, 0.0, 0.0, 0.0, 1.6384950732619956E9, 0.0, 2021-12-02 19:31:13.261
93.0, 1849.4197970381938, 297.4828621754423, 1043.9238844816573, 2375.582581904251, 0.0800000037997961, 0.06400000303983688, 1.008000047877431, 0.0, 0.0, 0.0, 0.0, 0.0, 1.6384950732619956E9, 0.0, 2021-12-02 19:31:13.261
94.0, 1836.2740486939438, 285.7657556142658, 1037.9363046525978, 2370.746891261544, 0.0800000037997961, 0.06400000303983688, 1.008000047877431, 0.0, 0.0, 0.0, 0.0, 0.0, 1.6384950732757597E9, 0.0, 2021-12-02 19:31:13.275
94.0, 1861.8063456914388, 306.23796797171235, 1063.9211295447312, 2386.4956099749543, 0.0800000037997961, 0.06400000303983688, 1.008000047877431, 0.0, 0.0, 0.0, 0.0, 0.0, 1.6384950732757597E9, 0.0, 2021-12-02 19:31:13.275
95.0, 1864.914202554617, 303.23108840733767, 1043.6059929854237, 2369.6473606745712, 0.0800000037997961, 0.06400000303983688, 1.008000047877431, 0.0, 0.0, 0.0, 0.0, 0.0, 1.6384950732912865E9, 0.0, 2021-12-02 19:31:13.291
95.0, 1854.6967958756723, 291.3943050475791, 1042.6560583966784, 2383.0100232162513, 0.0800000037997961, 0.06400000303983688, 1.008000047877431, 0.0, 0.0, 0.0, 0.0, 0.0, 1.6384950732912865E9, 0.0, 2021-12-02 19:31:13.291
96.0, 1852.1125250062905, 301.38731772918254, 1045.2403292660601, 2380.309815448243, 0.0800000037997961, 0.06400000303983688, 1.008000047877431, 0.0, 0.0, 0.0, 0.0, 0.0, 1.638495073292058E9, 0.0, 2021-12-02 19:31:13.292
96.0, 1854.0348335835151, 268.77165021561086, 1029.1512796566822, 2381.480404134374, 0.0800000037997961, 0.06400000303983688, 1.008000047877431, 0.0, 0.0, 0.0, 0.0, 0.0, 1.638495073292058E9, 0.0, 2021-12-02 19:31:13.292
97.0, 1864.8244449556805, 260.6037087123841, 1014.4646925306879, 2395.1908773719333, 0.0800000037997961, 0.06400000303983688, 1.008000047877431, 0.0, 0.0, 0.0, 0.0, 0.0, 1.6384950733055682E9, 0.0, 2021-12-02 19:31:13.305
97.0, 1882.0915630511008, 318.45996102690697, 1038.8563200416975, 2389.9924164335243, 0.0800000037997961, 0.06400000303983688, 1.008000047877431, 0.0, 0.0, 0.0, 0.0, 0.0, 1.6384950733055682E9, 0.0, 2021-12-02 19:31:13.305
98.0, 1901.7896161177196, 320.558044902049, 1039.35746663576, 2367.7287919973023, 0.0800000037997961, 0.06400000303983688, 1.008000047877431, 0.0, 0.0, 0.0, 0.0, 0.0, 1.6384950733210454E9, 0.0, 2021-12-02 19:31:13.321
98.0, 1873.0036061587743, 306.45862206909806, 1027.8834535717033, 2371.737964749802, 0.0800000037997961, 0.06400000303983688, 1.008000047877431, 0.0, 0.0, 0.0, 0.0, 0.0, 1.6384950733210454E9, 0.0, 2021-12-02 19:31:13.321
99.0, 1885.8314630067907, 327.7049937173724, 1037.3528802595101, 2387.2510697660036, 0.0800000037997961, 0.06400000303983688, 1.008000047877431, 0.0, 0.0, 0.0, 0.0, 0.0, 1.638495073336942E9, 0.0, 2021-12-02 19:31:13.336
99.0, 1901.0827750260942, 336.17586711701006, 1031.1521261329763, 2378.548322569113, 0.0800000037997961, 0.06400000303983688, 1.008000047877431, 0.0, 0.0, 0.0, 0.0, 0.0, 1.638495073336942E9, 0.0, 2021-12-02 19:31:13.336
100.0, 1871.4328481773846, 324.5298186549917, 1032.0048233228736, 2365.499811623711, 0.0800000037997961, 0.06400000303983688, 1.008000047877431, 0.0, 0.0, 0.0, 0.0, 0.0, 1.638495073337648E9, 0.0, 2021-12-02 19:31:13.337
100.0, 1879.3128173840232, 314.9631545683369, 1015.9082939135842, 2378.3538477714173, 0.0800000037997961, 0.06400000303983688, 1.008000047877431, 0.0, 0.0, 0.0, 0.0, 0.0, 1.638495073337648E9, 0.0, 2021-12-02 19:31:13.337
0.0, 1886.697249846533, 314.67331232177094, 1008.4602831518278, 2384.3489074003883, 0.0800000037997961, 0.06400000303983688, 1.008000047877431, 0.0, 0.0, 0.0, 0.0, 0.0, 1.6384950733384397E9, 0.0, 2021-12-02 19:31:13.338
1.0, 1878.5218285433948, 300.1325812940486, 1000.7224301435053, 2361.1764872749336, 0.0800000037997961, 0.06400000303983688, 1.008000047877431, 0.0, 0.0, 0.0, 0.0, 0.0, 1.6384950733506122E9, 0.0, 2021-12-02 19:31:13.350
1.0, 1882.5758800953627, 321.45375094143674, 1020.1661700131372, 2379.9096461529844, 0.0800000037997961, 0.06400000303983688, 1.008000047877431, 0.0, 0.0, 0.0, 0.0, 0.0, 1.6384950733506122E9, 0.0, 2021-12-02 19:31:13.350
2.0, 1893.1560570700094, 313.34190793754533, 1013.2585747949779, 2370.1971259680577, 0.0800000037997961, 0.06400000303983688, 1.008000047877431, 0.0, 0.0, 0.0, 0.0, 0.0, 1.6384950733662865E9, 0.0, 2021-12-02 19:31:13.366
2.0, 1879.8756723273546, 295.7905574454926, 1007.9927956573665, 2357.732039415743, 0.0800000037997961, 0.06400000303983688, 1.008000047877431, 0.0, 0.0, 0.0, 0.0, 0.0, 1.6384950733662865E9, 0.0, 2021-12-02 19:31:13.366
3.0, 1892.221082081087, 314.51997642358765, 1009.7056698370725, 2381.1512929382734, 0.0800000037997961, 0.06400000303983688, 1.008000047877431, 0.0, 0.0, 0.0, 0.0, 0.0, 1.6384950733670387E9, 0.0, 2021-12-02 19:31:13.367
3.0, 1878.3722325451672, 302.3166828681715, 1014.451602880843, 2389.046221744735, 0.0800000037997961, 0.06400000303983688, 1.008000047877431, 0.0, 0.0, 0.0, 0.0, 0.0, 1.6384950733670387E9, 0.0, 2021-12-02 19:31:13.367
4.0, 1885.8295930568129, 315.2716963146813, 1027.3131188284606, 2386.8322009709664, 0.0800000037997961, 0.06400000303983688, 1.008000047877431, 0.0, 0.0, 0.0, 0.0, 0.0, 1.6384950733805556E9, 0.0, 2021-12-02 19:31:13.380
4.0, 1876.1469920715317, 300.0540433949791, 998.7627225667238, 2371.277957055252, 0.0800000037997961, 0.06400000303983688, 1.008000047877431, 0.0, 0.0, 0.0, 0.0, 0.0, 1.6384950733805556E9, 0.0, 2021-12-02 19:31:13.380
5.0, 1867.0515553792939, 291.3101572985761, 1004.5072088986635, 2381.5103233340196, 0.0800000037997961, 0.06400000303983688, 1.008000047877431, 0.0, 0.0, 0.0, 0.0, 0.0, 1.6384950733963115E9, 0.0, 2021-12-02 19:31:13.396
5.0, 1896.8548181261867, 294.88176175625995, 1005.5244616866112, 2379.6889920555986, 0.0800000037997961, 0.06400000303983688, 1.008000047877431, 0.0, 0.0, 0.0, 0.0, 0.0, 1.6384950733963115E9, 0.0, 2021-12-02 19:31:13.396
6.0, 1885.683736958541, 305.32356243254617, 1007.3644924648106, 2393.4630435924046, 0.0800000037997961, 0.06400000303983688, 1.008000047877431, 0.0, 0.0, 0.0, 0.0, 0.0, 1.63849507339702E9, 0.0, 2021-12-02 19:31:13.397
6.0, 1875.2905549816787, 292.73131928173825, 1007.745962260291, 2387.187491466757, 0.0800000037997961, 0.06400000303983688, 1.008000047877431, 0.0, 0.0, 0.0, 0.0, 0.0, 1.63849507339702E9, 0.0, 2021-12-02 19:31:13.397
7.0, 1896.9782348247245, 299.40330080268905, 1015.2930803708732, 2396.8551328522153, 0.0800000037997961, 0.06400000303983688, 1.008000047877431, 0.0, 0.0, 0.0, 0.0, 0.0, 1.6384950734105637E9, 0.0, 2021-12-02 19:31:13.410
7.0, 1897.0530328238383, 299.69501299923286, 1008.1910103550181, 2396.1894306601025, 0.0800000037997961, 0.06400000303983688, 1.008000047877431, 0.0, 0.0, 0.0, 0.0, 0.0, 1.6384950734105637E9, 0.0, 2021-12-02 19:31:13.410
8.0, 1891.641397587955, 291.5270714960061, 1008.7407756485045, 2384.1432129028253, 0.0800000037997961, 0.06400000303983688, 1.008000047877431, 0.0, 0.0, 0.0, 0.0, 0.0, 1.6384950734575007E9, 0.0, 2021-12-02 19:31:13.457
8.0, 1891.2150489930063, 290.06477061333135, 1007.1999368667603, 2412.3121393690817, 0.0800000037997961, 0.06400000303983688, 1.008000047877431, 0.0, 0.0, 0.0, 0.0, 0.0, 1.6384950734575007E9, 0.0, 2021-12-02 19:31:13.457
9.0, 1913.856403324753, 295.80551704531536, 1014.608678678982, 2409.002327908296, 0.0800000037997961, 0.06400000303983688, 1.008000047877431, 0.0, 0.0, 0.0, 0.0, 0.0, 1.6384950734581213E9, 0.0, 2021-12-02 19:31:13.458
9.0, 1906.6533560100943, 274.5965443965979, 996.8852927889675, 2404.761281358544, 0.0800000037997961, 0.06400000303983688, 1.008000047877431, 0.0, 0.0, 0.0, 0.0, 0.0, 1.6384950734581213E9, 0.0, 2021-12-02 19:31:13.458
10.0, 1927.3724017646164, 301.8604150735773, 1021.0263470029458, 2408.64329751255, 0.0800000037997961, 0.06400000303983688, 1.008000047877431, 0.0, 0.0, 0.0, 0.0, 0.0, 1.638495073458869E9, 0.0, 2021-12-02 19:31:13.458
10.0, 1910.1501624686643, 295.9326736438088, 1012.1665240079165, 2416.900996614713, 0.0800000037997961, 0.06400000303983688, 1.008000047877431, 0.0, 0.0, 0.0, 0.0, 0.0, 1.638495073458869E9, 0.0, 2021-12-02 19:31:13.458
11.0, 1876.7491159643978, 276.0738048790954, 996.2008910970762, 2382.894086317625, 0.0800000037997961, 0.06400000303983688, 1.008000047877431, 0.0, 0.0, 0.0, 0.0, 0.0, 1.638495073471962E9, 0.0, 2021-12-02 19:31:13.471
11.0, 1871.8722864221781, 290.03485141368583, 1005.1542115909979, 2390.830154023599, 0.0800000037997961, 0.06400000303983688, 1.008000047877431, 0.0, 0.0, 0.0, 0.0, 0.0, 1.638495073471962E9, 0.0, 2021-12-02 19:31:13.471
12.0, 1844.1558878505602, 290.03485141368583, 1007.214896466583, 2367.216425703373, 0.0800000037997961, 0.06400000303983688, 1.008000047877431, 0.0, 0.0, 0.0, 0.0, 0.0, 1.6384950734726815E9, 0.0, 2021-12-02 19:31:13.472
12.0, 1853.9656454343349, 296.50487833702937, 1009.4401369402185, 2374.8308620131575, 0.0800000037997961, 0.06400000303983688, 1.008000047877431, 0.0, 0.0, 0.0, 0.0, 0.0, 1.6384950734726815E9, 0.0, 2021-12-02 19:31:13.472
13.0, 1839.540851305239, 283.7779987878166, 1002.4727033227682, 2373.2713237316348, 0.0800000037997961, 0.06400000303983688, 1.008000047877431, 0.0, 0.0, 0.0, 0.0, 0.0, 1.6384950734734457E9, 0.0, 2021-12-02 19:31:13.473
13.0, 1874.3144410932437, 296.06731004221365, 1012.3946579052135, 2378.0172567754053, 0.0800000037997961, 0.06400000303983688, 1.008000047877431, 0.0, 0.0, 0.0, 0.0, 0.0, 1.6384950734734457E9, 0.0, 2021-12-02 19:31:13.473
14.0, 1873.1737716067582, 291.5195916960947, 1010.2703947303817, 2374.269877019804, 0.0800000037997961, 0.06400000303983688, 1.008000047877431, 0.0, 0.0, 0.0, 0.0, 0.0, 1.6384950735168548E9, 0.0, 2021-12-02 19:31:13.516
14.0, 1882.463683096692, 294.02532466640696, 1006.4033381761983, 2376.644713491667, 0.0800000037997961, 0.06400000303983688, 1.008000047877431, 0.0, 0.0, 0.0, 0.0, 0.0, 1.6384950735168548E9, 0.0, 2021-12-02 19:31:13.516
15.0, 1878.2488158466294, 288.1574216359295, 1011.5457006152719, 2378.1855522734113, 0.0800000037997961, 0.06400000303983688, 1.008000047877431, 0.0, 0.0, 0.0, 0.0, 0.0, 1.6384950735174448E9, 0.0, 2021-12-02 19:31:13.517
15.0, 1891.6376576879993, 294.3132969629951, 1008.7258160486817, 2383.253116713371, 0.0800000037997961, 0.06400000303983688, 1.008000047877431, 0.0, 0.0, 0.0, 0.0, 0.0, 1.6384950735174448E9, 0.0, 2021-12-02 19:31:13.517
16.0, 1892.4529558783397, 288.09384333668277, 1008.5724801504984, 2372.0296769463457, 0.0800000037997961, 0.06400000303983688, 1.008000047877431, 0.0, 0.0, 0.0, 0.0, 0.0, 1.6384950735333476E9, 0.0, 2021-12-02 19:31:13.533
16.0, 1867.3582271756604, 288.5912500307895, 1007.371972264722, 2361.748691968154, 0.0800000037997961, 0.06400000303983688, 1.008000047877431, 0.0, 0.0, 0.0, 0.0, 0.0, 1.6384950735333476E9, 0.0, 2021-12-02 19:31:13.533
17.0, 1880.631132118404, 282.39423580421135, 1005.2290095901117, 2380.530469545629, 0.0800000037997961, 0.06400000303983688, 1.008000047877431, 0.0, 0.0, 0.0, 0.0, 0.0, 1.6384950735340235E9, 0.0, 2021-12-02 19:31:13.534
17.0, 1903.7324941447005, 293.32596337469295, 1007.5477475626394, 2377.8788804770447, 0.0800000037997961, 0.06400000303983688, 1.008000047877431, 0.0, 0.0, 0.0, 0.0, 0.0, 1.6384950735340235E9, 0.0, 2021-12-02 19:31:13.534
18.0, 1900.228207886219, 282.8505035988055, 1005.610479385592, 2365.7952637202106, 0.0800000037997961, 0.06400000303983688, 1.008000047877431, 0.0, 0.0, 0.0, 0.0, 0.0, 1.638495073534789E9, 0.0, 2021-12-02 19:31:13.534
18.0, 1911.9453144473955, 288.46409343229607, 1015.2893404709175, 2378.1818123734556, 0.0800000037997961, 0.06400000303983688, 1.008000047877431, 0.0, 0.0, 0.0, 0.0, 0.0, 1.638495073534789E9, 0.0, 2021-12-02 19:31:13.534
19.0, 1886.659850846976, 284.90744857443497, 1017.0957121495157, 2371.4163333536126, 0.0800000037997961, 0.06400000303983688, 1.008000047877431, 0.0, 0.0, 0.0, 0.0, 0.0, 1.6384950735356157E9, 0.0, 2021-12-02 19:31:13.535
19.0, 1893.2383348690346, 307.821815602947, 1034.7592596402392, 2383.8515007062815, 0.0800000037997961, 0.06400000303983688, 1.008000047877431, 0.0, 0.0, 0.0, 0.0, 0.0, 1.6384950735356157E9, 0.0, 2021-12-02 19:31:13.535
20.0, 1909.5330789759755, 301.5612230771221, 1031.636443177238, 2394.532654979732, 0.0800000037997961, 0.06400000303983688, 1.008000047877431, 0.0, 0.0, 0.0, 0.0, 0.0, 1.6384950735462723E9, 0.0, 2021-12-02 19:31:13.546
20.0, 1910.516672664322, 283.0711576961912, 1010.9211373226717, 2374.834601913113, 0.0800000037997961, 0.06400000303983688, 1.008000047877431, 0.0, 0.0, 0.0, 0.0, 0.0, 1.6384950735462723E9, 0.0, 2021-12-02 19:31:13.546
21.0, 1909.0020131822675, 284.2006074828096, 1011.6990365134552, 2370.7543710614555, 0.0800000037997961, 0.06400000303983688, 1.008000047877431, 0.0, 0.0, 0.0, 0.0, 0.0, 1.6384950735470064E9, 0.0, 2021-12-02 19:31:13.547
21.0, 1899.914056289941, 288.03026503743604, 1012.8546655997634, 2361.07550997613, 0.0800000037997961, 0.06400000303983688, 1.008000047877431, 0.0, 0.0, 0.0, 0.0, 0.0, 1.6384950735470064E9, 0.0, 2021-12-02 19:31:13.547
22.0, 1906.9301086068153, 291.3849552976899, 1018.8497252287343, 2385.8897461821325, 0.0800000037997961, 0.06400000303983688, 1.008000047877431, 0.0, 0.0, 0.0, 0.0, 0.0, 1.638495073576932E9, 0.0, 2021-12-02 19:31:13.576
22.0, 1910.6812282623723, 289.5299649196677, 1008.0451542567462, 2387.80083505949, 0.0800000037997961, 0.06400000303983688, 1.008000047877431, 0.0, 0.0, 0.0, 0.0, 0.0, 1.638495073576932E9, 0.0, 2021-12-02 19:31:13.576
23.0, 1911.3319708546624, 284.5633777785115, 1007.3196136653423, 2378.8437746656127, 0.0800000037997961, 0.06400000303983688, 1.008000047877431, 0.0, 0.0, 0.0, 0.0, 0.0, 1.6384950735776448E9, 0.0, 2021-12-02 19:31:13.577
23.0, 1920.648061644286, 293.47929927287623, 1012.1627841079608, 2384.7341170958243, 0.0800000037997961, 0.06400000303983688, 1.008000047877431, 0.0, 0.0, 0.0, 0.0, 0.0, 1.6384950735776448E9, 0.0, 2021-12-02 19:31:13.577
24.0, 1914.062097822316, 279.68654823629186, 1012.7349888011813, 2384.992170192767, 0.0800000037997961, 0.06400000303983688, 1.008000047877431, 0.0, 0.0, 0.0, 0.0, 0.0, 1.6384950735784113E9, 0.0, 2021-12-02 19:31:13.578
24.0, 1917.4541870821267, 279.5930507373996, 1002.7606756193563, 2378.140673473943, 0.0800000037997961, 0.06400000303983688, 1.008000047877431, 0.0, 0.0, 0.0, 0.0, 0.0, 1.6384950735784113E9, 0.0, 2021-12-02 19:31:13.578
25.0, 1930.5812359265983, 288.66230812994763, 1014.3768048817292, 2394.82062727632, 0.0800000037997961, 0.06400000303983688, 1.008000047877431, 0.0, 0.0, 0.0, 0.0, 0.0, 1.638495073590561E9, 0.0, 2021-12-02 19:31:13.590
25.0, 1928.183960055001, 286.4782065558247, 1017.2640076475218, 2383.518649610225, 0.0800000037997961, 0.06400000303983688, 1.008000047877431, 0.0, 0.0, 0.0, 0.0, 0.0, 1.638495073590561E9, 0.0, 2021-12-02 19:31:13.590
26.0, 1941.7859761938453, 290.50233890814707, 1015.4800753686577, 2395.9500770629384, 0.0800000037997961, 0.06400000303983688, 1.008000047877431, 0.0, 0.0, 0.0, 0.0, 0.0, 1.6384950736069636E9, 0.0, 2021-12-02 19:31:13.606
26.0, 1932.9298930987716, 303.9771984484978, 1026.572618637234, 2408.0598731194623, 0.0800000037997961, 0.06400000303983688, 1.008000047877431, 0.0, 0.0, 0.0, 0.0, 0.0, 1.6384950736069636E9, 0.0, 2021-12-02 19:31:13.606
27.0, 1915.5617977045476, 301.95765247242525, 1029.8076320989057, 2396.9635899509303, 0.0800000037997961, 0.06400000303983688, 1.008000047877431, 0.0, 0.0, 0.0, 0.0, 0.0, 1.6384950736076684E9, 0.0, 2021-12-02 19:31:13.607
27.0, 1903.7100547449663, 296.7591915340163, 1019.878197716549, 2375.100134809967, 0.0800000037997961, 0.06400000303983688, 1.008000047877431, 0.0, 0.0, 0.0, 0.0, 0.0, 1.6384950736076684E9, 0.0, 2021-12-02 19:31:13.607
28.0, 1882.1831906000152, 299.96428579604253, 1023.8537113694474, 2389.513709239196, 0.0800000037997961, 0.06400000303983688, 1.008000047877431, 0.0, 0.0, 0.0, 0.0, 0.0, 1.6384950736370077E9, 0.0, 2021-12-02 19:31:13.637
28.0, 1873.1588120069355, 313.2708498383872, 1040.477566672489, 2398.811100529041, 0.0800000037997961, 0.06400000303983688, 1.008000047877431, 0.0, 0.0, 0.0, 0.0, 0.0, 1.6384950736370077E9, 0.0, 2021-12-02 19:31:13.637
29.0, 1862.3018824355677, 302.70189256360754, 1034.157135747373, 2410.7713005873375, 0.0800000037997961, 0.06400000303983688, 1.008000047877431, 0.0, 0.0, 0.0, 0.0, 0.0, 1.6384950736377933E9, 0.0, 2021-12-02 19:31:13.637
29.0, 1816.660143376328, 308.02751010050997, 1037.7137806052342, 2411.1789496825077, 0.0800000037997961, 0.06400000303983688, 1.008000047877431, 0.0, 0.0, 0.0, 0.0, 0.0, 1.6384950736377933E9, 0.0, 2021-12-02 19:31:13.637
30.0, 1811.3943642387167, 319.89421265991405, 1048.1705408813432, 2426.033832306508, 0.0800000037997961, 0.06400000303983688, 1.008000047877431, 0.0, 0.0, 0.0, 0.0, 0.0, 1.6384950736384652E9, 0.0, 2021-12-02 19:31:13.638
30.0, 1807.325353086926, 329.64413184439763, 1054.3077167086303, 2422.87361684395, 0.0800000037997961, 0.06400000303983688, 1.008000047877431, 0.0, 0.0, 0.0, 0.0, 0.0, 1.6384950736384652E9, 0.0, 2021-12-02 19:31:13.638
31.0, 1786.303375435993, 320.4664173531346, 1047.7404523864388, 2411.852131674532, 0.0800000037997961, 0.06400000303983688, 1.008000047877431, 0.0, 0.0, 0.0, 0.0, 0.0, 1.6384950736506193E9, 0.0, 2021-12-02 19:31:13.650
31.0, 1772.8771345950663, 319.1013538693078, 1055.8709948901087, 2432.4066218310036, 0.0800000037997961, 0.06400000303983688, 1.008000047877431, 0.0, 0.0, 0.0, 0.0, 0.0, 1.6384950736506193E9, 0.0, 2021-12-02 19:31:13.650
32.0, 1764.2678848970681, 336.83221955923364, 1062.2998829139397, 2432.425321330782, 0.0800000037997961, 0.06400000303983688, 1.008000047877431, 0.0, 0.0, 0.0, 0.0, 0.0, 1.6384950736664069E9, 0.0, 2021-12-02 19:31:13.666
32.0, 1762.1847606217489, 334.52844118652865, 1062.2400445146486, 2439.168360950891, 0.0800000037997961, 0.06400000303983688, 1.008000047877431, 0.0, 0.0, 0.0, 0.0, 0.0, 1.6384950736664069E9, 0.0, 2021-12-02 19:31:13.666
33.0, 1754.7236602101475, 330.15649813832715, 1058.4066470600665, 2431.0116391475312, 0.0800000037997961, 0.06400000303983688, 1.008000047877431, 0.0, 0.0, 0.0, 0.0, 0.0, 1.638495073667013E9, 0.0, 2021-12-02 19:31:13.667
33.0, 1746.3388045094907, 330.60154623305425, 1061.776296920143, 2436.681327480357, 0.0800000037997961, 0.06400000303983688, 1.008000047877431, 0.0, 0.0, 0.0, 0.0, 0.0, 1.638495073667013E9, 0.0, 2021-12-02 19:31:13.667
34.0, 1757.9661534717306, 335.9982218691148, 1064.4615450883284, 2436.213839985896, 0.0800000037997961, 0.06400000303983688, 1.008000047877431, 0.0, 0.0, 0.0, 0.0, 0.0, 1.638495073680621E9, 0.0, 2021-12-02 19:31:13.680
34.0, 1755.7745720976964, 328.82509375410154, 1057.916720165871, 2437.4367872714065, 0.0800000037997961, 0.06400000303983688, 1.008000047877431, 0.0, 0.0, 0.0, 0.0, 0.0, 1.638495073680621E9, 0.0, 2021-12-02 19:31:13.680
35.0, 1771.5681696105748, 347.2104419362731, 1076.683538143523, 2467.367206616793, 0.0800000037997961, 0.06400000303983688, 1.008000047877431, 0.0, 0.0, 0.0, 0.0, 0.0, 1.6384950737133536E9, 0.0, 2021-12-02 19:31:13.713
35.0, 1760.4419672423974, 324.284855207894, 1050.1564277578145, 2447.826229348313, 0.0800000037997961, 0.06400000303983688, 1.008000047877431, 0.0, 0.0, 0.0, 0.0, 0.0, 1.6384950737133536E9, 0.0, 2021-12-02 19:31:13.713
36.0, 1753.3623366262764, 323.0207690228708, 1051.1175820464268, 2433.2892382205464, 0.0800000037997961, 0.06400000303983688, 1.008000047877431, 0.0, 0.0, 0.0, 0.0, 0.0, 1.6384950737141137E9, 0.0, 2021-12-02 19:31:13.714
36.0, 1763.4899857062846, 327.86393946548924, 1053.7018529158086, 2431.8418969376944, 0.0800000037997961, 0.06400000303983688, 1.008000047877431, 0.0, 0.0, 0.0, 0.0, 0.0, 1.6384950737141137E9, 0.0, 2021-12-02 19:31:13.714
37.0, 1781.3442680947483, 331.52156162215397, 1056.2188055859879, 2442.8372028074227, 0.0800000037997961, 0.06400000303983688, 1.008000047877431, 0.0, 0.0, 0.0, 0.0, 0.0, 1.638495073714814E9, 0.0, 2021-12-02 19:31:13.714
37.0, 1767.3383427606896, 319.3855862659402, 1041.8463700562716, 2426.033832306508, 0.0800000037997961, 0.06400000303983688, 1.008000047877431, 0.0, 0.0, 0.0, 0.0, 0.0, 1.638495073714814E9, 0.0, 2021-12-02 19:31:13.714
38.0, 1772.843475495465, 323.85102681303397, 1051.8693019375205, 2424.7099077221937, 0.0800000037997961, 0.06400000303983688, 1.008000047877431, 0.0, 0.0, 0.0, 0.0, 0.0, 1.638495073715572E9, 0.0, 2021-12-02 19:31:13.715
38.0, 1778.5692623276263, 323.6976909148507, 1051.3980745431036, 2434.2990112085827, 0.0800000037997961, 0.06400000303983688, 1.008000047877431, 0.0, 0.0, 0.0, 0.0, 0.0, 1.638495073715572E9, 0.0, 2021-12-02 19:31:13.715
39.0, 1785.2487236484885, 328.11825266247615, 1052.755658227019, 2429.5642978646792, 0.0800000037997961, 0.06400000303983688, 1.008000047877431, 0.0, 0.0, 0.0, 0.0, 0.0, 1.6384950737258477E9, 0.0, 2021-12-02 19:31:13.725
39.0, 1776.3028829544783, 322.51588252885267, 1040.8964354675263, 2415.651870029513, 0.0800000037997961, 0.06400000303983688, 1.008000047877431, 0.0, 0.0, 0.0, 0.0, 0.0, 1.6384950737258477E9, 0.0, 2021-12-02 19:31:13.725
40.0, 1794.7518094358966, 327.3553130715154, 1051.8767817374319, 2421.740427157376, 0.0800000037997961, 0.06400000303983688, 1.008000047877431, 0.0, 0.0, 0.0, 0.0, 0.0, 1.6384950737406328E9, 0.0, 2021-12-02 19:31:13.740
40.0, 1790.7762957829982, 335.1417847792618, 1054.36007530801, 2442.1789804152213, 0.0800000037997961, 0.06400000303983688, 1.008000047877431, 0.0, 0.0, 0.0, 0.0, 0.0, 1.6384950737406328E9, 0.0, 2021-12-02 19:31:13.740
41.0, 1794.7480695359409, 321.41635194187984, 1041.1320491647348, 2408.183289818, 0.0800000037997961, 0.06400000303983688, 1.008000047877431, 0.0, 0.0, 0.0, 0.0, 0.0, 1.6384950737562675E9, 0.0, 2021-12-02 19:31:13.756
41.0, 1805.9191507035866, 323.054428122472, 1042.2427994515747, 2426.0637515061535, 0.0800000037997961, 0.06400000303983688, 1.008000047877431, 0.0, 0.0, 0.0, 0.0, 0.0, 1.6384950737562675E9, 0.0, 2021-12-02 19:31:13.756
42.0, 1809.3897778624669, 327.9200379648246, 1041.5172588601708, 2431.1649750457145, 0.0800000037997961, 0.06400000303983688, 1.008000047877431, 0.0, 0.0, 0.0, 0.0, 0.0, 1.638495073756994E9, 0.0, 2021-12-02 19:31:13.756
42.0, 1821.9109629141167, 316.7152976975776, 1040.9562738668174, 2430.663828451652, 0.0800000037997961, 0.06400000303983688, 1.008000047877431, 0.0, 0.0, 0.0, 0.0, 0.0, 1.638495073756994E9, 0.0, 2021-12-02 19:31:13.756
43.0, 1806.0014285026118, 319.6473792628385, 1043.4732265369967, 2421.57213165937, 0.0800000037997961, 0.06400000303983688, 1.008000047877431, 0.0, 0.0, 0.0, 0.0, 0.0, 1.638495073770645E9, 0.0, 2021-12-02 19:31:13.770
43.0, 1828.7250606333837, 315.22681751521304, 1051.7346655391157, 2424.4705541250296, 0.0800000037997961, 0.06400000303983688, 1.008000047877431, 0.0, 0.0, 0.0, 0.0, 0.0, 1.638495073770645E9, 0.0, 2021-12-02 19:31:13.770
44.0, 1839.552071005106, 313.52516303537413, 1045.2272396162152, 2429.568037764635, 0.0800000037997961, 0.06400000303983688, 1.008000047877431, 0.0, 0.0, 0.0, 0.0, 0.0, 1.63849507378631E9, 0.0, 2021-12-02 19:31:13.786
44.0, 1849.174833591096, 318.78720227302983, 1043.735019533895, 2442.1752405152656, 0.0800000037997961, 0.06400000303983688, 1.008000047877431, 0.0, 0.0, 0.0, 0.0, 0.0, 1.63849507378631E9, 0.0, 2021-12-02 19:31:13.786
45.0, 1842.917980965227, 312.40693294862285, 1045.724646310322, 2431.3968488429673, 0.0800000037997961, 0.06400000303983688, 1.008000047877431, 0.0, 0.0, 0.0, 0.0, 0.0, 1.6384950737870133E9, 0.0, 2021-12-02 19:31:13.787
45.0, 1863.1732791252434, 324.8832392008044, 1055.287570497021, 2431.2248134450056, 0.0800000037997961, 0.06400000303983688, 1.008000047877431, 0.0, 0.0, 0.0, 0.0, 0.0, 1.6384950737870133E9, 0.0, 2021-12-02 19:31:13.787
46.0, 1861.322028647177, 310.2003919747658, 1034.460067643784, 2422.428568749223, 0.0800000037997961, 0.06400000303983688, 1.008000047877431, 0.0, 0.0, 0.0, 0.0, 0.0, 1.6384950738006268E9, 0.0, 2021-12-02 19:31:13.800
46.0, 1861.273409947753, 313.40174633683637, 1040.720660169609, 2427.72426708648, 0.0800000037997961, 0.06400000303983688, 1.008000047877431, 0.0, 0.0, 0.0, 0.0, 0.0, 1.6384950738006268E9, 0.0, 2021-12-02 19:31:13.800
47.0, 1884.490708872676, 321.9922965350561, 1044.3558429265395, 2435.3648826959543, 0.0800000037997961, 0.06400000303983688, 1.008000047877431, 0.0, 0.0, 0.0, 0.0, 0.0, 1.638495073816045E9, 0.0, 2021-12-02 19:31:13.816
47.0, 1889.2216823166236, 308.48003799514845, 1034.3067317456007, 2414.0287534487434, 0.0800000037997961, 0.06400000303983688, 1.008000047877431, 0.0, 0.0, 0.0, 0.0, 0.0, 1.638495073816045E9, 0.0, 2021-12-02 19:31:13.816
48.0, 1898.818265602924, 307.40294680790976, 1034.2244539465755, 2412.6375106652267, 0.0800000037997961, 0.06400000303983688, 1.008000047877431, 0.0, 0.0, 0.0, 0.0, 0.0, 1.6384950738313663E9, 0.0, 2021-12-02 19:31:13.831
48.0, 1902.4010897604749, 322.5345820286311, 1046.569863700308, 2409.6381109007634, 0.0800000037997961, 0.06400000303983688, 1.008000047877431, 0.0, 0.0, 0.0, 0.0, 0.0, 1.6384950738313663E9, 0.0, 2021-12-02 19:31:13.831
49.0, 1903.7661532443017, 304.99445123644546, 1033.6859083529562, 2415.5920316302218, 0.0800000037997961, 0.06400000303983688, 1.008000047877431, 0.0, 0.0, 0.0, 0.0, 0.0, 1.6384950738320029E9, 0.0, 2021-12-02 19:31:13.832
49.0, 1916.8146641897038, 304.3063096445985, 1031.662622476928, 2409.1294845067896, 0.0800000037997961, 0.06400000303983688, 1.008000047877431, 0.0, 0.0, 0.0, 0.0, 0.0, 1.6384950738320029E9, 0.0, 2021-12-02 19:31:13.832
50.0, 1920.3600893476978, 312.22367785079405, 1038.3869625972584, 2418.8158253920265, 0.0800000037997961, 0.06400000303983688, 1.008000047877431, 0.0, 0.0, 0.0, 0.0, 0.0, 1.6384950738463879E9, 0.0, 2021-12-02 19:31:13.846
50.0, 1939.53455642052, 310.4210460721515, 1038.1326494002715, 2418.168822699692, 0.0800000037997961, 0.06400000303983688, 1.008000047877431, 0.0, 0.0, 0.0, 0.0, 0.0, 1.6384950738463879E9, 0.0, 2021-12-02 19:31:13.846
51.0, 1947.4594044266269, 307.9414924015291, 1038.6674550939351, 2423.0456522419117, 0.0800000037997961, 0.06400000303983688, 1.008000047877431, 0.0, 0.0, 0.0, 0.0, 0.0, 1.6384950738470695E9, 0.0, 2021-12-02 19:31:13.847
51.0, 1945.87742674537, 303.3414154560305, 1033.5101330550388, 2420.315525274258, 0.0800000037997961, 0.06400000303983688, 1.008000047877431, 0.0, 0.0, 0.0, 0.0, 0.0, 1.6384950738470695E9, 0.0, 2021-12-02 19:31:13.847
52.0, 1950.0212358962744, 312.5714885466732, 1046.0537575064227, 2424.986660318915, 0.0800000037997961, 0.06400000303983688, 1.008000047877431, 0.0, 0.0, 0.0, 0.0, 0.0, 1.6384950738606944E9, 0.0, 2021-12-02 19:31:13.860
52.0, 1958.3425132976845, 312.7921426440589, 1044.5353581244126, 2427.7541862861253, 0.0800000037997961, 0.06400000303983688, 1.008000047877431, 0.0, 0.0, 0.0, 0.0, 0.0, 1.6384950738606944E9, 0.0, 2021-12-02 19:31:13.860
53.0, 1963.6344717349857, 317.9569444828667, 1046.1996136046946, 2412.6150712654926, 0.0800000037997961, 0.06400000303983688, 1.008000047877431, 0.0, 0.0, 0.0, 0.0, 0.0, 1.63849507387631E9, 0.0, 2021-12-02 19:31:13.876
53.0, 1979.7048218445852, 319.1237932690419, 1051.4953119419515, 2429.231446768623, 0.0800000037997961, 0.06400000303983688, 1.008000047877431, 0.0, 0.0, 0.0, 0.0, 0.0, 1.63849507387631E9, 0.0, 2021-12-02 19:31:13.876
54.0, 1975.2730403970927, 320.9152053478174, 1052.923953725025, 2424.515432924498, 0.0800000037997961, 0.06400000303983688, 1.008000047877431, 0.0, 0.0, 0.0, 0.0, 0.0, 1.6384950738770986E9, 0.0, 2021-12-02 19:31:13.877
54.0, 1969.468715665862, 312.10400105221197, 1045.8031842093915, 2426.976287095342, 0.0800000037997961, 0.06400000303983688, 1.008000047877431, 0.0, 0.0, 0.0, 0.0, 0.0, 1.6384950738770986E9, 0.0, 2021-12-02 19:31:13.877
55.0, 1996.362336247228, 329.0906266509555, 1058.75071785599, 2444.2134859911166, 0.0800000037997961, 0.06400000303983688, 1.008000047877431, 0.0, 0.0, 0.0, 0.0, 0.0, 1.6384950738906004E9, 0.0, 2021-12-02 19:31:13.890
55.0, 1988.1756952442229, 325.78081519016996, 1062.3634612131864, 2456.1699461494572, 0.0800000037997961, 0.06400000303983688, 1.008000047877431, 0.0, 0.0, 0.0, 0.0, 0.0, 1.6384950738906004E9, 0.0, 2021-12-02 19:31:13.890
56.0, 1965.8896314082667, 321.96237733541057, 1048.0321645829827, 2442.111662216019, 0.0800000037997961, 0.06400000303983688, 1.008000047877431, 0.0, 0.0, 0.0, 0.0, 0.0, 1.6384950739063067E9, 0.0, 2021-12-02 19:31:13.906
56.0, 1970.7926402501762, 330.2051168377511, 1059.3939806483686, 2447.369961553719, 0.0800000037997961, 0.06400000303983688, 1.008000047877431, 0.0, 0.0, 0.0, 0.0, 0.0, 1.6384950739063067E9, 0.0, 2021-12-02 19:31:13.906
57.0, 1987.9774805465713, 335.6990298726596, 1069.207478132099, 2453.6455136793666, 0.0800000037997961, 0.06400000303983688, 1.008000047877431, 0.0, 0.0, 0.0, 0.0, 0.0, 1.638495073906973E9, 0.0, 2021-12-02 19:31:13.906
57.0, 1974.0725325113162, 327.6507651680149, 1059.244384650141, 2443.6113620982505, 0.0800000037997961, 0.06400000303983688, 1.008000047877431, 0.0, 0.0, 0.0, 0.0, 0.0, 1.638495073906973E9, 0.0, 2021-12-02 19:31:13.906
58.0, 1953.6190196536481, 324.62892600381747, 1056.12156818714, 2423.98436713079, 0.0800000037997961, 0.06400000303983688, 1.008000047877431, 0.0, 0.0, 0.0, 0.0, 0.0, 1.6384950739206595E9, 0.0, 2021-12-02 19:31:13.920
58.0, 1954.1052066478878, 322.78889522561803, 1055.0781360995024, 2423.6515160347335, 0.0800000037997961, 0.06400000303983688, 1.008000047877431, 0.0, 0.0, 0.0, 0.0, 0.0, 1.6384950739206595E9, 0.0, 2021-12-02 19:31:13.920
59.0, 1958.7763416925445, 318.74232347356156, 1053.8514489140362, 2433.356556419749, 0.0800000037997961, 0.06400000303983688, 1.008000047877431, 0.0, 0.0, 0.0, 0.0, 0.0, 1.63849507393628E9, 0.0, 2021-12-02 19:31:13.936
59.0, 1949.7594428993762, 314.3629006254487, 1049.307470467873, 2416.519526819233, 0.0800000037997961, 0.06400000303983688, 1.008000047877431, 0.0, 0.0, 0.0, 0.0, 0.0, 1.63849507393628E9, 0.0, 2021-12-02 19:31:13.936
60.0, 1951.2666225815192, 312.2012384510599, 1052.7369587272406, 2424.8445441205986, 0.0800000037997961, 0.06400000303983688, 1.008000047877431, 0.0, 0.0, 0.0, 0.0, 0.0, 1.6384950739371104E9, 0.0, 2021-12-02 19:31:13.937
60.0, 1940.8771805046126, 313.77573633240536, 1050.5229379534721, 2430.9218815485947, 0.0800000037997961, 0.06400000303983688, 1.008000047877431, 0.0, 0.0, 0.0, 0.0, 0.0, 1.6384950739371104E9, 0.0, 2021-12-02 19:31:13.937
61.0, 1949.4078923035413, 319.351927166339, 1051.162460845895, 2435.873509089928, 0.0800000037997961, 0.06400000303983688, 1.008000047877431, 0.0, 0.0, 0.0, 0.0, 0.0, 1.638495073950626E9, 0.0, 2021-12-02 19:31:13.950
61.0, 1962.4451835490763, 319.59128076350316, 1046.2145732045174, 2428.56574457651, 0.0800000037997961, 0.06400000303983688, 1.008000047877431, 0.0, 0.0, 0.0, 0.0, 0.0, 1.638495073950626E9, 0.0, 2021-12-02 19:31:13.950
62.0, 1956.6184194181114, 320.0288490583189, 1050.6949733514339, 2421.3963563614525, 0.0800000037997961, 0.06400000303983688, 1.008000047877431, 0.0, 0.0, 0.0, 0.0, 0.0, 1.6384950739662812E9, 0.0, 2021-12-02 19:31:13.966
62.0, 1959.288707986474, 307.07757551176473, 1040.1110564768314, 2411.261227481533, 0.0800000037997961, 0.06400000303983688, 1.008000047877431, 0.0, 0.0, 0.0, 0.0, 0.0, 1.6384950739662812E9, 0.0, 2021-12-02 19:31:13.966
63.0, 1956.9176114145666, 306.2286182218231, 1034.8602369390428, 2404.5144479614682, 0.0800000037997961, 0.06400000303983688, 1.008000047877431, 0.0, 0.0, 0.0, 0.0, 0.0, 1.638495073967024E9, 0.0, 2021-12-02 19:31:13.967
63.0, 1959.8459530798718, 314.54989562323317, 1040.3878090735525, 2416.4896076195873, 0.0800000037997961, 0.06400000303983688, 1.008000047877431, 0.0, 0.0, 0.0, 0.0, 0.0, 1.638495073967024E9, 0.0, 2021-12-02 19:31:13.967
64.0, 1954.1014667479321, 305.14778713462874, 1028.816558610648, 2403.7402886706404, 0.0800000037997961, 0.06400000303983688, 1.008000047877431, 0.0, 0.0, 0.0, 0.0, 0.0, 1.6384950740134757E9, 0.0, 2021-12-02 19:31:14.013
64.0, 1952.8785194624215, 298.2813308159821, 1023.737774470821, 2395.374132469762, 0.0800000037997961, 0.06400000303983688, 1.008000047877431, 0.0, 0.0, 0.0, 0.0, 0.0, 1.6384950740134757E9, 0.0, 2021-12-02 19:31:14.013
65.0, 1973.219835321419, 304.92339313728735, 1029.0783516075462, 2392.744982800912, 0.0800000037997961, 0.06400000303983688, 1.008000047877431, 0.0, 0.0, 0.0, 0.0, 0.0, 1.6384950740142615E9, 0.0, 2021-12-02 19:31:14.014
65.0, 1969.9249834604561, 299.92688679648563, 1024.6839691596106, 2406.9341632327996, 0.0800000037997961, 0.06400000303983688, 1.008000047877431, 0.0, 0.0, 0.0, 0.0, 0.0, 1.6384950740142615E9, 0.0, 2021-12-02 19:31:14.014
66.0, 1961.2446756632999, 296.94992643175647, 1021.7107486948371, 2398.9382571275346, 0.0800000037997961, 0.06400000303983688, 1.008000047877431, 0.0, 0.0, 0.0, 0.0, 0.0, 1.6384950740149765E9, 0.0, 2021-12-02 19:31:14.014
66.0, 1962.9164109434932, 296.99854513118044, 1024.642830260098, 2397.618072443176, 0.0800000037997961, 0.06400000303983688, 1.008000047877431, 0.0, 0.0, 0.0, 0.0, 0.0, 1.6384950740149765E9, 0.0, 2021-12-02 19:31:14.014
67.0, 1966.1177653055638, 292.46952628483996, 1026.4454620387405, 2393.1601116959937, 0.0800000037997961, 0.06400000303983688, 1.008000047877431, 0.0, 0.0, 0.0, 0.0, 0.0, 1.6384950740155823E9, 0.0, 2021-12-02 19:31:14.015
67.0, 1959.2326094871387, 284.4100418803282, 1017.0508333500475, 2387.3483071648516, 0.0800000037997961, 0.06400000303983688, 1.008000047877431, 0.0, 0.0, 0.0, 0.0, 0.0, 1.6384950740155823E9, 0.0, 2021-12-02 19:31:14.015
68.0, 1962.5312012480572, 286.10047666030005, 1014.6311180787161, 2388.862966646906, 0.0800000037997961, 0.06400000303983688, 1.008000047877431, 0.0, 0.0, 0.0, 0.0, 0.0, 1.6384950740264096E9, 0.0, 2021-12-02 19:31:14.026
68.0, 1979.9179961420596, 288.02278523752466, 1026.5875782370567, 2393.182551095728, 0.0800000037997961, 0.06400000303983688, 1.008000047877431, 0.0, 0.0, 0.0, 0.0, 0.0, 1.6384950740264096E9, 0.0, 2021-12-02 19:31:14.026
69.0, 1966.4842755012214, 294.39931466197595, 1024.0070472676307, 2395.594786567148, 0.0800000037997961, 0.06400000303983688, 1.008000047877431, 0.0, 0.0, 0.0, 0.0, 0.0, 1.6384950740271082E9, 0.0, 2021-12-02 19:31:14.027
69.0, 1962.1534713525325, 294.84062285674736, 1027.4215759271756, 2389.756802736316, 0.0800000037997961, 0.06400000303983688, 1.008000047877431, 0.0, 0.0, 0.0, 0.0, 0.0, 1.6384950740271082E9, 0.0, 2021-12-02 19:31:14.027
70.0, 1961.21849636361, 292.39098838577047, 1024.582991860807, 2395.433970869053, 0.0800000037997961, 0.06400000303983688, 1.008000047877431, 0.0, 0.0, 0.0, 0.0, 0.0, 1.638495074074032E9, 0.0, 2021-12-02 19:31:14.074
70.0, 1973.376911119558, 298.44214651407674, 1030.2078013941646, 2399.1215122253634, 0.0800000037997961, 0.06400000303983688, 1.008000047877431, 0.0, 0.0, 0.0, 0.0, 0.0, 1.638495074074032E9, 0.0, 2021-12-02 19:31:14.074
71.0, 1975.4450757950544, 294.47037276113406, 1027.4664547266439, 2387.041635368485, 0.0800000037997961, 0.06400000303983688, 1.008000047877431, 0.0, 0.0, 0.0, 0.0, 0.0, 1.638495074074786E9, 0.0, 2021-12-02 19:31:14.074
71.0, 1956.0349950250238, 295.158514352981, 1025.304792552255, 2388.8480070470832, 0.0800000037997961, 0.06400000303983688, 1.008000047877431, 0.0, 0.0, 0.0, 0.0, 0.0, 1.638495074074786E9, 0.0, 2021-12-02 19:31:14.074
72.0, 1978.9082231540233, 293.9654862671159, 1029.3887633038685, 2403.5458138729446, 0.0800000037997961, 0.06400000303983688, 1.008000047877431, 0.0, 0.0, 0.0, 0.0, 0.0, 1.6384950740755827E9, 0.0, 2021-12-02 19:31:14.075
72.0, 1966.271101203747, 277.16585566615686, 1012.4357968047261, 2383.7654830073006, 0.0800000037997961, 0.06400000303983688, 1.008000047877431, 0.0, 0.0, 0.0, 0.0, 0.0, 1.6384950740755827E9, 0.0, 2021-12-02 19:31:14.075
73.0, 1958.817480592057, 282.2932585054077, 1018.2214220361784, 2381.1886919378303, 0.0800000037997961, 0.06400000303983688, 1.008000047877431, 0.0, 0.0, 0.0, 0.0, 0.0, 1.638495074076394E9, 0.0, 2021-12-02 19:31:14.076
73.0, 1963.63073183503, 290.76413190504536, 1023.3899637749419, 2389.1322394437157, 0.0800000037997961, 0.06400000303983688, 1.008000047877431, 0.0, 0.0, 0.0, 0.0, 0.0, 1.638495074076394E9, 0.0, 2021-12-02 19:31:14.076
74.0, 1973.073979223147, 283.4451476917602, 1018.2924801353365, 2374.03052342264, 0.0800000037997961, 0.06400000303983688, 1.008000047877431, 0.0, 0.0, 0.0, 0.0, 0.0, 1.6384950740863984E9, 0.0, 2021-12-02 19:31:14.086
74.0, 1973.6574036162347, 279.97452053288, 1004.9971357928589, 2383.6009274092503, 0.0800000037997961, 0.06400000303983688, 1.008000047877431, 0.0, 0.0, 0.0, 0.0, 0.0, 1.6384950740863984E9, 0.0, 2021-12-02 19:31:14.086
75.0, 1963.9897622307763, 286.9793531498872, 1013.5315874917433, 2374.87200091267, 0.0800000037997961, 0.06400000303983688, 1.008000047877431, 0.0, 0.0, 0.0, 0.0, 0.0, 1.6384950740870426E9, 0.0, 2021-12-02 19:31:14.087
75.0, 1982.9360954063013, 280.28867212915793, 1010.8052004240453, 2376.9887842875905, 0.0800000037997961, 0.06400000303983688, 1.008000047877431, 0.0, 0.0, 0.0, 0.0, 0.0, 1.6384950740870426E9, 0.0, 2021-12-02 19:31:14.087
76.0, 1980.3742639366537, 271.1034778379835, 996.3654466951266, 2367.0855292049237, 0.0800000037997961, 0.06400000303983688, 1.008000047877431, 0.0, 0.0, 0.0, 0.0, 0.0, 1.6384950741005297E9, 0.0, 2021-12-02 19:31:14.100
76.0, 1986.8442908599973, 269.8842704524286, 999.6079399567097, 2351.2881917920895, 0.0800000037997961, 0.06400000303983688, 1.008000047877431, 0.0, 0.0, 0.0, 0.0, 0.0, 1.6384950741005297E9, 0.0, 2021-12-02 19:31:14.100
77.0, 2002.0656836796552, 274.01685990346596, 1015.6221915669739, 2381.4878839342855, 0.0800000037997961, 0.06400000303983688, 1.008000047877431, 0.0, 0.0, 0.0, 0.0, 0.0, 1.638495074131137E9, 0.0, 2021-12-02 19:31:14.131
77.0, 1999.0550642153248, 252.8041473547928, 979.7715105917305, 2354.661581552122, 0.0800000037997961, 0.06400000303983688, 1.008000047877431, 0.0, 0.0, 0.0, 0.0, 0.0, 1.638495074131137E9, 0.0, 2021-12-02 19:31:14.131
78.0, 2002.2414589775726, 251.34184647211805, 979.0310104005039, 2356.325837032404, 0.0800000037997961, 0.06400000303983688, 1.008000047877431, 0.0, 0.0, 0.0, 0.0, 0.0, 1.6384950741477425E9, 0.0, 2021-12-02 19:31:14.147
78.0, 2029.011662860401, 251.82055366644636, 979.3264624970034, 2360.2714314856566, 0.0800000037997961, 0.06400000303983688, 1.008000047877431, 0.0, 0.0, 0.0, 0.0, 0.0, 1.6384950741477425E9, 0.0, 2021-12-02 19:31:14.147
79.0, 2051.3762645954266, 247.22421662090346, 978.1558738108724, 2358.640835104976, 0.0800000037997961, 0.06400000303983688, 1.008000047877431, 0.0, 0.0, 0.0, 0.0, 0.0, 1.638495074148456E9, 0.0, 2021-12-02 19:31:14.148
79.0, 2059.510546999052, 227.69819895224646, 964.7333728699014, 2363.4241671483032, 0.0800000037997961, 0.06400000303983688, 1.008000047877431, 0.0, 0.0, 0.0, 0.0, 0.0, 1.638495074148456E9, 0.0, 2021-12-02 19:31:14.148
80.0, 2071.6166031556204, 236.77493614470586, 966.1956737525761, 2373.1030282336287, 0.0800000037997961, 0.06400000303983688, 1.008000047877431, 0.0, 0.0, 0.0, 0.0, 0.0, 1.6384950741491592E9, 0.0, 2021-12-02 19:31:14.149
80.0, 2078.352162975818, 233.29308928595856, 963.4618068849668, 2368.09530219296, 0.0800000037997961, 0.06400000303983688, 1.008000047877431, 0.0, 0.0, 0.0, 0.0, 0.0, 1.6384950741491592E9, 0.0, 2021-12-02 19:31:14.149
81.0, 2069.365183382295, 226.02272377209738, 950.8508642343804, 2339.559865531046, 0.0800000037997961, 0.06400000303983688, 1.008000047877431, 0.0, 0.0, 0.0, 0.0, 0.0, 1.638495074149859E9, 0.0, 2021-12-02 19:31:14.149
81.0, 2044.0572803821415, 226.1311808708124, 951.7521801237017, 2344.058965177741, 0.0800000037997961, 0.06400000303983688, 1.008000047877431, 0.0, 0.0, 0.0, 0.0, 0.0, 1.638495074149859E9, 0.0, 2021-12-02 19:31:14.149
82.0, 2013.4200199451298, 222.47355871414766, 948.1730958661065, 2341.467214508448, 0.0800000037997961, 0.06400000303983688, 1.008000047877431, 0.0, 0.0, 0.0, 0.0, 0.0, 1.6384950741605985E9, 0.0, 2021-12-02 19:31:14.160
82.0, 2012.8552950518206, 203.84137713490054, 930.0121416812763, 2316.727776301559, 0.0800000037997961, 0.06400000303983688, 1.008000047877431, 0.0, 0.0, 0.0, 0.0, 0.0, 1.6384950741605985E9, 0.0, 2021-12-02 19:31:14.160
83.0, 2020.6754258591682, 200.32961107650772, 918.9233383126557, 2301.0426358873956, 0.0800000037997961, 0.06400000303983688, 1.008000047877431, 0.0, 0.0, 0.0, 0.0, 0.0, 1.638495074176258E9, 0.0, 2021-12-02 19:31:14.176
83.0, 2018.0275766905397, 190.91254298808053, 909.6521263225004, 2297.527129929047, 0.0800000037997961, 0.06400000303983688, 1.008000047877431, 0.0, 0.0, 0.0, 0.0, 0.0, 1.638495074176258E9, 0.0, 2021-12-02 19:31:14.176
84.0, 2014.0782423373312, 174.71503627998754, 900.3397754328325, 2281.9280072138645, 0.0800000037997961, 0.06400000303983688, 1.008000047877431, 0.0, 0.0, 0.0, 0.0, 0.0, 1.6384950741769736E9, 0.0, 2021-12-02 19:31:14.176
84.0, 2014.3736944338307, 181.22994200279936, 908.7919493326917, 2301.289469284471, 0.0800000037997961, 0.06400000303983688, 1.008000047877431, 0.0, 0.0, 0.0, 0.0, 0.0, 1.6384950741769736E9, 0.0, 2021-12-02 19:31:14.176
85.0, 2014.732724829577, 199.90700238151476, 927.1548581151292, 2323.6316316197626, 0.0800000037997961, 0.06400000303983688, 1.008000047877431, 0.0, 0.0, 0.0, 0.0, 0.0, 1.638495074190653E9, 0.0, 2021-12-02 19:31:14.190
85.0, 2047.6401045396924, 210.73401275323704, 938.1651235846803, 2331.7285150238313, 0.0800000037997961, 0.06400000303983688, 1.008000047877431, 0.0, 0.0, 0.0, 0.0, 0.0, 1.638495074190653E9, 0.0, 2021-12-02 19:31:14.190
86.0, 2056.0062607405707, 202.82786424690858, 923.8562663542107, 2325.7409351947717, 0.0800000037997961, 0.06400000303983688, 1.008000047877431, 0.0, 0.0, 0.0, 0.0, 0.0, 1.638495074206373E9, 0.0, 2021-12-02 19:31:14.206
86.0, 2035.7210433809087, 204.8922890224494, 928.5834998982027, 2311.7798886601813, 0.0800000037997961, 0.06400000303983688, 1.008000047877431, 0.0, 0.0, 0.0, 0.0, 0.0, 1.638495074206373E9, 0.0, 2021-12-02 19:31:14.206
87.0, 2051.7502545909956, 205.23635981837288, 939.1973359724507, 2323.6353715197183, 0.0800000037997961, 0.06400000303983688, 1.008000047877431, 0.0, 0.0, 0.0, 0.0, 0.0, 1.6384950742069993E9, 0.0, 2021-12-02 19:31:14.206
87.0, 2040.9082846194506, 206.39198890468106, 936.8150197006762, 2318.825860176701, 0.0800000037997961, 0.06400000303983688, 1.008000047877431, 0.0, 0.0, 0.0, 0.0, 0.0, 1.6384950742069993E9, 0.0, 2021-12-02 19:31:14.206
88.0, 2053.9455758649856, 205.50937251513824, 938.759767677635, 2323.6316316197626, 0.0800000037997961, 0.06400000303983688, 1.008000047877431, 0.0, 0.0, 0.0, 0.0, 0.0, 1.6384950742206516E9, 0.0, 2021-12-02 19:31:14.220
88.0, 2062.9175958586857, 208.1198226842098, 939.1225379733369, 2340.0497924252413, 0.0800000037997961, 0.06400000303983688, 1.008000047877431, 0.0, 0.0, 0.0, 0.0, 0.0, 1.6384950742206516E9, 0.0, 2021-12-02 19:31:14.220
89.0, 2066.5041599161923, 208.85284307552502, 945.4018299989402, 2333.43016950367, 0.0800000037997961, 0.06400000303983688, 1.008000047877431, 0.0, 0.0, 0.0, 0.0, 0.0, 1.6384950742363284E9, 0.0, 2021-12-02 19:31:14.236
89.0, 2069.7840521773323, 204.94464762182906, 935.4050774173811, 2323.2576416241936, 0.0800000037997961, 0.06400000303983688, 1.008000047877431, 0.0, 0.0, 0.0, 0.0, 0.0, 1.6384950742363284E9, 0.0, 2021-12-02 19:31:14.236
90.0, 2080.1884538540617, 209.35024976963177, 944.4892944097519, 2340.356464221608, 0.0800000037997961, 0.06400000303983688, 1.008000047877431, 0.0, 0.0, 0.0, 0.0, 0.0, 1.6384950742370307E9, 0.0, 2021-12-02 19:31:14.237
90.0, 2093.6034749951214, 210.565717255231, 945.7234613951296, 2332.3755177161656, 0.0800000037997961, 0.06400000303983688, 1.008000047877431, 0.0, 0.0, 0.0, 0.0, 0.0, 1.6384950742370307E9, 0.0, 2021-12-02 19:31:14.237
91.0, 2080.8803353458643, 198.79999199463055, 935.7790674129501, 2328.4673222624697, 0.0800000037997961, 0.06400000303983688, 1.008000047877431, 0.0, 0.0, 0.0, 0.0, 0.0, 1.638495074250595E9, 0.0, 2021-12-02 19:31:14.250
91.0, 2080.4913857504725, 202.58851064974442, 931.8820916591212, 2330.647683936637, 0.0800000037997961, 0.06400000303983688, 1.008000047877431, 0.0, 0.0, 0.0, 0.0, 0.0, 1.638495074250595E9, 0.0, 2021-12-02 19:31:14.250
92.0, 2099.6658528232947, 207.18484769528732, 942.8736576288939, 2341.3699771096, 0.0800000037997961, 0.06400000303983688, 1.008000047877431, 0.0, 0.0, 0.0, 0.0, 0.0, 1.6384950742660148E9, 0.0, 2021-12-02 19:31:14.266
92.0, 2101.0496158069, 211.66150794224814, 939.616204767488, 2331.2909467290156, 0.0800000037997961, 0.06400000303983688, 1.008000047877431, 0.0, 0.0, 0.0, 0.0, 0.0, 1.6384950742660148E9, 0.0, 2021-12-02 19:31:14.266
93.0, 2067.9103622995317, 201.8180912588723, 928.0449543045834, 2310.6092999740504, 0.0800000037997961, 0.06400000303983688, 1.008000047877431, 0.0, 0.0, 0.0, 0.0, 0.0, 1.638495074281247E9, 0.0, 2021-12-02 19:31:14.281
93.0, 2085.383174892515, 204.68659452488646, 933.8006603363901, 2357.1261756229214, 0.0800000037997961, 0.06400000303983688, 1.008000047877431, 0.0, 0.0, 0.0, 0.0, 0.0, 1.638495074281247E9, 0.0, 2021-12-02 19:31:14.281
94.0, 2089.878534639254, 196.47003432223573, 922.4425841709599, 2334.529700090643, 0.0800000037997961, 0.06400000303983688, 1.008000047877431, 0.0, 0.0, 0.0, 0.0, 0.0, 1.6384950742821019E9, 0.0, 2021-12-02 19:31:14.282
94.0, 2097.032963254489, 197.61818360863253, 927.5251082107425, 2354.478326454293, 0.0800000037997961, 0.06400000303983688, 1.008000047877431, 0.0, 0.0, 0.0, 0.0, 0.0, 1.6384950742821019E9, 0.0, 2021-12-02 19:31:14.282
95.0, 2104.9765107603744, 209.14081537211314, 936.5307873040438, 2365.2567181265913, 0.0800000037997961, 0.06400000303983688, 1.008000047877431, 0.0, 0.0, 0.0, 0.0, 0.0, 1.63849507429627E9, 0.0, 2021-12-02 19:31:14.296
95.0, 2111.117426487617, 215.2667714995332, 944.1975822132081, 2370.399080565665, 0.0800000037997961, 0.06400000303983688, 1.008000047877431, 0.0, 0.0, 0.0, 0.0, 0.0, 1.63849507429627E9, 0.0, 2021-12-02 19:31:14.296
96.0, 2109.0642214119434, 209.6718811658211, 937.7013759901747, 2368.1626203921624, 0.0800000037997961, 0.06400000303983688, 1.008000047877431, 0.0, 0.0, 0.0, 0.0, 0.0, 1.638495074296998E9, 0.0, 2021-12-02 19:31:14.296
96.0, 2106.5921475412324, 215.99231209093705, 944.4780747098848, 2373.0244903345592, 0.0800000037997961, 0.06400000303983688, 1.008000047877431, 0.0, 0.0, 0.0, 0.0, 0.0, 1.638495074296998E9, 0.0, 2021-12-02 19:31:14.296
97.0, 2133.672763120383, 225.28222358087078, 956.4569742679596, 2381.3195884362794, 0.0800000037997961, 0.06400000303983688, 1.008000047877431, 0.0, 0.0, 0.0, 0.0, 0.0, 1.6384950743105938E9, 0.0, 2021-12-02 19:31:14.310
97.0, 2127.5430670930073, 225.84694847417995, 953.8540038987994, 2373.0431898343377, 0.0800000037997961, 0.06400000303983688, 1.008000047877431, 0.0, 0.0, 0.0, 0.0, 0.0, 1.6384950743105938E9, 0.0, 2021-12-02 19:31:14.310
98.0, 2113.3202275615185, 230.61532091768458, 959.5797907309607, 2379.804928954225, 0.0800000037997961, 0.06400000303983688, 1.008000047877431, 0.0, 0.0, 0.0, 0.0, 0.0, 1.638495074326232E9, 0.0, 2021-12-02 19:31:14.326
98.0, 2129.9889616640285, 232.60120779415593, 969.4007680146024, 2392.4719701041467, 0.0800000037997961, 0.06400000303983688, 1.008000047877431, 0.0, 0.0, 0.0, 0.0, 0.0, 1.638495074326232E9, 0.0, 2021-12-02 19:31:14.326
99.0, 2154.728399870917, 244.73718315036967, 968.0731035303324, 2390.02233563317, 0.0800000037997961, 0.06400000303983688, 1.008000047877431, 0.0, 0.0, 0.0, 0.0, 0.0, 1.638495074326977E9, 0.0, 2021-12-02 19:31:14.326
99.0, 2132.831285630353, 230.63402041746303, 959.0711643369868, 2369.7894768728875, 0.0800000037997961, 0.06400000303983688, 1.008000047877431, 0.0, 0.0, 0.0, 0.0, 0.0, 1.638495074326977E9, 0.0, 2021-12-02 19:31:14.326
100.0, 2138.9348023580387, 236.10549405263737, 974.8124032504857, 2383.963697704952, 0.0800000037997961, 0.06400000303983688, 1.008000047877431, 0.0, 0.0, 0.0, 0.0, 0.0, 1.6384950743414211E9, 0.0, 2021-12-02 19:31:14.341
100.0, 2167.42910012044, 238.88423971971497, 972.927493672818, 2381.1288535385393, 0.0800000037997961, 0.06400000303983688, 1.008000047877431, 0.0, 0.0, 0.0, 0.0, 0.0, 1.6384950743414211E9, 0.0, 2021-12-02 19:31:14.341
0.0, 2140.1558796935715, 239.06375491758808, 968.247008878272, 2381.2859293366782, 0.0800000037997961, 0.06400000303983688, 1.008000047877431, 0.0, 0.0, 0.0, 0.0, 0.0, 1.6384950743420374E9, 0.0, 2021-12-02 19:31:14.342
1.0, 2156.0990732046776, 243.1739049688913, 971.6989365373738, 2385.3212813888676, 0.0800000037997961, 0.06400000303983688, 1.008000047877431, 0.0, 0.0, 0.0, 0.0, 0.0, 1.6384950743555655E9, 0.0, 2021-12-02 19:31:14.355
1.0, 2159.494902364444, 244.7259634505026, 973.131318220403, 2382.8005888187326, 0.0800000037997961, 0.06400000303983688, 1.008000047877431, 0.0, 0.0, 0.0, 0.0, 0.0, 1.6384950743555655E9, 0.0, 2021-12-02 19:31:14.355
2.0, 2154.599373322446, 239.07497461745515, 968.8079938716255, 2370.638434162829, 0.0800000037997961, 0.06400000303983688, 1.008000047877431, 0.0, 0.0, 0.0, 0.0, 0.0, 1.6384950743713224E9, 0.0, 2021-12-02 19:31:14.371
2.0, 2165.213209396694, 243.18138476880267, 972.431956928689, 2376.394140194636, 0.0800000037997961, 0.06400000303983688, 1.008000047877431, 0.0, 0.0, 0.0, 0.0, 0.0, 1.6384950743713224E9, 0.0, 2021-12-02 19:31:14.371
3.0, 2160.5645137517713, 240.64199269888923, 975.7230688896962, 2367.1117085046135, 0.0800000037997961, 0.06400000303983688, 1.008000047877431, 0.0, 0.0, 0.0, 0.0, 0.0, 1.638495074371996E9, 0.0, 2021-12-02 19:31:14.371
3.0, 2172.906183605548, 248.544401305262, 980.3455852349289, 2383.2007581139915, 0.0800000037997961, 0.06400000303983688, 1.008000047877431, 0.0, 0.0, 0.0, 0.0, 0.0, 1.638495074371996E9, 0.0, 2021-12-02 19:31:14.371
4.0, 2162.5017819288187, 243.03552867053077, 972.1776437317021, 2386.7798423715867, 0.0800000037997961, 0.06400000303983688, 1.008000047877431, 0.0, 0.0, 0.0, 0.0, 0.0, 1.638495074385538E9, 0.0, 2021-12-02 19:31:14.385
4.0, 2157.6698311860673, 250.1787375858985, 978.7598676537164, 2397.90978463972, 0.0800000037997961, 0.06400000303983688, 1.008000047877431, 0.0, 0.0, 0.0, 0.0, 0.0, 1.638495074385538E9, 0.0, 2021-12-02 19:31:14.385
5.0, 2176.7807199596427, 260.6317579620518, 986.0564124672674, 2392.528068603482, 0.0800000037997961, 0.06400000303983688, 1.008000047877431, 0.0, 0.0, 0.0, 0.0, 0.0, 1.6384950744013348E9, 0.0, 2021-12-02 19:31:14.401
5.0, 2172.1881228140555, 254.5880796336569, 977.2339884717949, 2391.9932629098184, 0.0800000037997961, 0.06400000303983688, 1.008000047877431, 0.0, 0.0, 0.0, 0.0, 0.0, 1.6384950744013348E9, 0.0, 2021-12-02 19:31:14.401
6.0, 2153.3839058368467, 255.9942820169963, 980.4203832340427, 2387.8905926584266, 0.0800000037997961, 0.06400000303983688, 1.008000047877431, 0.0, 0.0, 0.0, 0.0, 0.0, 1.6384950744019947E9, 0.0, 2021-12-02 19:31:14.401
6.0, 2138.5402429127134, 252.15714466245845, 983.5581592968665, 2398.766221729573, 0.0800000037997961, 0.06400000303983688, 1.008000047877431, 0.0, 0.0, 0.0, 0.0, 0.0, 1.6384950744019947E9, 0.0, 2021-12-02 19:31:14.401
7.0, 2146.2818358209915, 248.26016890862957, 980.0351735386066, 2384.6144402972423, 0.0800000037997961, 0.06400000303983688, 1.008000047877431, 0.0, 0.0, 0.0, 0.0, 0.0, 1.638495074431992E9, 0.0, 2021-12-02 19:31:14.431
7.0, 2127.9264068384655, 256.0316810165532, 987.5224532498978, 2390.613239826169, 0.0800000037997961, 0.06400000303983688, 1.008000047877431, 0.0, 0.0, 0.0, 0.0, 0.0, 1.638495074431992E9, 0.0, 2021-12-02 19:31:14.431
8.0, 2126.13499475969, 256.8881181064062, 992.4965201909654, 2394.9103848752566, 0.0800000037997961, 0.06400000303983688, 1.008000047877431, 0.0, 0.0, 0.0, 0.0, 0.0, 1.6384950744327428E9, 0.0, 2021-12-02 19:31:14.432
8.0, 2122.877541898284, 257.5874793981202, 988.8613374340348, 2392.6589651019312, 0.0800000037997961, 0.06400000303983688, 1.008000047877431, 0.0, 0.0, 0.0, 0.0, 0.0, 1.6384950744327428E9, 0.0, 2021-12-02 19:31:14.432
9.0, 2135.709138646256, 248.47708310605958, 983.8872704929672, 2383.638326408807, 0.0800000037997961, 0.06400000303983688, 1.008000047877431, 0.0, 0.0, 0.0, 0.0, 0.0, 1.6384950744334784E9, 0.0, 2021-12-02 19:31:14.433
9.0, 2122.133301807102, 254.27766793733463, 985.2822531764396, 2392.483189804014, 0.0800000037997961, 0.06400000303983688, 1.008000047877431, 0.0, 0.0, 0.0, 0.0, 0.0, 1.6384950744334784E9, 0.0, 2021-12-02 19:31:14.433
10.0, 2132.9116934794, 256.57396651012823, 989.8823301219381, 2398.186537236441, 0.0800000037997961, 0.06400000303983688, 1.008000047877431, 0.0, 0.0, 0.0, 0.0, 0.0, 1.6384950744455569E9, 0.0, 2021-12-02 19:31:14.445
10.0, 2120.405468027573, 245.058814546559, 974.3393059060909, 2377.2430974845774, 0.0800000037997961, 0.06400000303983688, 1.008000047877431, 0.0, 0.0, 0.0, 0.0, 0.0, 1.6384950744455569E9, 0.0, 2021-12-02 19:31:14.445
11.0, 2102.121097144205, 253.63814504491165, 991.1950350063853, 2381.989030528348, 0.0800000037997961, 0.06400000303983688, 1.008000047877431, 0.0, 0.0, 0.0, 0.0, 0.0, 1.6384950744614758E9, 0.0, 2021-12-02 19:31:14.461
11.0, 2121.5461375140585, 269.626217355486, 1000.4400676968507, 2388.840527247172, 0.0800000037997961, 0.06400000303983688, 1.008000047877431, 0.0, 0.0, 0.0, 0.0, 0.0, 1.6384950744614758E9, 0.0, 2021-12-02 19:31:14.461
12.0, 2138.2373110163026, 274.42450899863616, 1002.4109949734993, 2390.7291767247953, 0.0800000037997961, 0.06400000303983688, 1.008000047877431, 0.0, 0.0, 0.0, 0.0, 0.0, 1.638495074461985E9, 0.0, 2021-12-02 19:31:14.461
12.0, 2127.137287947815, 260.63549786200747, 998.2858853223734, 2385.7925087832846, 0.0800000037997961, 0.06400000303983688, 1.008000047877431, 0.0, 0.0, 0.0, 0.0, 0.0, 1.638495074461985E9, 0.0, 2021-12-02 19:31:14.461
13.0, 2129.0259374254383, 268.335951870773, 1013.6344347405247, 2406.7172490353696, 0.0800000037997961, 0.06400000303983688, 1.008000047877431, 0.0, 0.0, 0.0, 0.0, 0.0, 1.6384950744755993E9, 0.0, 2021-12-02 19:31:14.475
13.0, 2129.654240617994, 281.4779603150673, 1014.0607833354734, 2386.764882771764, 0.0800000037997961, 0.06400000303983688, 1.008000047877431, 0.0, 0.0, 0.0, 0.0, 0.0, 1.6384950744755993E9, 0.0, 2021-12-02 19:31:14.475
14.0, 2131.9654987906106, 270.9576217397116, 1005.0251850425266, 2378.2341709728353, 0.0800000037997961, 0.06400000303983688, 1.008000047877431, 0.0, 0.0, 0.0, 0.0, 0.0, 1.638495074491302E9, 0.0, 2021-12-02 19:31:14.491
14.0, 2128.9847985259257, 274.776059594471, 1006.6670011230744, 2372.848715036642, 0.0800000037997961, 0.06400000303983688, 1.008000047877431, 0.0, 0.0, 0.0, 0.0, 0.0, 1.638495074491302E9, 0.0, 2021-12-02 19:31:14.491
15.0, 2134.6769262584858, 272.8200919176452, 1010.350802579429, 2385.5793344858103, 0.0800000037997961, 0.06400000303983688, 1.008000047877431, 0.0, 0.0, 0.0, 0.0, 0.0, 1.6384950744920435E9, 0.0, 2021-12-02 19:31:14.492
15.0, 2126.8904545507394, 262.7261019372381, 1004.8082708450966, 2385.7588496836834, 0.0800000037997961, 0.06400000303983688, 1.008000047877431, 0.0, 0.0, 0.0, 0.0, 0.0, 1.6384950744920435E9, 0.0, 2021-12-02 19:31:14.492
16.0, 2128.004944737535, 270.49761404516175, 1003.2973512629978, 2391.5706542148255, 0.0800000037997961, 0.06400000303983688, 1.008000047877431, 0.0, 0.0, 0.0, 0.0, 0.0, 1.6384950745056305E9, 0.0, 2021-12-02 19:31:14.505
16.0, 2150.893132466357, 284.1856478829868, 1011.1174820703454, 2402.633278283756, 0.0800000037997961, 0.06400000303983688, 1.008000047877431, 0.0, 0.0, 0.0, 0.0, 0.0, 1.6384950745056305E9, 0.0, 2021-12-02 19:31:14.505
17.0, 2140.907599584665, 270.4041165462695, 1005.7843847335316, 2398.6353252311237, 0.0800000037997961, 0.06400000303983688, 1.008000047877431, 0.0, 0.0, 0.0, 0.0, 0.0, 1.63849507452131E9, 0.0, 2021-12-02 19:31:14.521
17.0, 2135.59320174763, 266.93722928734496, 1013.4586594426073, 2395.508768868167, 0.0800000037997961, 0.06400000303983688, 1.008000047877431, 0.0, 0.0, 0.0, 0.0, 0.0, 1.63849507452131E9, 0.0, 2021-12-02 19:31:14.521
18.0, 2126.4042675564997, 273.6615694076754, 1008.1629611053504, 2405.9468296444975, 0.0800000037997961, 0.06400000303983688, 1.008000047877431, 0.0, 0.0, 0.0, 0.0, 0.0, 1.6384950745220025E9, 0.0, 2021-12-02 19:31:14.522
18.0, 2142.407299466897, 276.2645397768356, 1008.963299695868, 2399.521681520622, 0.0800000037997961, 0.06400000303983688, 1.008000047877431, 0.0, 0.0, 0.0, 0.0, 0.0, 1.6384950745220025E9, 0.0, 2021-12-02 19:31:14.522
19.0, 2146.6446061166935, 269.0390530624427, 1000.9524339907803, 2390.770315624308, 0.0800000037997961, 0.06400000303983688, 1.008000047877431, 0.0, 0.0, 0.0, 0.0, 0.0, 1.6384950745510426E9, 0.0, 2021-12-02 19:31:14.551
19.0, 2144.647499540355, 279.9595609330572, 1012.9500330486335, 2396.858872752171, 0.0800000037997961, 0.06400000303983688, 1.008000047877431, 0.0, 0.0, 0.0, 0.0, 0.0, 1.6384950745510426E9, 0.0, 2021-12-02 19:31:14.551
20.0, 2152.377872748766, 283.42644819198176, 1015.6913797161542, 2403.6206118720584, 0.0800000037997961, 0.06400000303983688, 1.008000047877431, 0.0, 0.0, 0.0, 0.0, 0.0, 1.6384950745667205E9, 0.0, 2021-12-02 19:31:14.566
20.0, 2141.2441905806772, 279.35743704019114, 1009.3971280907281, 2390.587060526479, 0.0800000037997961, 0.06400000303983688, 1.008000047877431, 0.0, 0.0, 0.0, 0.0, 0.0, 1.6384950745667205E9, 0.0, 2021-12-02 19:31:14.566
21.0, 2136.337441838812, 274.6227236962877, 1008.4883324014954, 2390.4486842281185, 0.0800000037997961, 0.06400000303983688, 1.008000047877431, 0.0, 0.0, 0.0, 0.0, 0.0, 1.638495074567438E9, 0.0, 2021-12-02 19:31:14.567
21.0, 2140.814102085773, 283.03001879667863, 1017.0190442004241, 2388.6497923494317, 0.0800000037997961, 0.06400000303983688, 1.008000047877431, 0.0, 0.0, 0.0, 0.0, 0.0, 1.638495074567438E9, 0.0, 2021-12-02 19:31:14.567
22.0, 2148.8287076908164, 274.7797994944267, 1005.9751196312718, 2399.570300220046, 0.0800000037997961, 0.06400000303983688, 1.008000047877431, 0.0, 0.0, 0.0, 0.0, 0.0, 1.638495074581961E9, 0.0, 2021-12-02 19:31:14.581
22.0, 2146.637126316782, 280.0867175315507, 1007.8114105095156, 2395.1871374719776, 0.0800000037997961, 0.06400000303983688, 1.008000047877431, 0.0, 0.0, 0.0, 0.0, 0.0, 1.638495074581961E9, 0.0, 2021-12-02 19:31:14.581
23.0, 2162.7224360262044, 282.495213103015, 1021.5480630467646, 2417.907029702794, 0.0800000037997961, 0.06400000303983688, 1.008000047877431, 0.0, 0.0, 0.0, 0.0, 0.0, 1.6384950745827117E9, 0.0, 2021-12-02 19:31:14.582
23.0, 2164.9065376003273, 279.43223503930494, 1024.932672506664, 2422.017179754097, 0.0800000037997961, 0.06400000303983688, 1.008000047877431, 0.0, 0.0, 0.0, 0.0, 0.0, 1.6384950745827117E9, 0.0, 2021-12-02 19:31:14.582
24.0, 2130.5443368074484, 265.9910345985554, 1000.7429995932616, 2392.045621509198, 0.0800000037997961, 0.06400000303983688, 1.008000047877431, 0.0, 0.0, 0.0, 0.0, 0.0, 1.638495074583418E9, 0.0, 2021-12-02 19:31:14.583
24.0, 2131.105321800802, 280.95437432127073, 1013.9598060366698, 2409.5259139020927, 0.0800000037997961, 0.06400000303983688, 1.008000047877431, 0.0, 0.0, 0.0, 0.0, 0.0, 1.638495074583418E9, 0.0, 2021-12-02 19:31:14.583
25.0, 2158.530008175876, 270.6584297432564, 1005.2308795400895, 2403.687930071261, 0.0800000037997961, 0.06400000303983688, 1.008000047877431, 0.0, 0.0, 0.0, 0.0, 0.0, 1.6384950746283383E9, 0.0, 2021-12-02 19:31:14.628
25.0, 2149.195217886474, 274.7012615953572, 1007.6580746113323, 2399.790954317432, 0.0800000037997961, 0.06400000303983688, 1.008000047877431, 0.0, 0.0, 0.0, 0.0, 0.0, 1.6384950746283383E9, 0.0, 2021-12-02 19:31:14.628
26.0, 2128.5060913315974, 275.87559018144384, 1016.4094405076467, 2408.628337912727, 0.0800000037997961, 0.06400000303983688, 1.008000047877431, 0.0, 0.0, 0.0, 0.0, 0.0, 1.6384950746290953E9, 0.0, 2021-12-02 19:31:14.629
26.0, 2146.685745016206, 293.5316578722559, 1028.1602061684243, 2423.546798835974, 0.0800000037997961, 0.06400000303983688, 1.008000047877431, 0.0, 0.0, 0.0, 0.0, 0.0, 1.6384950746290953E9, 0.0, 2021-12-02 19:31:14.629
27.0, 2159.2966876667924, 293.77475136937574, 1030.1947117443196, 2423.9320085314102, 0.0800000037997961, 0.06400000303983688, 1.008000047877431, 0.0, 0.0, 0.0, 0.0, 0.0, 1.6384950746298523E9, 0.0, 2021-12-02 19:31:14.629
27.0, 2150.436864671763, 305.7499110274948, 1041.1077398150228, 2428.6293228757568, 0.0800000037997961, 0.06400000303983688, 1.008000047877431, 0.0, 0.0, 0.0, 0.0, 0.0, 1.6384950746298523E9, 0.0, 2021-12-02 19:31:14.629
28.0, 2176.3880304642953, 323.55557471653447, 1062.6009448603727, 2446.161973868031, 0.0800000037997961, 0.06400000303983688, 1.008000047877431, 0.0, 0.0, 0.0, 0.0, 0.0, 1.6384950746305785E9, 0.0, 2021-12-02 19:31:14.630
28.0, 2167.9807353639044, 327.8452399657108, 1063.3264854517765, 2441.3225433253683, 0.0800000037997961, 0.06400000303983688, 1.008000047877431, 0.0, 0.0, 0.0, 0.0, 0.0, 1.6384950746305785E9, 0.0, 2021-12-02 19:31:14.630
29.0, 2169.603851944674, 335.2988605774008, 1062.2269548648037, 2437.926714165602, 0.0800000037997961, 0.06400000303983688, 1.008000047877431, 0.0, 0.0, 0.0, 0.0, 0.0, 1.6384950746413798E9, 0.0, 2021-12-02 19:31:14.641
29.0, 2181.4406353044324, 335.5045550749637, 1063.8725108453073, 2451.1584802088328, 0.0800000037997961, 0.06400000303983688, 1.008000047877431, 0.0, 0.0, 0.0, 0.0, 0.0, 1.6384950746413798E9, 0.0, 2021-12-02 19:31:14.641
30.0, 2174.970608381089, 325.89301218884066, 1061.789386569988, 2443.450546400156, 0.0800000037997961, 0.06400000303983688, 1.008000047877431, 0.0, 0.0, 0.0, 0.0, 0.0, 1.6384950746420133E9, 0.0, 2021-12-02 19:31:14.642
30.0, 2175.8046060712077, 315.9523581066169, 1052.6864700778387, 2438.4839592589997, 0.0800000037997961, 0.06400000303983688, 1.008000047877431, 0.0, 0.0, 0.0, 0.0, 0.0, 1.6384950746420133E9, 0.0, 2021-12-02 19:31:14.642
31.0, 2177.491300951224, 323.3648398187943, 1054.346985658165, 2442.6464679096825, 0.0800000037997961, 0.06400000303983688, 1.008000047877431, 0.0, 0.0, 0.0, 0.0, 0.0, 1.6384950746860857E9, 0.0, 2021-12-02 19:31:14.686
31.0, 2180.9806276098825, 335.26894137775525, 1065.346031427849, 2450.0065910224803, 0.0800000037997961, 0.06400000303983688, 1.008000047877431, 0.0, 0.0, 0.0, 0.0, 0.0, 1.6384950746860857E9, 0.0, 2021-12-02 19:31:14.686
32.0, 2167.356172071304, 319.33322766656056, 1059.4332495979033, 2436.0642439876683, 0.0800000037997961, 0.06400000303983688, 1.008000047877431, 0.0, 0.0, 0.0, 0.0, 0.0, 1.638495074703369E9, 0.0, 2021-12-02 19:31:14.703
32.0, 2157.9353640829213, 310.0545358764939, 1054.7845539529808, 2426.609776899684, 0.0800000037997961, 0.06400000303983688, 1.008000047877431, 0.0, 0.0, 0.0, 0.0, 0.0, 1.638495074703369E9, 0.0, 2021-12-02 19:31:14.703
33.0, 2163.8294464130886, 323.8435470131226, 1051.2204292952083, 2432.8778492254205, 0.0800000037997961, 0.06400000303983688, 1.008000047877431, 0.0, 0.0, 0.0, 0.0, 0.0, 1.6384950747040925E9, 0.0, 2021-12-02 19:31:14.704
33.0, 2166.9036441766657, 323.7724889139645, 1056.8377590286545, 2429.5829973644577, 0.0800000037997961, 0.06400000303983688, 1.008000047877431, 0.0, 0.0, 0.0, 0.0, 0.0, 1.6384950747040925E9, 0.0, 2021-12-02 19:31:14.704
34.0, 2155.8709393073805, 326.63725228002295, 1064.3437382397242, 2404.506968161557, 0.0800000037997961, 0.06400000303983688, 1.008000047877431, 0.0, 0.0, 0.0, 0.0, 0.0, 1.6384950747049596E9, 0.0, 2021-12-02 19:31:14.704
34.0, 2157.5613740873523, 335.9907420692034, 1089.3187901438214, 2420.2444671751, 0.0800000037997961, 0.06400000303983688, 1.008000047877431, 0.0, 0.0, 0.0, 0.0, 0.0, 1.6384950747049596E9, 0.0, 2021-12-02 19:31:14.704
35.0, 2135.9597119432874, 372.57818333571777, 1114.7800290421583, 2416.5232667191885, 0.0800000037997961, 0.06400000303983688, 1.008000047877431, 0.0, 0.0, 0.0, 0.0, 0.0, 1.6384950747056327E9, 0.0, 2021-12-02 19:31:14.705
35.0, 2148.3537403964438, 358.1047705071978, 1101.2303715026937, 2403.2578415763564, 0.0800000037997961, 0.06400000303983688, 1.008000047877431, 0.0, 0.0, 0.0, 0.0, 0.0, 1.6384950747056327E9, 0.0, 2021-12-02 19:31:14.705
36.0, 2124.579196378123, 376.95012638391927, 1132.8474857280962, 2376.910246388521, 0.0800000037997961, 0.06400000303983688, 1.008000047877431, 0.0, 0.0, 0.0, 0.0, 0.0, 1.638495074716438E9, 0.0, 2021-12-02 19:31:14.716
36.0, 2130.52563730767, 417.9506495981477, 1180.5835687625222, 2414.0362332486548, 0.0800000037997961, 0.06400000303983688, 1.008000047877431, 0.0, 0.0, 0.0, 0.0, 0.0, 1.638495074716438E9, 0.0, 2021-12-02 19:31:14.716
37.0, 2122.0024053086527, 445.0424848771654, 1189.8510408527218, 2399.3833052222617, 0.0800000037997961, 0.06400000303983688, 1.008000047877431, 0.0, 0.0, 0.0, 0.0, 0.0, 1.638495074717044E9, 0.0, 2021-12-02 19:31:14.717
37.0, 2118.7599120470695, 462.24976457329467, 1215.6638303468935, 2382.613593820948, 0.0800000037997961, 0.06400000303983688, 1.008000047877431, 0.0, 0.0, 0.0, 0.0, 0.0, 1.638495074717044E9, 0.0, 2021-12-02 19:31:14.717
38.0, 2132.4591655847616, 483.9561439161189, 1238.211687179748, 2390.8114545238204, 0.0800000037997961, 0.06400000303983688, 1.008000047877431, 0.0, 0.0, 0.0, 0.0, 0.0, 1.6384950747477028E9, 0.0, 2021-12-02 19:31:14.747
38.0, 2108.3368108705617, 477.34400079445913, 1231.6107637579553, 2378.0135168754496, 0.0800000037997961, 0.06400000303983688, 1.008000047877431, 0.0, 0.0, 0.0, 0.0, 0.0, 1.6384950747477028E9, 0.0, 2021-12-02 19:31:14.747
39.0, 2101.2609201543964, 486.71992998337373, 1234.1800750275142, 2367.358541901689, 0.0800000037997961, 0.06400000303983688, 1.008000047877431, 0.0, 0.0, 0.0, 0.0, 0.0, 1.6384950747483482E9, 0.0, 2021-12-02 19:31:14.748
39.0, 2096.2793734134175, 493.3245933051221, 1248.1523412619717, 2377.4338323823176, 0.0800000037997961, 0.06400000303983688, 1.008000047877431, 0.0, 0.0, 0.0, 0.0, 0.0, 1.6384950747483482E9, 0.0, 2021-12-02 19:31:14.748
40.0, 2097.588338397909, 485.10055330256, 1245.410994594451, 2367.5193575997837, 0.0800000037997961, 0.06400000303983688, 1.008000047877431, 0.0, 0.0, 0.0, 0.0, 0.0, 1.638495074749176E9, 0.0, 2021-12-02 19:31:14.749
40.0, 2087.879558112938, 466.37487422442064, 1230.7019680687226, 2354.396048655268, 0.0800000037997961, 0.06400000303983688, 1.008000047877431, 0.0, 0.0, 0.0, 0.0, 0.0, 1.638495074749176E9, 0.0, 2021-12-02 19:31:14.749
41.0, 2080.1903238040395, 464.21321205003187, 1231.7566198562272, 2351.811777785886, 0.0800000037997961, 0.06400000303983688, 1.008000047877431, 0.0, 0.0, 0.0, 0.0, 0.0, 1.6384950747498963E9, 0.0, 2021-12-02 19:31:14.749
41.0, 2068.159065646585, 454.40719436621293, 1220.230248192791, 2340.0123934256844, 0.0800000037997961, 0.06400000303983688, 1.008000047877431, 0.0, 0.0, 0.0, 0.0, 0.0, 1.6384950747498963E9, 0.0, 2021-12-02 19:31:14.749
42.0, 2056.845868280623, 441.6279562176205, 1201.4222913156264, 2344.6162102711387, 0.0800000037997961, 0.06400000303983688, 1.008000047877431, 0.0, 0.0, 0.0, 0.0, 0.0, 1.6384950747605608E9, 0.0, 2021-12-02 19:31:14.760
42.0, 2057.9715781672858, 428.9534352677874, 1186.881560287904, 2327.0349405794404, 0.0800000037997961, 0.06400000303983688, 1.008000047877431, 0.0, 0.0, 0.0, 0.0, 0.0, 1.6384950747605608E9, 0.0, 2021-12-02 19:31:14.760
43.0, 2052.660920230206, 432.34926442755386, 1189.088101261761, 2331.7846135231666, 0.0800000037997961, 0.06400000303983688, 1.008000047877431, 0.0, 0.0, 0.0, 0.0, 0.0, 1.6384950747755735E9, 0.0, 2021-12-02 19:31:14.775
43.0, 2043.206453142222, 407.9202379169874, 1156.1844614516012, 2314.9625435224734, 0.0800000037997961, 0.06400000303983688, 1.008000047877431, 0.0, 0.0, 0.0, 0.0, 0.0, 1.6384950747755735E9, 0.0, 2021-12-02 19:31:14.775
44.0, 2022.0573188927956, 387.36948766047135, 1127.7387823886238, 2310.250269578304, 0.0800000037997961, 0.06400000303983688, 1.008000047877431, 0.0, 0.0, 0.0, 0.0, 0.0, 1.6384950748076262E9, 0.0, 2021-12-02 19:31:14.807
44.0, 2040.1733942781575, 370.46887976070866, 1112.0648616743274, 2301.2595500848256, 0.0800000037997961, 0.06400000303983688, 1.008000047877431, 0.0, 0.0, 0.0, 0.0, 0.0, 1.6384950748076262E9, 0.0, 2021-12-02 19:31:14.807
45.0, 2051.8493619398214, 349.7872330057435, 1095.9271933655255, 2300.0515623991378, 0.0800000037997961, 0.06400000303983688, 1.008000047877431, 0.0, 0.0, 0.0, 0.0, 0.0, 1.6384950748084006E9, 0.0, 2021-12-02 19:31:14.808
45.0, 2052.795556628611, 321.6594454389997, 1057.6231380193494, 2299.7261911029927, 0.0800000037997961, 0.06400000303983688, 1.008000047877431, 0.0, 0.0, 0.0, 0.0, 0.0, 1.6384950748084006E9, 0.0, 2021-12-02 19:31:14.808
46.0, 2041.7291926597245, 309.0260633886792, 1038.1606986499391, 2295.429046053905, 0.0800000037997961, 0.06400000303983688, 1.008000047877431, 0.0, 0.0, 0.0, 0.0, 0.0, 1.6384950748092473E9, 0.0, 2021-12-02 19:31:14.809
46.0, 2037.1104162144475, 287.3720426452346, 1013.2118260455318, 2294.546429664362, 0.0800000037997961, 0.06400000303983688, 1.008000047877431, 0.0, 0.0, 0.0, 0.0, 0.0, 1.6384950748092473E9, 0.0, 2021-12-02 19:31:14.809
47.0, 2025.6925016497262, 267.38227738207206, 984.1939422893338, 2285.694086469244, 0.0800000037997961, 0.06400000303983688, 1.008000047877431, 0.0, 0.0, 0.0, 0.0, 0.0, 1.638495074809939E9, 0.0, 2021-12-02 19:31:14.809
47.0, 2014.454102282878, 256.86941860662773, 974.6945964018814, 2262.989153838251, 0.0800000037997961, 0.06400000303983688, 1.008000047877431, 0.0, 0.0, 0.0, 0.0, 0.0, 1.638495074809939E9, 0.0, 2021-12-02 19:31:14.809
48.0, 1992.3512935447507, 253.17065755045041, 973.5464471154846, 2289.639680922497, 0.0800000037997961, 0.06400000303983688, 1.008000047877431, 0.0, 0.0, 0.0, 0.0, 0.0, 1.6384950748206396E9, 0.0, 2021-12-02 19:31:14.820
48.0, 2011.9408895126544, 278.9572677449323, 996.5692712427117, 2312.516648951452, 0.0800000037997961, 0.06400000303983688, 1.008000047877431, 0.0, 0.0, 0.0, 0.0, 0.0, 1.6384950748206396E9, 0.0, 2021-12-02 19:31:14.820
49.0, 2013.765960691031, 276.4477948746644, 998.3120646220632, 2328.972208756488, 0.0800000037997961, 0.06400000303983688, 1.008000047877431, 0.0, 0.0, 0.0, 0.0, 0.0, 1.638495074835577E9, 0.0, 2021-12-02 19:31:14.835
49.0, 2029.0135328103788, 279.9221619335003, 1005.1710411407985, 2360.076956687961, 0.0800000037997961, 0.06400000303983688, 1.008000047877431, 0.0, 0.0, 0.0, 0.0, 0.0, 1.638495074835577E9, 0.0, 2021-12-02 19:31:14.835
50.0, 2053.483698220458, 283.84531698701903, 1008.795004197862, 2376.775609990116, 0.0800000037997961, 0.06400000303983688, 1.008000047877431, 0.0, 0.0, 0.0, 0.0, 0.0, 1.6384950748677535E9, 0.0, 2021-12-02 19:31:14.867
50.0, 2073.802574679721, 270.90152324037626, 995.335104257334, 2369.42296667723, 0.0800000037997961, 0.06400000303983688, 1.008000047877431, 0.0, 0.0, 0.0, 0.0, 0.0, 1.6384950748677535E9, 0.0, 2021-12-02 19:31:14.867
51.0, 2088.279727408197, 269.9927275511436, 990.1329034189694, 2376.1921855970286, 0.0800000037997961, 0.06400000303983688, 1.008000047877431, 0.0, 0.0, 0.0, 0.0, 0.0, 1.6384950748683515E9, 0.0, 2021-12-02 19:31:14.868
51.0, 2073.529561982956, 259.6593839735724, 978.2736806594767, 2373.1778262327425, 0.0800000037997961, 0.06400000303983688, 1.008000047877431, 0.0, 0.0, 0.0, 0.0, 0.0, 1.6384950748683515E9, 0.0, 2021-12-02 19:31:14.868
52.0, 2064.1760721937753, 229.76636362774298, 946.032003141474, 2360.566883582156, 0.0800000037997961, 0.06400000303983688, 1.008000047877431, 0.0, 0.0, 0.0, 0.0, 0.0, 1.638495074869058E9, 0.0, 2021-12-02 19:31:14.869
52.0, 2052.406607033219, 214.79928400507197, 932.5010451017879, 2349.896949008573, 0.0800000037997961, 0.06400000303983688, 1.008000047877431, 0.0, 0.0, 0.0, 0.0, 0.0, 1.638495074869058E9, 0.0, 2021-12-02 19:31:14.869
53.0, 2039.6049294848926, 202.36785655235872, 925.6420685830526, 2346.2468066518195, 0.0800000037997961, 0.06400000303983688, 1.008000047877431, 0.0, 0.0, 0.0, 0.0, 0.0, 1.6384950748698547E9, 0.0, 2021-12-02 19:31:14.869
53.0, 2048.4236135804094, 185.4822082524188, 905.1848158254288, 2328.6131783607416, 0.0800000037997961, 0.06400000303983688, 1.008000047877431, 0.0, 0.0, 0.0, 0.0, 0.0, 1.6384950748698547E9, 0.0, 2021-12-02 19:31:14.869
54.0, 2025.3147717542015, 174.87211207812652, 894.7392752491869, 2327.6744634718634, 0.0800000037997961, 0.06400000303983688, 1.008000047877431, 0.0, 0.0, 0.0, 0.0, 0.0, 1.6384950748805938E9, 0.0, 2021-12-02 19:31:14.880
54.0, 2025.0641984571703, 162.45938412519172, 891.324746589642, 2316.3724858057685, 0.0800000037997961, 0.06400000303983688, 1.008000047877431, 0.0, 0.0, 0.0, 0.0, 0.0, 1.6384950748805938E9, 0.0, 2021-12-02 19:31:14.880
55.0, 2000.8221669443883, 143.5354903494008, 875.0561817823909, 2290.627014510799, 0.0800000037997961, 0.06400000303983688, 1.008000047877431, 0.0, 0.0, 0.0, 0.0, 0.0, 1.63849507489563E9, 0.0, 2021-12-02 19:31:14.895
55.0, 1995.9490773021244, 130.53933800337836, 859.1915261703543, 2308.6421125973575, 0.0800000037997961, 0.06400000303983688, 1.008000047877431, 0.0, 0.0, 0.0, 0.0, 0.0, 1.63849507489563E9, 0.0, 2021-12-02 19:31:14.895
56.0, 2001.319573638495, 129.33135031769052, 855.9191137091257, 2298.779996414203, 0.0800000037997961, 0.06400000303983688, 1.008000047877431, 0.0, 0.0, 0.0, 0.0, 0.0, 1.6384950749435875E9, 0.0, 2021-12-02 19:31:14.943
56.0, 1999.644098458346, 125.61014986177906, 856.831649298314, 2299.580335004721, 0.0800000037997961, 0.06400000303983688, 1.008000047877431, 0.0, 0.0, 0.0, 0.0, 0.0, 1.6384950749435875E9, 0.0, 2021-12-02 19:31:14.943
57.0, 2011.391124219168, 130.18404750758782, 859.4271398675628, 2298.7014585151337, 0.0800000037997961, 0.06400000303983688, 1.008000047877431, 0.0, 0.0, 0.0, 0.0, 0.0, 1.6384950749441333E9, 0.0, 2021-12-02 19:31:14.944
57.0, 2015.9912011646666, 134.825263352599, 868.8703872556798, 2302.957464664709, 0.0800000037997961, 0.06400000303983688, 1.008000047877431, 0.0, 0.0, 0.0, 0.0, 0.0, 1.6384950749441333E9, 0.0, 2021-12-02 19:31:14.944
58.0, 2034.0100391511805, 155.2825161102228, 880.2209836211987, 2331.537780126091, 0.0800000037997961, 0.06400000303983688, 1.008000047877431, 0.0, 0.0, 0.0, 0.0, 0.0, 1.6384950749449952E9, 0.0, 2021-12-02 19:31:14.944
58.0, 2030.3561568944715, 148.10938799520954, 880.1050467225723, 2330.5541864377446, 0.0800000037997961, 0.06400000303983688, 1.008000047877431, 0.0, 0.0, 0.0, 0.0, 0.0, 1.6384950749449952E9, 0.0, 2021-12-02 19:31:14.944
59.0, 2037.0393581152894, 151.239684258122, 883.2503025853075, 2317.599172991235, 0.0800000037997961, 0.06400000303983688, 1.008000047877431, 0.0, 0.0, 0.0, 0.0, 0.0, 1.6384950749455671E9, 0.0, 2021-12-02 19:31:14.945
59.0, 2052.552463131491, 162.88573272014037, 893.7669012607075, 2341.9047828032635, 0.0800000037997961, 0.06400000303983688, 1.008000047877431, 0.0, 0.0, 0.0, 0.0, 0.0, 1.6384950749455671E9, 0.0, 2021-12-02 19:31:14.945
60.0, 2052.182213035878, 158.06500167725608, 888.5946196219884, 2341.358757409733, 0.0800000037997961, 0.06400000303983688, 1.008000047877431, 0.0, 0.0, 0.0, 0.0, 0.0, 1.638495074956244E9, 0.0, 2021-12-02 19:31:14.956
60.0, 2046.3030903055333, 153.58834143029526, 887.9775361292996, 2325.5053214975633, 0.0800000037997961, 0.06400000303983688, 1.008000047877431, 0.0, 0.0, 0.0, 0.0, 0.0, 1.638495074956244E9, 0.0, 2021-12-02 19:31:14.956
61.0, 2028.5086463163607, 150.4243860677816, 883.6766511802562, 2333.7256216001697, 0.0800000037997961, 0.06400000303983688, 1.008000047877431, 0.0, 0.0, 0.0, 0.0, 0.0, 1.6384950749569683E9, 0.0, 2021-12-02 19:31:14.956
61.0, 2054.9983577025123, 171.04993432341143, 902.3985903584398, 2367.743751597125, 0.0800000037997961, 0.06400000303983688, 1.008000047877431, 0.0, 0.0, 0.0, 0.0, 0.0, 1.6384950749569683E9, 0.0, 2021-12-02 19:31:14.956
62.0, 2048.909800574649, 153.80899552768096, 890.1541579035111, 2357.0139786242507, 0.09600000455975533, 0.06400000303983688, 1.008000047877431, 0.0, 0.0, 0.0, 0.0, 0.0, 1.6384950749713435E9, 0.0, 2021-12-02 19:31:14.971
62.0, 2031.4818667811342, 157.69849148159847, 898.5352737042122, 2354.179134457838, 0.09600000455975533, 0.06400000303983688, 1.008000047877431, 0.0, 0.0, 0.0, 0.0, 0.0, 1.6384950749713435E9, 0.0, 2021-12-02 19:31:14.971
63.0, 2048.707845977042, 179.96585581777617, 918.4502409682609, 2366.431046712678, 0.09600000455975533, 0.06400000303983688, 1.008000047877431, 0.0, 0.0, 0.0, 0.0, 0.0, 1.6384950749720469E9, 0.0, 2021-12-02 19:31:14.972
63.0, 2052.769377328921, 180.96440910594538, 913.0797446318902, 2370.395340665709, 0.09600000455975533, 0.06400000303983688, 1.008000047877431, 0.0, 0.0, 0.0, 0.0, 0.0, 1.6384950749720469E9, 0.0, 2021-12-02 19:31:14.972
64.0, 2045.3718552165665, 167.8373602614738, 909.6951351719908, 2355.3160640443675, 0.09600000455975533, 0.06400000303983688, 1.008000047877431, 0.0, 0.0, 0.0, 0.0, 0.0, 1.6384950749856424E9, 0.0, 2021-12-02 19:31:14.985
64.0, 2035.921128028538, 173.503308694344, 909.1902486779727, 2378.454825070221, 0.09600000455975533, 0.06400000303983688, 1.008000047877431, 0.0, 0.0, 0.0, 0.0, 0.0, 1.6384950749856424E9, 0.0, 2021-12-02 19:31:14.985
65.0, 2056.0305700902827, 181.71986889699474, 915.9856468974613, 2370.9937246586196, 0.09600000455975533, 0.06400000303983688, 1.008000047877431, 0.0, 0.0, 0.0, 0.0, 0.0, 1.63849507500135E9, 0.0, 2021-12-02 19:31:15.001
65.0, 2050.069169560913, 173.41729099536315, 908.1879554898478, 2351.64348228788, 0.09600000455975533, 0.06400000303983688, 1.008000047877431, 0.0, 0.0, 0.0, 0.0, 0.0, 1.63849507500135E9, 0.0, 2021-12-02 19:31:15.001
66.0, 2054.0372034139, 187.3708577300422, 914.43358841585, 2361.8160101673566, 0.09600000455975533, 0.06400000303983688, 1.008000047877431, 0.0, 0.0, 0.0, 0.0, 0.0, 1.638495075002037E9, 0.0, 2021-12-02 19:31:15.002
66.0, 2067.15677245846, 186.4433625410311, 924.0226919022389, 2372.3475684425794, 0.09600000455975533, 0.06400000303983688, 1.008000047877431, 0.0, 0.0, 0.0, 0.0, 0.0, 1.638495075002037E9, 0.0, 2021-12-02 19:31:15.002
67.0, 2078.2231364273466, 189.0687723099254, 915.5555584025569, 2355.043051347602, 0.09600000455975533, 0.06400000303983688, 1.008000047877431, 0.0, 0.0, 0.0, 0.0, 0.0, 1.638495075015568E9, 0.0, 2021-12-02 19:31:15.015
67.0, 2067.216610857751, 194.21487464895472, 921.5543579314835, 2356.879342225846, 0.09600000455975533, 0.06400000303983688, 1.008000047877431, 0.0, 0.0, 0.0, 0.0, 0.0, 1.638495075015568E9, 0.0, 2021-12-02 19:31:15.015
68.0, 2072.5310086947866, 194.8469177414663, 926.1170358774252, 2368.6562871863134, 0.09600000455975533, 0.06400000303983688, 1.008000047877431, 0.0, 0.0, 0.0, 0.0, 0.0, 1.6384950750313895E9, 0.0, 2021-12-02 19:31:15.031
68.0, 2055.918373091612, 192.81989196548238, 919.6133498544805, 2351.942674284335, 0.09600000455975533, 0.06400000303983688, 1.008000047877431, 0.0, 0.0, 0.0, 0.0, 0.0, 1.6384950750313895E9, 0.0, 2021-12-02 19:31:15.031
69.0, 2070.425445019733, 187.98046142281964, 917.8555968753062, 2352.185767781455, 0.09600000455975533, 0.06400000303983688, 1.008000047877431, 0.0, 0.0, 0.0, 0.0, 0.0, 1.6384950750320232E9, 0.0, 2021-12-02 19:31:15.032
69.0, 2060.828861733433, 193.42949565825984, 922.7698254170828, 2364.1422279397957, 0.09600000455975533, 0.06400000303983688, 1.008000047877431, 0.0, 0.0, 0.0, 0.0, 0.0, 1.6384950750320232E9, 0.0, 2021-12-02 19:31:15.032
70.0, 2072.3851525965147, 203.8563367347233, 936.1773667582311, 2368.4019739893265, 0.09600000455975533, 0.06400000303983688, 1.008000047877431, 0.0, 0.0, 0.0, 0.0, 0.0, 1.6384950750455816E9, 0.0, 2021-12-02 19:31:15.045
70.0, 2078.989815918263, 197.19557491363958, 926.131995477248, 2359.220519598108, 0.09600000455975533, 0.06400000303983688, 1.008000047877431, 0.0, 0.0, 0.0, 0.0, 0.0, 1.6384950750455816E9, 0.0, 2021-12-02 19:31:15.045
71.0, 2075.552847858984, 205.4083952163346, 931.4650928140618, 2363.6261217459105, 0.09600000455975533, 0.06400000303983688, 1.008000047877431, 0.0, 0.0, 0.0, 0.0, 0.0, 1.638495075061076E9, 0.0, 2021-12-02 19:31:15.061
71.0, 2087.5242676171474, 214.0849631135352, 941.0766357001849, 2370.544936663937, 0.09600000455975533, 0.06400000303983688, 1.008000047877431, 0.0, 0.0, 0.0, 0.0, 0.0, 1.638495075061076E9, 0.0, 2021-12-02 19:31:15.061
