%OpenBCI Raw EEG Data
%Number of channels = 4
%Sample Rate = 200 Hz
%Board = OpenBCI_GUI$BoardGanglionBLE
Sample Index, EXG Channel 0, EXG Channel 1, EXG Channel 2, EXG Channel 3, Accel Channel 0, Accel Channel 1, Accel Channel 2, Other, Other, Other, Other, Other, Timestamp, Other, Timestamp (Formatted)
0.0, 1597.1878543766215, 438.37237330619246, 779.5634462637827, 2007.2716244179755, 0.0, 0.0, 0.0, 0.0, 0.0, 0.0, 0.0, 0.0, 1.638494393467709E9, 0.0, 2021-12-02 19:19:53.467
1.0, 1591.73134034127, 449.15450487844646, 788.628963756375, 1991.7024209024385, 0.0, 0.12800000607967377, 0.0, 0.0, 0.0, 0.0, 0.0, 0.0, 1.638494393480965E9, 0.0, 2021-12-02 19:19:53.480
1.0, 1621.5832217875868, 424.81897586677223, 765.8006144268438, 1981.0287464288995, 0.0, 0.12800000607967377, 0.0, 0.0, 0.0, 0.0, 0.0, 0.0, 1.638494393480965E9, 0.0, 2021-12-02 19:19:53.480
2.0, 1622.7164114741609, 435.62728673871607, 774.5632000230253, 1985.3932096771896, 0.06400000303983688, 0.12800000607967377, 0.0, 0.0, 0.0, 0.0, 0.0, 0.0, 1.6384943935124886E9, 0.0, 2021-12-02 19:19:53.512
2.0, 1646.0459073977545, 446.1102263145149, 787.9370822645724, 2000.0984963029623, 0.06400000303983688, 0.12800000607967377, 0.0, 0.0, 0.0, 0.0, 0.0, 0.0, 1.6384943935124886E9, 0.0, 2021-12-02 19:19:53.512
3.0, 1594.274472311139, 442.11975306179374, 777.3195062903687, 1998.9540869165212, 0.06400000303983688, 0.12800000607967377, 0.0, 0.0, 0.0, 0.0, 0.0, 0.0, 1.6384943935278833E9, 0.0, 2021-12-02 19:19:53.527
3.0, 1672.1204898888245, 432.3810535771772, 771.0028152652085, 1979.0017206529155, 0.06400000303983688, 0.12800000607967377, 0.0, 0.0, 0.0, 0.0, 0.0, 0.0, 1.6384943935278833E9, 0.0, 2021-12-02 19:19:53.527
4.0, 1615.0907554645091, 450.8337199585512, 788.2474939608946, 1997.0579576389864, 0.06400000303983688, 0.12800000607967377, 0.0, 0.0, 0.0, 0.0, 0.0, 0.0, 1.6384943935286543E9, 0.0, 2021-12-02 19:19:53.528
4.0, 1606.649801264517, 441.93649796396494, 778.9426228711382, 2004.3881615521386, 0.06400000303983688, 0.12800000607967377, 0.0, 0.0, 0.0, 0.0, 0.0, 0.0, 1.6384943935286543E9, 0.0, 2021-12-02 19:19:53.528
5.0, 1614.3502552732825, 427.2050320385024, 769.3909183843061, 1980.4602816356346, 0.06400000303983688, 0.12800000607967377, 0.0, 0.0, 0.0, 0.0, 0.0, 0.0, 1.638494393529344E9, 0.0, 2021-12-02 19:19:53.529
5.0, 1617.5254303356633, 448.3915652874857, 790.2857394367456, 2006.4189272280782, 0.06400000303983688, 0.12800000607967377, 0.0, 0.0, 0.0, 0.0, 0.0, 0.0, 1.638494393529344E9, 0.0, 2021-12-02 19:19:53.529
6.0, 1614.0697627766058, 449.0722270794213, 783.0303335227072, 1986.8181115603074, 0.06400000303983688, 0.12800000607967377, 0.0, 0.0, 0.0, 0.0, 0.0, 0.0, 1.638494393530046E9, 0.0, 2021-12-02 19:19:53.530
6.0, 1614.1071617761627, 431.11322749219835, 772.865285443142, 1984.1291234921664, 0.06400000303983688, 0.12800000607967377, 0.0, 0.0, 0.0, 0.0, 0.0, 0.0, 1.638494393530046E9, 0.0, 2021-12-02 19:19:53.530
7.0, 1632.2681159609929, 439.25872959569097, 778.65465057455, 1971.2189888451248, 0.06400000303983688, 0.12800000607967377, 0.0, 0.0, 0.0, 0.0, 0.0, 0.0, 1.638494393540754E9, 0.0, 2021-12-02 19:19:53.540
7.0, 1614.0323637770489, 453.48904892709106, 793.2028614021838, 2005.6634674370289, 0.06400000303983688, 0.12800000607967377, 0.0, 0.0, 0.0, 0.0, 0.0, 0.0, 1.638494393540754E9, 0.0, 2021-12-02 19:19:53.540
8.0, 1616.4595588482916, 437.52341601625085, 778.7444081734866, 2013.0535097494721, 0.06400000303983688, 0.12800000607967377, 0.0, 0.0, 0.0, 0.0, 0.0, 0.0, 1.6384943935564873E9, 0.0, 2021-12-02 19:19:53.556
8.0, 1606.5488239657134, 431.6816922854632, 770.6026459699497, 1989.7875921251252, 0.06400000303983688, 0.12800000607967377, 0.0, 0.0, 0.0, 0.0, 0.0, 0.0, 1.6384943935564873E9, 0.0, 2021-12-02 19:19:53.556
9.0, 1617.9854380302131, 444.33751373551786, 785.5472861928865, 2003.9393735574558, 0.06400000303983688, 0.12800000607967377, 0.0, 0.0, 0.0, 0.0, 0.0, 0.0, 1.6384943935571787E9, 0.0, 2021-12-02 19:19:53.557
9.0, 1663.0362728964537, 447.6660246960819, 783.8007529135793, 2012.4214666569605, 0.06400000303983688, 0.12800000607967377, 0.0, 0.0, 0.0, 0.0, 0.0, 0.0, 1.6384943935571787E9, 0.0, 2021-12-02 19:19:53.557
10.0, 1626.647046327591, 431.6891720853746, 771.4815224595368, 1987.667068850249, 0.06400000303983688, 0.12800000607967377, 0.4640000220388174, 0.0, 0.0, 0.0, 0.0, 0.0, 1.6384943935707285E9, 0.0, 2021-12-02 19:19:53.570
10.0, 1670.1308631123975, 446.2523425128311, 786.0633923867717, 1982.68552210927, 0.06400000303983688, 0.12800000607967377, 0.4640000220388174, 0.0, 0.0, 0.0, 0.0, 0.0, 1.6384943935707285E9, 0.0, 2021-12-02 19:19:53.570
11.0, 1632.0586815634742, 452.5391143383458, 794.6165435854346, 2011.7969033643603, 0.06400000303983688, 0.2400000113993883, 0.4640000220388174, 0.0, 0.0, 0.0, 0.0, 0.0, 1.6384943935864947E9, 0.0, 2021-12-02 19:19:53.586
11.0, 1638.0013825930655, 437.26162301935256, 776.1302181044593, 1978.2462608618662, 0.06400000303983688, 0.2400000113993883, 0.4640000220388174, 0.0, 0.0, 0.0, 0.0, 0.0, 1.6384943935864947E9, 0.0, 2021-12-02 19:19:53.586
12.0, 1641.3298935536295, 444.63296583201736, 776.4668091004714, 1987.704467849806, 0.04800000227987766, 0.2400000113993883, 0.4640000220388174, 0.0, 0.0, 0.0, 0.0, 0.0, 1.6384943935871334E9, 0.0, 2021-12-02 19:19:53.587
12.0, 1645.1445915084332, 453.6610843250528, 787.7276478670537, 1994.795318165794, 0.04800000227987766, 0.2400000113993883, 0.4640000220388174, 0.0, 0.0, 0.0, 0.0, 0.0, 1.6384943935871334E9, 0.0, 2021-12-02 19:19:53.587
13.0, 1625.7606900380924, 439.5467018922791, 778.5087944762781, 1984.0468456931412, 0.04800000227987766, 0.2400000113993883, 0.4640000220388174, 0.0, 0.0, 0.0, 0.0, 0.0, 1.638494393600752E9, 0.0, 2021-12-02 19:19:53.600
13.0, 1658.6643298482522, 436.60340062715113, 779.4475093651563, 1975.9312627892941, 0.04800000227987766, 0.2400000113993883, 0.4640000220388174, 0.0, 0.0, 0.0, 0.0, 0.0, 1.638494393600752E9, 0.0, 2021-12-02 19:19:53.600
14.0, 1647.0556803857908, 450.2540354654193, 788.3896101592109, 1994.4549872698262, 0.04800000227987766, 0.2400000113993883, 0.4640000220388174, 0.0, 0.0, 0.0, 0.0, 0.0, 1.6384943936164956E9, 0.0, 2021-12-02 19:19:53.616
14.0, 1668.376850033179, 453.6498646251857, 788.7449006550014, 1999.3692158116028, 0.04800000227987766, 0.2400000113993883, 0.4640000220388174, 0.0, 0.0, 0.0, 0.0, 0.0, 1.6384943936164956E9, 0.0, 2021-12-02 19:19:53.616
15.0, 1648.4544029692188, 435.6534660384059, 773.1869168393314, 1968.6758568752557, 0.04800000227987766, 0.2400000113993883, 0.4640000220388174, 0.0, 0.0, 0.0, 0.0, 0.0, 1.638494393617162E9, 0.0, 2021-12-02 19:19:53.617
15.0, 1666.3535641571507, 455.3253398053348, 783.1799295209348, 1988.4935867404565, 0.04800000227987766, 0.2400000113993883, 0.4640000220388174, 0.0, 0.0, 0.0, 0.0, 0.0, 1.638494393617162E9, 0.0, 2021-12-02 19:19:53.617
16.0, 1676.8028446333483, 463.63913740683347, 789.8182519422844, 1990.6627287147567, 0.04800000227987766, 0.2400000113993883, 0.4640000220388174, 0.0, 0.0, 0.0, 0.0, 0.0, 1.6384943936308117E9, 0.0, 2021-12-02 19:19:53.630
16.0, 1678.8784891087562, 452.6251320373267, 782.0504797343165, 1975.3366186963394, 0.04800000227987766, 0.2400000113993883, 0.4640000220388174, 0.0, 0.0, 0.0, 0.0, 0.0, 1.6384943936308117E9, 0.0, 2021-12-02 19:19:53.630
17.0, 1642.8408131357282, 443.4773367457092, 777.9964281823486, 1977.344944972545, 0.04800000227987766, 0.2400000113993883, 0.4640000220388174, 0.0, 0.0, 0.0, 0.0, 0.0, 1.6384943936785257E9, 0.0, 2021-12-02 19:19:53.678
17.0, 1654.8645914932713, 455.5123348031193, 784.0513262106106, 1982.6107241101563, 0.04800000227987766, 0.2400000113993883, 0.4640000220388174, 0.0, 0.0, 0.0, 0.0, 0.0, 1.6384943936785257E9, 0.0, 2021-12-02 19:19:53.678
18.0, 1663.7767730876803, 454.8915114104748, 775.4757356122136, 1981.9487618179992, 0.04800000227987766, 0.2400000113993883, 0.4640000220388174, 0.0, 0.0, 0.0, 0.0, 0.0, 1.6384943936793015E9, 0.0, 2021-12-02 19:19:53.679
18.0, 1657.594718460925, 456.8923578867689, 779.8701180601493, 1967.0228210948408, 0.04800000227987766, 0.2400000113993883, 0.4640000220388174, 0.0, 0.0, 0.0, 0.0, 0.0, 1.6384943936793015E9, 0.0, 2021-12-02 19:19:53.679
19.0, 1624.7060382505879, 467.24814086407423, 790.5512723335996, 1978.3621977604926, 0.04800000227987766, 0.2400000113993883, 0.4640000220388174, 0.0, 0.0, 0.0, 0.0, 0.0, 1.6384943936801224E9, 0.0, 2021-12-02 19:19:53.680
19.0, 1651.382744634524, 451.9182909457013, 782.5329268286005, 1974.6858761040494, 0.04800000227987766, 0.2400000113993883, 0.4640000220388174, 0.0, 0.0, 0.0, 0.0, 0.0, 1.6384943936801224E9, 0.0, 2021-12-02 19:19:53.680
20.0, 1645.3353264061734, 438.2900955071673, 767.6219457052648, 1985.0453989813104, 0.04800000227987766, 0.2400000113993883, 0.6880000326782465, 0.0, 0.0, 0.0, 0.0, 0.0, 1.6384943936808228E9, 0.0, 2021-12-02 19:19:53.680
20.0, 1602.8538028094918, 456.4473097920418, 790.401676335372, 1978.657649856992, 0.04800000227987766, 0.2400000113993883, 0.6880000326782465, 0.0, 0.0, 0.0, 0.0, 0.0, 1.6384943936808228E9, 0.0, 2021-12-02 19:19:53.680
21.0, 1629.997996687889, 475.259006569162, 802.1150429965928, 2008.3561954051256, 0.04800000227987766, 0.3680000174790621, 0.6880000326782465, 0.0, 0.0, 0.0, 0.0, 0.0, 1.6384943936914756E9, 0.0, 2021-12-02 19:19:53.691
21.0, 1602.345176415518, 452.2922809412703, 784.8554047010839, 1980.0264532407746, 0.04800000227987766, 0.3680000174790621, 0.6880000326782465, 0.0, 0.0, 0.0, 0.0, 0.0, 1.6384943936914756E9, 0.0, 2021-12-02 19:19:53.691
22.0, 1556.0863538635895, 453.3282332289964, 787.3424381716177, 1971.6602970398962, 0.0800000037997961, 0.3680000174790621, 0.6880000326782465, 0.0, 0.0, 0.0, 0.0, 0.0, 1.6384943936922066E9, 0.0, 2021-12-02 19:19:53.692
22.0, 1573.9219367522746, 466.23462797608227, 808.2821380235255, 1960.941743766889, 0.0800000037997961, 0.3680000174790621, 0.6880000326782465, 0.0, 0.0, 0.0, 0.0, 0.0, 1.6384943936922066E9, 0.0, 2021-12-02 19:19:53.692
23.0, 1589.8052918640897, 451.6265787491575, 796.6884481608868, 2000.910054593347, 0.0800000037997961, 0.3680000174790621, 0.6880000326782465, 0.0, 0.0, 0.0, 0.0, 0.0, 1.6384943937064476E9, 0.0, 2021-12-02 19:19:53.706
23.0, 1570.118458497338, 439.00441639870405, 778.7593677733094, 1997.8620361294597, 0.0800000037997961, 0.3680000174790621, 0.6880000326782465, 0.0, 0.0, 0.0, 0.0, 0.0, 1.6384943937064476E9, 0.0, 2021-12-02 19:19:53.706
24.0, 1560.0693473163992, 460.87535133957863, 798.4761203397065, 1993.0637444863096, 0.0800000037997961, 0.3680000174790621, 0.6880000326782465, 0.0, 0.0, 0.0, 0.0, 0.0, 1.6384943937072406E9, 0.0, 2021-12-02 19:19:53.707
24.0, 1564.6619444619864, 457.49074187967926, 792.9522881051525, 1983.9720476940274, 0.0800000037997961, 0.3680000174790621, 0.6880000326782465, 0.0, 0.0, 0.0, 0.0, 0.0, 1.6384943937072406E9, 0.0, 2021-12-02 19:19:53.707
25.0, 1584.1281237313524, 443.9934429395944, 779.9972746586427, 1977.2215282740071, 0.0800000037997961, 0.3680000174790621, 0.6880000326782465, 0.0, 0.0, 0.0, 0.0, 0.0, 1.6384943937207923E9, 0.0, 2021-12-02 19:19:53.720
25.0, 1550.6971580274403, 467.3640777627006, 795.0503719802946, 1979.394410148263, 0.0800000037997961, 0.3680000174790621, 0.6880000326782465, 0.0, 0.0, 0.0, 0.0, 0.0, 1.6384943937207923E9, 0.0, 2021-12-02 19:19:53.720
26.0, 1559.325107225217, 470.79356602206826, 796.939021457918, 1997.6713012317196, 0.0800000037997961, 0.3680000174790621, 0.6880000326782465, 0.0, 0.0, 0.0, 0.0, 0.0, 1.6384943937365105E9, 0.0, 2021-12-02 19:19:53.736
26.0, 1593.623729718849, 453.5488873263821, 783.9914878113195, 1973.5302470177412, 0.0800000037997961, 0.3680000174790621, 0.6880000326782465, 0.0, 0.0, 0.0, 0.0, 0.0, 1.6384943937365105E9, 0.0, 2021-12-02 19:19:53.736
27.0, 1583.6942953364924, 460.83795234002173, 787.4770745700225, 1983.1156106041744, 0.0800000037997961, 0.3680000174790621, 0.6880000326782465, 0.0, 0.0, 0.0, 0.0, 0.0, 1.6384943937372105E9, 0.0, 2021-12-02 19:19:53.737
27.0, 1579.0717789912596, 476.4520346550271, 799.9010222228244, 1995.375002658926, 0.0800000037997961, 0.3680000174790621, 0.6880000326782465, 0.0, 0.0, 0.0, 0.0, 0.0, 1.6384943937372105E9, 0.0, 2021-12-02 19:19:53.737
28.0, 1567.8969579236582, 464.19638250023127, 784.612311203964, 1973.9752951124683, 0.0800000037997961, 0.3680000174790621, 0.6880000326782465, 0.0, 0.0, 0.0, 0.0, 0.0, 1.6384943937668636E9, 0.0, 2021-12-02 19:19:53.766
28.0, 1616.3286623498425, 460.4751820443198, 780.5993985515088, 1964.004721830599, 0.0800000037997961, 0.3680000174790621, 0.6880000326782465, 0.0, 0.0, 0.0, 0.0, 0.0, 1.6384943937668636E9, 0.0, 2021-12-02 19:19:53.766
29.0, 1543.2285778159276, 476.05186535976827, 805.5819302555174, 1981.4476152239367, 0.0800000037997961, 0.3680000174790621, 0.6880000326782465, 0.0, 0.0, 0.0, 0.0, 0.0, 1.6384943937675953E9, 0.0, 2021-12-02 19:19:53.767
29.0, 1593.9902399145067, 462.86123821604997, 791.1720957262442, 1974.3006664086133, 0.0800000037997961, 0.3680000174790621, 0.6880000326782465, 0.0, 0.0, 0.0, 0.0, 0.0, 1.6384943937675953E9, 0.0, 2021-12-02 19:19:53.767
30.0, 1565.776434648782, 446.33836021181196, 774.5594601230696, 1990.6926479144022, 0.0800000037997961, 0.3680000174790621, 0.800000037997961, 0.0, 0.0, 0.0, 0.0, 0.0, 1.6384943937815404E9, 0.0, 2021-12-02 19:19:53.781
30.0, 1582.819158746861, 461.7280485294759, 786.9086097767577, 1985.55776527524, 0.0800000037997961, 0.3680000174790621, 0.800000037997961, 0.0, 0.0, 0.0, 0.0, 0.0, 1.6384943937815404E9, 0.0, 2021-12-02 19:19:53.781
31.0, 1586.5366193028167, 461.4475560327992, 794.0480787921697, 1987.4838137524202, 0.0800000037997961, 0.43200002051889896, 0.800000037997961, 0.0, 0.0, 0.0, 0.0, 0.0, 1.6384943937822275E9, 0.0, 2021-12-02 19:19:53.782
31.0, 1602.7640452105552, 446.1700647138059, 779.6793831624091, 1973.436749518849, 0.0800000037997961, 0.43200002051889896, 0.800000037997961, 0.0, 0.0, 0.0, 0.0, 0.0, 1.6384943937822275E9, 0.0, 2021-12-02 19:19:53.782
32.0, 1528.2951572928578, 453.94531672168523, 787.4508952703327, 1969.8202662616968, 0.09600000455975533, 0.43200002051889896, 0.800000037997961, 0.0, 0.0, 0.0, 0.0, 0.0, 1.6384943937965248E9, 0.0, 2021-12-02 19:19:53.796
32.0, 1547.095634370111, 464.60403159540147, 800.0767975207418, 2004.2011665543541, 0.09600000455975533, 0.43200002051889896, 0.800000037997961, 0.0, 0.0, 0.0, 0.0, 0.0, 1.6384943937965248E9, 0.0, 2021-12-02 19:19:53.796
33.0, 1598.2125869644806, 455.4038777044043, 796.7744658598676, 1952.6765648648143, 0.09600000455975533, 0.43200002051889896, 0.800000037997961, 0.0, 0.0, 0.0, 0.0, 0.0, 1.638494393797156E9, 0.0, 2021-12-02 19:19:53.797
33.0, 1571.4124638820067, 442.1347126616165, 785.67444279138, 1958.9109780909494, 0.09600000455975533, 0.43200002051889896, 0.800000037997961, 0.0, 0.0, 0.0, 0.0, 0.0, 1.638494393797156E9, 0.0, 2021-12-02 19:19:53.797
34.0, 1557.09238695167, 464.5554128959775, 802.3805758934468, 1990.0755644217134, 0.09600000455975533, 0.43200002051889896, 0.800000037997961, 0.0, 0.0, 0.0, 0.0, 0.0, 1.6384943938435376E9, 0.0, 2021-12-02 19:19:53.843
34.0, 1566.4982353402302, 465.4829080849886, 800.9706336101517, 1988.4674074407667, 0.09600000455975533, 0.43200002051889896, 0.800000037997961, 0.0, 0.0, 0.0, 0.0, 0.0, 1.6384943938435376E9, 0.0, 2021-12-02 19:19:53.843
35.0, 1572.5232141688466, 459.7085025534034, 790.6709491321817, 1973.0178807238117, 0.09600000455975533, 0.43200002051889896, 0.800000037997961, 0.0, 0.0, 0.0, 0.0, 0.0, 1.6384943938442707E9, 0.0, 2021-12-02 19:19:53.844
35.0, 1554.306161484681, 479.51127281878144, 816.8764281217009, 1974.8317322023213, 0.09600000455975533, 0.43200002051889896, 0.800000037997961, 0.0, 0.0, 0.0, 0.0, 0.0, 1.6384943938442707E9, 0.0, 2021-12-02 19:19:53.844
36.0, 1565.8026139484718, 478.80069182720035, 825.5567359188572, 1973.3208126202226, 0.09600000455975533, 0.43200002051889896, 0.800000037997961, 0.0, 0.0, 0.0, 0.0, 0.0, 1.6384943938451052E9, 0.0, 2021-12-02 19:19:53.845
36.0, 1576.9512557163835, 458.38457796908915, 800.3834693171084, 1956.4127249205485, 0.09600000455975533, 0.43200002051889896, 0.800000037997961, 0.0, 0.0, 0.0, 0.0, 0.0, 1.6384943938451052E9, 0.0, 2021-12-02 19:19:53.845
37.0, 1553.0981737989932, 470.3036391278729, 804.5160587681457, 1983.3287849016488, 0.09600000455975533, 0.43200002051889896, 0.800000037997961, 0.0, 0.0, 0.0, 0.0, 0.0, 1.6384943938457456E9, 0.0, 2021-12-02 19:19:53.845
37.0, 1589.0984507724643, 475.4946202663705, 817.6655470123515, 1977.1093312753364, 0.09600000455975533, 0.43200002051889896, 0.800000037997961, 0.0, 0.0, 0.0, 0.0, 0.0, 1.6384943938457456E9, 0.0, 2021-12-02 19:19:53.845
38.0, 1579.1914557898417, 468.8151589455083, 812.0669167786837, 1976.8325786786154, 0.09600000455975533, 0.43200002051889896, 0.800000037997961, 0.0, 0.0, 0.0, 0.0, 0.0, 1.63849439385632E9, 0.0, 2021-12-02 19:19:53.856
38.0, 1541.0070772422478, 464.08418550156057, 805.8437232524157, 1963.993502130732, 0.09600000455975533, 0.43200002051889896, 0.800000037997961, 0.0, 0.0, 0.0, 0.0, 0.0, 1.63849439385632E9, 0.0, 2021-12-02 19:19:53.856
39.0, 1576.498727821745, 484.2646856624633, 821.940252661705, 1970.9197968486696, 0.09600000455975533, 0.43200002051889896, 0.800000037997961, 0.0, 0.0, 0.0, 0.0, 0.0, 1.6384943938712056E9, 0.0, 2021-12-02 19:19:53.871
39.0, 1586.3496243050322, 472.10253100655973, 811.7639848822728, 1976.6343639809638, 0.09600000455975533, 0.43200002051889896, 0.800000037997961, 0.0, 0.0, 0.0, 0.0, 0.0, 1.6384943938712056E9, 0.0, 2021-12-02 19:19:53.871
40.0, 1535.4720253078267, 459.82443945202976, 806.7899179412052, 1964.9060377199203, 0.09600000455975533, 0.43200002051889896, 0.8480000402778387, 0.0, 0.0, 0.0, 0.0, 0.0, 1.6384943938870947E9, 0.0, 2021-12-02 19:19:53.887
40.0, 1556.7333565559238, 476.1565825585276, 814.7110260473564, 1969.9287233604118, 0.09600000455975533, 0.43200002051889896, 0.8480000402778387, 0.0, 0.0, 0.0, 0.0, 0.0, 1.6384943938870947E9, 0.0, 2021-12-02 19:19:53.887
41.0, 1557.817927543074, 475.68161526415497, 820.975358473137, 1979.3906702483073, 0.09600000455975533, 0.4640000220388174, 0.8480000402778387, 0.0, 0.0, 0.0, 0.0, 0.0, 1.6384943938878436E9, 0.0, 2021-12-02 19:19:53.887
41.0, 1570.5111479926854, 456.27527439408004, 801.7410530010238, 1958.9109780909494, 0.09600000455975533, 0.4640000220388174, 0.8480000402778387, 0.0, 0.0, 0.0, 0.0, 0.0, 1.6384943938878436E9, 0.0, 2021-12-02 19:19:53.887
42.0, 1542.1477467287332, 464.7386679938063, 810.3877016985789, 1951.3376806806773, 0.09600000455975533, 0.4640000220388174, 0.8480000402778387, 0.0, 0.0, 0.0, 0.0, 0.0, 1.638494393888584E9, 0.0, 2021-12-02 19:19:53.888
42.0, 1557.9039452420548, 476.47447405476123, 819.6439540889114, 1985.8606971716508, 0.09600000455975533, 0.4640000220388174, 0.8480000402778387, 0.0, 0.0, 0.0, 0.0, 0.0, 1.638494393888584E9, 0.0, 2021-12-02 19:19:53.888
43.0, 1584.0346262324601, 471.05161911901087, 806.8347967406735, 1949.6435060007498, 0.09600000455975533, 0.4640000220388174, 0.8480000402778387, 0.0, 0.0, 0.0, 0.0, 0.0, 1.6384943939007425E9, 0.0, 2021-12-02 19:19:53.900
43.0, 1581.9066231576726, 458.4032774688676, 803.1846543839201, 1955.4553105318919, 0.09600000455975533, 0.4640000220388174, 0.8480000402778387, 0.0, 0.0, 0.0, 0.0, 0.0, 1.6384943939007425E9, 0.0, 2021-12-02 19:19:53.900
44.0, 1555.2523561734706, 477.21497424598783, 818.5743427015841, 1952.4559107674286, 0.09600000455975533, 0.4640000220388174, 0.8480000402778387, 0.0, 0.0, 0.0, 0.0, 0.0, 1.6384943939164782E9, 0.0, 2021-12-02 19:19:53.916
44.0, 1546.6692857751623, 478.76329282764345, 821.5625227661803, 1958.0246218014508, 0.09600000455975533, 0.4640000220388174, 0.8480000402778387, 0.0, 0.0, 0.0, 0.0, 0.0, 1.6384943939164782E9, 0.0, 2021-12-02 19:19:53.916
45.0, 1563.0238682813942, 464.5105340965092, 804.8788290638477, 1947.2237907294184, 0.09600000455975533, 0.4640000220388174, 0.8480000402778387, 0.0, 0.0, 0.0, 0.0, 0.0, 1.6384943939171524E9, 0.0, 2021-12-02 19:19:53.917
45.0, 1551.4862769180909, 481.530818794854, 820.5826689777896, 1957.9348642025143, 0.09600000455975533, 0.4640000220388174, 0.8480000402778387, 0.0, 0.0, 0.0, 0.0, 0.0, 1.6384943939171524E9, 0.0, 2021-12-02 19:19:53.917
46.0, 1580.455541974865, 491.91278107184917, 826.8208221038803, 1980.2807664377615, 0.09600000455975533, 0.4640000220388174, 0.8480000402778387, 0.0, 0.0, 0.0, 0.0, 0.0, 1.6384943939307508E9, 0.0, 2021-12-02 19:19:53.930
46.0, 1565.136911756359, 470.6963286232203, 809.1161357136443, 1952.7476229639724, 0.09600000455975533, 0.4640000220388174, 0.8480000402778387, 0.0, 0.0, 0.0, 0.0, 0.0, 1.6384943939307508E9, 0.0, 2021-12-02 19:19:53.930
47.0, 1539.268023762852, 476.6352897528559, 815.0887559428811, 1939.5308165205643, 0.09600000455975533, 0.4640000220388174, 0.8480000402778387, 0.0, 0.0, 0.0, 0.0, 0.0, 1.638494393946574E9, 0.0, 2021-12-02 19:19:53.946
47.0, 1580.0516327796504, 498.77175759058446, 840.3181210439652, 1967.8605586849153, 0.09600000455975533, 0.4640000220388174, 0.8480000402778387, 0.0, 0.0, 0.0, 0.0, 0.0, 1.638494393946574E9, 0.0, 2021-12-02 19:19:53.946
48.0, 1569.4490164052695, 479.9787603132427, 820.1974592823535, 1944.0037368675694, 0.09600000455975533, 0.4640000220388174, 0.8480000402778387, 0.0, 0.0, 0.0, 0.0, 0.0, 1.6384943939471712E9, 0.0, 2021-12-02 19:19:53.947
48.0, 1558.0909402398393, 477.779699139297, 820.9117801738903, 1954.4866764433682, 0.09600000455975533, 0.4640000220388174, 0.8480000402778387, 0.0, 0.0, 0.0, 0.0, 0.0, 1.6384943939471712E9, 0.0, 2021-12-02 19:19:53.947
49.0, 1543.3819137141109, 490.5327579881996, 826.1551199117675, 1966.3159800032154, 0.09600000455975533, 0.4640000220388174, 0.8480000402778387, 0.0, 0.0, 0.0, 0.0, 0.0, 1.6384943939607637E9, 0.0, 2021-12-02 19:19:53.960
49.0, 1542.8508479204029, 484.68729435745627, 819.2811837932095, 1967.0639599943534, 0.09600000455975533, 0.4640000220388174, 0.8480000402778387, 0.0, 0.0, 0.0, 0.0, 0.0, 1.6384943939607637E9, 0.0, 2021-12-02 19:19:53.960
50.0, 1572.8859844645485, 470.3073790278286, 814.8905412452295, 1935.7161185657606, 0.09600000455975533, 0.4640000220388174, 0.8800000417977571, 0.0, 0.0, 0.0, 0.0, 0.0, 1.6384943939928749E9, 0.0, 2021-12-02 19:19:53.992
50.0, 1536.3097628979012, 485.21836015116423, 828.9787443783134, 1949.8641600981355, 0.09600000455975533, 0.4640000220388174, 0.8800000417977571, 0.0, 0.0, 0.0, 0.0, 0.0, 1.6384943939928749E9, 0.0, 2021-12-02 19:19:53.992
51.0, 1569.6023523034528, 488.58801001124084, 832.9654777310789, 1951.7528095757589, 0.09600000455975533, 0.4800000227987766, 0.8800000417977571, 0.0, 0.0, 0.0, 0.0, 0.0, 1.638494393993551E9, 0.0, 2021-12-02 19:19:53.993
51.0, 1581.6934488601983, 473.1459630941972, 818.6566205006093, 1922.9443602170795, 0.09600000455975533, 0.4800000227987766, 0.8800000417977571, 0.0, 0.0, 0.0, 0.0, 0.0, 1.638494393993551E9, 0.0, 2021-12-02 19:19:53.993
52.0, 1538.5275235716254, 485.1996606513858, 825.7250314168632, 1947.313548328355, 0.09600000455975533, 0.4800000227987766, 0.8800000417977571, 0.0, 0.0, 0.0, 0.0, 0.0, 1.6384943939943156E9, 0.0, 2021-12-02 19:19:53.994
52.0, 1562.5414211871102, 491.7183062741533, 834.6746120108292, 1957.878765703179, 0.09600000455975533, 0.4800000227987766, 0.8800000417977571, 0.0, 0.0, 0.0, 0.0, 0.0, 1.6384943939943156E9, 0.0, 2021-12-02 19:19:53.994
53.0, 1553.9882699884474, 480.16575531102717, 819.8272091867402, 1949.0713013075292, 0.09600000455975533, 0.4800000227987766, 0.8800000417977571, 0.0, 0.0, 0.0, 0.0, 0.0, 1.6384943939950674E9, 0.0, 2021-12-02 19:19:53.995
53.0, 1561.7822214961052, 476.2575598573312, 813.521737861447, 1932.0248373094946, 0.09600000455975533, 0.4800000227987766, 0.8800000417977571, 0.0, 0.0, 0.0, 0.0, 0.0, 1.6384943939950674E9, 0.0, 2021-12-02 19:19:53.995
54.0, 1561.9205977944657, 490.35698269028217, 827.7258778931573, 1947.1789119299501, 0.09600000455975533, 0.4800000227987766, 0.8800000417977571, 0.0, 0.0, 0.0, 0.0, 0.0, 1.6384943940058284E9, 0.0, 2021-12-02 19:19:54.005
54.0, 1612.585022494197, 478.1574290348217, 824.775096828118, 1949.5163494022563, 0.09600000455975533, 0.4800000227987766, 0.8800000417977571, 0.0, 0.0, 0.0, 0.0, 0.0, 1.6384943940058284E9, 0.0, 2021-12-02 19:19:54.005
55.0, 1546.9759575715289, 476.7100877519697, 812.3623688751832, 1943.670885771513, 0.09600000455975533, 0.4800000227987766, 0.8800000417977571, 0.0, 0.0, 0.0, 0.0, 0.0, 1.6384943940368516E9, 0.0, 2021-12-02 19:19:54.036
55.0, 1556.2770887613297, 494.6017691399902, 830.9384519550949, 1940.3236753111705, 0.09600000455975533, 0.4800000227987766, 0.8800000417977571, 0.0, 0.0, 0.0, 0.0, 0.0, 1.6384943940368516E9, 0.0, 2021-12-02 19:19:54.036
56.0, 1557.5374350463971, 493.5284178527072, 832.3895331379026, 1971.7089157393202, 0.09600000455975533, 0.4800000227987766, 0.8800000417977571, 0.0, 0.0, 0.0, 0.0, 0.0, 1.638494394037583E9, 0.0, 2021-12-02 19:19:54.037
56.0, 1570.226915596053, 473.2618999928236, 812.8373361695558, 1943.4689311739057, 0.09600000455975533, 0.4800000227987766, 0.8800000417977571, 0.0, 0.0, 0.0, 0.0, 0.0, 1.638494394037583E9, 0.0, 2021-12-02 19:19:54.037
57.0, 1552.8139414023608, 488.3037776146084, 822.2357047582045, 1941.367107398808, 0.09600000455975533, 0.4800000227987766, 0.8800000417977571, 0.0, 0.0, 0.0, 0.0, 0.0, 1.63849439405125E9, 0.0, 2021-12-02 19:19:54.051
57.0, 1562.3095473898575, 493.92110734805465, 835.7068243985996, 1983.5606586989015, 0.09600000455975533, 0.4800000227987766, 0.8800000417977571, 0.0, 0.0, 0.0, 0.0, 0.0, 1.63849439405125E9, 0.0, 2021-12-02 19:19:54.051
58.0, 1573.0767193622887, 477.47302734293044, 815.5225843377411, 1943.2744563762099, 0.09600000455975533, 0.4800000227987766, 0.8800000417977571, 0.0, 0.0, 0.0, 0.0, 0.0, 1.6384943940842109E9, 0.0, 2021-12-02 19:19:54.084
58.0, 1556.5239221584052, 468.80393924564123, 812.9719725679606, 1934.1603201841936, 0.09600000455975533, 0.4800000227987766, 0.8800000417977571, 0.0, 0.0, 0.0, 0.0, 0.0, 1.6384943940842109E9, 0.0, 2021-12-02 19:19:54.084
59.0, 1567.6763038262725, 483.13523587584496, 827.2808297984302, 1950.7729557873681, 0.09600000455975533, 0.4800000227987766, 0.8800000417977571, 0.0, 0.0, 0.0, 0.0, 0.0, 1.638494394084938E9, 0.0, 2021-12-02 19:19:54.084
59.0, 1570.1521175969392, 480.73048020433635, 827.3818070972338, 1964.5731866238639, 0.09600000455975533, 0.4800000227987766, 0.8800000417977571, 0.0, 0.0, 0.0, 0.0, 0.0, 1.638494394084938E9, 0.0, 2021-12-02 19:19:54.084
60.0, 1553.4796435944736, 473.17588229384273, 812.8859548689798, 1933.1991658955812, 0.09600000455975533, 0.4800000227987766, 0.8960000425577164, 0.0, 0.0, 0.0, 0.0, 0.0, 1.638494394085688E9, 0.0, 2021-12-02 19:19:54.085
60.0, 1552.739143403247, 483.0753974765539, 822.5348967546597, 1946.8722401335835, 0.09600000455975533, 0.4800000227987766, 0.8960000425577164, 0.0, 0.0, 0.0, 0.0, 0.0, 1.638494394085688E9, 0.0, 2021-12-02 19:19:54.085
61.0, 1598.051771266386, 487.5221385238692, 826.4655316080898, 1960.2573420749977, 0.09600000455975533, 0.4800000227987766, 0.8960000425577164, 0.0, 0.0, 0.0, 0.0, 0.0, 1.6384943940864599E9, 0.0, 2021-12-02 19:19:54.086
61.0, 1570.2792741954327, 474.4923270782456, 810.4849390974268, 1953.8359338510782, 0.09600000455975533, 0.4800000227987766, 0.8960000425577164, 0.0, 0.0, 0.0, 0.0, 0.0, 1.6384943940864599E9, 0.0, 2021-12-02 19:19:54.086
62.0, 1634.2839220371097, 481.94968758989125, 814.860622045584, 1944.2655298644677, 0.09600000455975533, 0.4800000227987766, 0.8960000425577164, 0.0, 0.0, 0.0, 0.0, 0.0, 1.6384943940965147E9, 0.0, 2021-12-02 19:19:54.096
62.0, 1559.7776351198554, 499.54591688141227, 829.4350121729076, 1950.05115509592, 0.09600000455975533, 0.4800000227987766, 0.8960000425577164, 0.0, 0.0, 0.0, 0.0, 0.0, 1.6384943940965147E9, 0.0, 2021-12-02 19:19:54.096
63.0, 1583.5708786379546, 484.2011073632166, 816.2219456294551, 1947.8595737218857, 0.09600000455975533, 0.4800000227987766, 0.8960000425577164, 0.0, 0.0, 0.0, 0.0, 0.0, 1.6384943940972457E9, 0.0, 2021-12-02 19:19:54.097
63.0, 1565.9297705469653, 475.16924897022545, 813.0168513674289, 1939.859927716665, 0.09600000455975533, 0.4800000227987766, 0.8960000425577164, 0.0, 0.0, 0.0, 0.0, 0.0, 1.6384943940972457E9, 0.0, 2021-12-02 19:19:54.097
64.0, 1537.7645839806646, 492.95995305944234, 830.2241310635582, 1949.40041250363, 0.09600000455975533, 0.4800000227987766, 0.8960000425577164, 0.0, 0.0, 0.0, 0.0, 0.0, 1.6384943941107948E9, 0.0, 2021-12-02 19:19:54.110
64.0, 1550.09877403453, 483.8607764672488, 826.8357817037031, 1951.0197891844437, 0.09600000455975533, 0.4800000227987766, 0.8960000425577164, 0.0, 0.0, 0.0, 0.0, 0.0, 1.6384943941107948E9, 0.0, 2021-12-02 19:19:54.110
65.0, 1575.4403361342847, 466.2570673758164, 810.6195754958317, 1937.0288234502077, 0.09600000455975533, 0.4800000227987766, 0.8960000425577164, 0.0, 0.0, 0.0, 0.0, 0.0, 1.6384943941261687E9, 0.0, 2021-12-02 19:19:54.126
65.0, 1554.5941337812692, 480.1582755111158, 822.7443311521783, 1942.608754184097, 0.09600000455975533, 0.4800000227987766, 0.8960000425577164, 0.0, 0.0, 0.0, 0.0, 0.0, 1.6384943941261687E9, 0.0, 2021-12-02 19:19:54.126
66.0, 1563.3978582769632, 483.1501954756677, 823.7279248405248, 1952.68030476477, 0.09600000455975533, 0.4800000227987766, 0.8960000425577164, 0.0, 0.0, 0.0, 0.0, 0.0, 1.6384943941415048E9, 0.0, 2021-12-02 19:19:54.141
66.0, 1564.5422676634043, 462.1543971244246, 805.9260010514408, 1933.5806356910616, 0.09600000455975533, 0.4800000227987766, 0.8960000425577164, 0.0, 0.0, 0.0, 0.0, 0.0, 1.6384943941415048E9, 0.0, 2021-12-02 19:19:54.141
67.0, 1550.629839828238, 478.6286564292386, 815.283230740577, 1937.3541947463527, 0.09600000455975533, 0.4800000227987766, 0.8960000425577164, 0.0, 0.0, 0.0, 0.0, 0.0, 1.6384943941421793E9, 0.0, 2021-12-02 19:19:54.142
67.0, 1574.7783738421276, 491.35927587840706, 827.6062010945752, 1947.1340331304818, 0.09600000455975533, 0.4800000227987766, 0.8960000425577164, 0.0, 0.0, 0.0, 0.0, 0.0, 1.6384943941421793E9, 0.0, 2021-12-02 19:19:54.142
68.0, 1575.4104169346392, 464.8807841921225, 808.5102719208226, 1941.3895467985421, 0.09600000455975533, 0.4800000227987766, 0.8960000425577164, 0.0, 0.0, 0.0, 0.0, 0.0, 1.6384943941564991E9, 0.0, 2021-12-02 19:19:54.156
68.0, 1527.0572504075244, 465.83071878086776, 806.9619533391669, 1923.7895776070654, 0.09600000455975533, 0.4800000227987766, 0.8960000425577164, 0.0, 0.0, 0.0, 0.0, 0.0, 1.6384943941564991E9, 0.0, 2021-12-02 19:19:54.156
69.0, 1534.5071311192587, 479.4140354199335, 820.1937193823978, 1943.6671458715573, 0.09600000455975533, 0.4800000227987766, 0.8960000425577164, 0.0, 0.0, 0.0, 0.0, 0.0, 1.6384943941572144E9, 0.0, 2021-12-02 19:19:54.157
69.0, 1585.4520483156666, 481.373742996715, 815.5300641376525, 1951.7602893756703, 0.09600000455975533, 0.4800000227987766, 0.8960000425577164, 0.0, 0.0, 0.0, 0.0, 0.0, 1.6384943941572144E9, 0.0, 2021-12-02 19:19:54.157
70.0, 1530.7709710635245, 465.1089180894196, 795.2411068780348, 1937.7169650420547, 0.09600000455975533, 0.4800000227987766, 0.9120000433176756, 0.0, 0.0, 0.0, 0.0, 0.0, 1.6384943941707468E9, 0.0, 2021-12-02 19:19:54.170
70.0, 1528.7177659878507, 476.0331658599898, 813.4506797622889, 1958.047061201185, 0.09600000455975533, 0.4800000227987766, 0.9120000433176756, 0.0, 0.0, 0.0, 0.0, 0.0, 1.6384943941707468E9, 0.0, 2021-12-02 19:19:54.170
71.0, 1553.6180198928341, 480.7566595040262, 816.1882865298539, 1951.3189811808988, 0.09600000455975533, 0.4800000227987766, 0.9120000433176756, 0.0, 0.0, 0.0, 0.0, 0.0, 1.6384943941864855E9, 0.0, 2021-12-02 19:19:54.186
71.0, 1562.4329640883952, 472.87295039743185, 805.0134654622525, 1937.3541947463527, 0.09600000455975533, 0.4800000227987766, 0.9120000433176756, 0.0, 0.0, 0.0, 0.0, 0.0, 1.6384943941864855E9, 0.0, 2021-12-02 19:19:54.186
72.0, 1553.909732089378, 472.8879099972546, 813.136528166011, 1952.7850219635293, 0.09600000455975533, 0.4800000227987766, 0.9120000433176756, 0.0, 0.0, 0.0, 0.0, 0.0, 1.638494394187208E9, 0.0, 2021-12-02 19:19:54.187
72.0, 1553.4908632943407, 484.84811005555093, 825.4407990202308, 1977.3524247724563, 0.09600000455975533, 0.4800000227987766, 0.9120000433176756, 0.0, 0.0, 0.0, 0.0, 0.0, 1.638494394187208E9, 0.0, 2021-12-02 19:19:54.187
73.0, 1568.6524177147076, 469.5593990366906, 807.9492869274691, 1957.8712859032676, 0.09600000455975533, 0.4800000227987766, 0.9120000433176756, 0.0, 0.0, 0.0, 0.0, 0.0, 1.6384943942007487E9, 0.0, 2021-12-02 19:19:54.200
73.0, 1573.4058305583894, 465.45672878529876, 801.9018686991185, 1937.3654144462198, 0.09600000455975533, 0.4800000227987766, 0.9120000433176756, 0.0, 0.0, 0.0, 0.0, 0.0, 1.6384943942007487E9, 0.0, 2021-12-02 19:19:54.200
74.0, 1605.4754726784304, 483.569064270705, 822.1272476594895, 1969.99978145957, 0.09600000455975533, 0.4800000227987766, 0.9120000433176756, 0.0, 0.0, 0.0, 0.0, 0.0, 1.638494394216475E9, 0.0, 2021-12-02 19:19:54.216
74.0, 1655.1712632896379, 473.0113266957924, 811.5470706848428, 1971.843552137725, 0.09600000455975533, 0.4800000227987766, 0.9120000433176756, 0.0, 0.0, 0.0, 0.0, 0.0, 1.638494394216475E9, 0.0, 2021-12-02 19:19:54.216
75.0, 1682.3042374681681, 449.04978767968714, 785.0760587984696, 1985.09775758069, 0.09600000455975533, 0.4800000227987766, 0.9120000433176756, 0.0, 0.0, 0.0, 0.0, 0.0, 1.6384943942172256E9, 0.0, 2021-12-02 19:19:54.217
75.0, 1614.851401867345, 455.9648626977578, 795.7459933720529, 2000.6632211962715, 0.09600000455975533, 0.4800000227987766, 0.9120000433176756, 0.0, 0.0, 0.0, 0.0, 0.0, 1.6384943942172256E9, 0.0, 2021-12-02 19:19:54.217
76.0, 1685.3709554318339, 473.50499348994344, 802.8555431878194, 1984.2488002907485, 0.09600000455975533, 0.4800000227987766, 0.9120000433176756, 0.0, 0.0, 0.0, 0.0, 0.0, 1.63849439423085E9, 0.0, 2021-12-02 19:19:54.230
76.0, 1677.2329331282526, 449.835166670382, 783.636197315529, 1968.2569880802184, 0.09600000455975533, 0.4800000227987766, 0.9120000433176756, 0.0, 0.0, 0.0, 0.0, 0.0, 1.63849439423085E9, 0.0, 2021-12-02 19:19:54.230
77.0, 1590.2054611593485, 461.9524425268173, 790.49891373422, 1954.6848911410198, 0.09600000455975533, 0.4800000227987766, 0.9120000433176756, 0.0, 0.0, 0.0, 0.0, 0.0, 1.6384943942629335E9, 0.0, 2021-12-02 19:19:54.262
77.0, 1533.4861384313554, 479.0737045239657, 813.7124727591872, 1956.0611743247136, 0.09600000455975533, 0.4800000227987766, 0.9120000433176756, 0.0, 0.0, 0.0, 0.0, 0.0, 1.6384943942629335E9, 0.0, 2021-12-02 19:19:54.262
78.0, 1516.4695936329663, 470.45697502605617, 804.3851622696966, 1940.4283925099298, 0.09600000455975533, 0.4800000227987766, 0.9120000433176756, 0.0, 0.0, 0.0, 0.0, 0.0, 1.6384943942635837E9, 0.0, 2021-12-02 19:19:54.263
78.0, 1495.7019291790202, 464.0056476024911, 799.302638229914, 1956.2070304229856, 0.09600000455975533, 0.4800000227987766, 0.9120000433176756, 0.0, 0.0, 0.0, 0.0, 0.0, 1.6384943942635837E9, 0.0, 2021-12-02 19:19:54.263
79.0, 1517.2362731238827, 459.86931825149804, 801.5241388035938, 1966.3870381023735, 0.09600000455975533, 0.4800000227987766, 0.9120000433176756, 0.0, 0.0, 0.0, 0.0, 0.0, 1.6384943942643716E9, 0.0, 2021-12-02 19:19:54.264
79.0, 1585.048139120452, 488.2028003158048, 799.3138579297811, 1968.7282154746354, 0.09600000455975533, 0.4800000227987766, 0.9120000433176756, 0.0, 0.0, 0.0, 0.0, 0.0, 1.6384943942643716E9, 0.0, 2021-12-02 19:19:54.264
80.0, 1585.1304169194773, 499.3103031842038, 799.5906105265021, 1948.5103163141757, 0.09600000455975533, 0.4800000227987766, 0.9120000433176756, 0.0, 0.0, 0.0, 0.0, 0.0, 1.6384943942650928E9, 0.0, 2021-12-02 19:19:54.265
80.0, 1578.308839400299, 513.5668018152937, 819.8234692867845, 1939.740250918083, 0.09600000455975533, 0.4800000227987766, 0.9120000433176756, 0.0, 0.0, 0.0, 0.0, 0.0, 1.6384943942650928E9, 0.0, 2021-12-02 19:19:54.265
81.0, 1610.3859613202512, 520.2200838364661, 813.2337655648589, 1968.731955374591, 0.09600000455975533, 0.4800000227987766, 0.9120000433176756, 0.0, 0.0, 0.0, 0.0, 0.0, 1.6384943942915344E9, 0.0, 2021-12-02 19:19:54.291
81.0, 1591.0618982492015, 509.6810457613319, 791.246893725358, 1943.790562570095, 0.09600000455975533, 0.4800000227987766, 0.9120000433176756, 0.0, 0.0, 0.0, 0.0, 0.0, 1.6384943942915344E9, 0.0, 2021-12-02 19:19:54.291
82.0, 1571.1170117855072, 521.9366979161277, 798.0422919448465, 1943.6447064718232, 0.09600000455975533, 0.4800000227987766, 0.9120000433176756, 0.0, 0.0, 0.0, 0.0, 0.0, 1.638494394292209E9, 0.0, 2021-12-02 19:19:54.292
82.0, 1563.2632218785584, 527.1276790546253, 807.9754662271589, 1963.885045032017, 0.09600000455975533, 0.4800000227987766, 0.9120000433176756, 0.0, 0.0, 0.0, 0.0, 0.0, 1.638494394292209E9, 0.0, 2021-12-02 19:19:54.292
83.0, 1576.1396974259987, 501.8309957543388, 783.8231923133135, 1958.9595967903733, 0.09600000455975533, 0.4800000227987766, 0.9120000433176756, 0.0, 0.0, 0.0, 0.0, 0.0, 1.6384943943065207E9, 0.0, 2021-12-02 19:19:54.306
83.0, 1609.7913172272965, 495.7162593267858, 774.7427152208984, 1940.8884002044797, 0.09600000455975533, 0.4800000227987766, 0.9120000433176756, 0.0, 0.0, 0.0, 0.0, 0.0, 1.6384943943065207E9, 0.0, 2021-12-02 19:19:54.306
84.0, 1595.2206669999287, 515.6125270910561, 790.6298102326691, 1962.2955875508487, 0.09600000455975533, 0.4800000227987766, 0.9120000433176756, 0.0, 0.0, 0.0, 0.0, 0.0, 1.6384943943071537E9, 0.0, 2021-12-02 19:19:54.307
84.0, 1604.7461921870708, 513.4920038161799, 787.2751199724153, 1964.6741639226675, 0.09600000455975533, 0.4800000227987766, 0.9120000433176756, 0.0, 0.0, 0.0, 0.0, 0.0, 1.6384943943071537E9, 0.0, 2021-12-02 19:19:54.307
85.0, 1573.8284392533824, 490.62251558713615, 769.4208375839517, 1928.6477076495066, 0.09600000455975533, 0.4800000227987766, 0.9120000433176756, 0.0, 0.0, 0.0, 0.0, 0.0, 1.638494394320753E9, 0.0, 2021-12-02 19:19:54.320
85.0, 1570.6757035907358, 509.6174674620852, 787.7538271667436, 1950.5859607895836, 0.09600000455975533, 0.4800000227987766, 0.9120000433176756, 0.0, 0.0, 0.0, 0.0, 0.0, 1.638494394320753E9, 0.0, 2021-12-02 19:19:54.320
86.0, 1589.6108170663938, 517.9611842632294, 792.4474016111344, 1967.007861495018, 0.09600000455975533, 0.4800000227987766, 0.9120000433176756, 0.0, 0.0, 0.0, 0.0, 0.0, 1.6384943943364816E9, 0.0, 2021-12-02 19:19:54.336
86.0, 1589.4462614683434, 494.3773751426488, 776.3807914014906, 1958.4621900962666, 0.09600000455975533, 0.4800000227987766, 0.9120000433176756, 0.0, 0.0, 0.0, 0.0, 0.0, 1.6384943943364816E9, 0.0, 2021-12-02 19:19:54.336
87.0, 1577.5421599093825, 499.9012073772028, 779.7616609614342, 1951.4536175793037, 0.09600000455975533, 0.4800000227987766, 0.9120000433176756, 0.0, 0.0, 0.0, 0.0, 0.0, 1.6384943943371592E9, 0.0, 2021-12-02 19:19:54.337
87.0, 1586.7909324998036, 514.8757667997852, 794.4332884876058, 1964.0309011302888, 0.09600000455975533, 0.4800000227987766, 0.9120000433176756, 0.0, 0.0, 0.0, 0.0, 0.0, 1.6384943943371592E9, 0.0, 2021-12-02 19:19:54.337
88.0, 1587.004106797278, 491.6509880749509, 779.7654008613899, 1951.6705317767337, 0.09600000455975533, 0.4800000227987766, 0.9120000433176756, 0.0, 0.0, 0.0, 0.0, 0.0, 1.6384943943507602E9, 0.0, 2021-12-02 19:19:54.350
88.0, 1573.1889163609594, 483.5316652711481, 769.7387290801853, 1944.624560260214, 0.09600000455975533, 0.4800000227987766, 0.9120000433176756, 0.0, 0.0, 0.0, 0.0, 0.0, 1.6384943943507602E9, 0.0, 2021-12-02 19:19:54.350
89.0, 1565.5894396509975, 500.21535897348076, 787.7912261663005, 1954.5203355429694, 0.09600000455975533, 0.4800000227987766, 0.9120000433176756, 0.0, 0.0, 0.0, 0.0, 0.0, 1.6384943943664463E9, 0.0, 2021-12-02 19:19:54.366
89.0, 1594.083737413399, 496.8756283130497, 784.1523035094142, 1951.4760569790378, 0.09600000455975533, 0.4800000227987766, 0.9120000433176756, 0.0, 0.0, 0.0, 0.0, 0.0, 1.6384943943664463E9, 0.0, 2021-12-02 19:19:54.366
90.0, 1584.8723638225347, 481.6467556934804, 770.7896409677342, 1947.7286772234365, 0.09600000455975533, 0.4800000227987766, 0.9120000433176756, 0.0, 0.0, 0.0, 0.0, 0.0, 1.6384943943671615E9, 0.0, 2021-12-02 19:19:54.367
90.0, 1591.51442614384, 491.9277406716719, 784.8591446010396, 1955.6273459298536, 0.09600000455975533, 0.4800000227987766, 0.9120000433176756, 0.0, 0.0, 0.0, 0.0, 0.0, 1.6384943943671615E9, 0.0, 2021-12-02 19:19:54.367
91.0, 1582.9537951452658, 499.127048086375, 789.0440926514566, 1981.9450219180435, 0.09600000455975533, 0.4800000227987766, 0.9120000433176756, 0.0, 0.0, 0.0, 0.0, 0.0, 1.6384943943807747E9, 0.0, 2021-12-02 19:19:54.380
91.0, 1617.0990817407146, 484.642415557988, 774.578159622848, 1954.2772420458496, 0.09600000455975533, 0.4800000227987766, 0.9120000433176756, 0.0, 0.0, 0.0, 0.0, 0.0, 1.6384943943807747E9, 0.0, 2021-12-02 19:19:54.380
92.0, 1586.2374273063615, 481.9422077899799, 776.7959202965721, 1951.0235290843993, 0.11200000531971455, 0.4800000227987766, 0.9120000433176756, 0.0, 0.0, 0.0, 0.0, 0.0, 1.6384943943964784E9, 0.0, 2021-12-02 19:19:54.396
92.0, 1607.7418520515785, 502.74353134352714, 792.3613839121535, 1966.5029750009999, 0.11200000531971455, 0.4800000227987766, 0.9120000433176756, 0.0, 0.0, 0.0, 0.0, 0.0, 1.6384943943964784E9, 0.0, 2021-12-02 19:19:54.396
93.0, 1612.8505553910509, 481.46724049560726, 774.6454778220505, 1962.6957568461075, 0.11200000531971455, 0.4800000227987766, 0.9120000433176756, 0.0, 0.0, 0.0, 0.0, 0.0, 1.638494394397194E9, 0.0, 2021-12-02 19:19:54.397
93.0, 1593.05900482554, 478.6286564292386, 775.0867860168219, 1954.9691235376522, 0.11200000531971455, 0.4800000227987766, 0.9120000433176756, 0.0, 0.0, 0.0, 0.0, 0.0, 1.638494394397194E9, 0.0, 2021-12-02 19:19:54.397
94.0, 1593.4404746210203, 489.69128049816936, 784.1485636094585, 1948.3607203159481, 0.11200000531971455, 0.4800000227987766, 0.9120000433176756, 0.0, 0.0, 0.0, 0.0, 0.0, 1.6384943944278224E9, 0.0, 2021-12-02 19:19:54.427
94.0, 1622.039489582181, 487.9784063184634, 779.1333577688783, 1971.7537945387885, 0.11200000531971455, 0.4800000227987766, 0.9120000433176756, 0.0, 0.0, 0.0, 0.0, 0.0, 1.6384943944278224E9, 0.0, 2021-12-02 19:19:54.427
95.0, 1635.2001975262538, 473.8565440857783, 768.6915570925921, 1934.0182039858773, 0.11200000531971455, 0.4800000227987766, 0.9120000433176756, 0.0, 0.0, 0.0, 0.0, 0.0, 1.638494394428557E9, 0.0, 2021-12-02 19:19:54.428
95.0, 1611.6874465048313, 488.5356514118612, 788.7187213553116, 1968.0625132825226, 0.11200000531971455, 0.4800000227987766, 0.9120000433176756, 0.0, 0.0, 0.0, 0.0, 0.0, 1.638494394428557E9, 0.0, 2021-12-02 19:19:54.428
96.0, 1586.1401899075136, 495.55170372873545, 793.718967596069, 1977.7077152682468, 0.11200000531971455, 0.4800000227987766, 0.9120000433176756, 0.0, 0.0, 0.0, 0.0, 0.0, 1.638494394429416E9, 0.0, 2021-12-02 19:19:54.429
96.0, 1644.4078312171623, 478.20604773424566, 772.588532846421, 1956.1434521237388, 0.11200000531971455, 0.4800000227987766, 0.9120000433176756, 0.0, 0.0, 0.0, 0.0, 0.0, 1.638494394429416E9, 0.0, 2021-12-02 19:19:54.429
97.0, 1646.3488392941654, 474.7391604753211, 773.553427034989, 1936.1873459601775, 0.11200000531971455, 0.4800000227987766, 0.9120000433176756, 0.0, 0.0, 0.0, 0.0, 0.0, 1.638494394440756E9, 0.0, 2021-12-02 19:19:54.440
97.0, 1602.1918405173346, 495.51804462913424, 793.6479094969109, 1959.7561954809353, 0.11200000531971455, 0.4800000227987766, 0.9120000433176756, 0.0, 0.0, 0.0, 0.0, 0.0, 1.638494394440756E9, 0.0, 2021-12-02 19:19:54.440
98.0, 1653.3349724113941, 481.5270788948983, 779.402630565688, 1961.1511781644076, 0.11200000531971455, 0.4800000227987766, 0.9120000433176756, 0.0, 0.0, 0.0, 0.0, 0.0, 1.6384943944565594E9, 0.0, 2021-12-02 19:19:54.456
98.0, 1648.525461068377, 479.6384294172749, 779.4587290650234, 1926.9011743701994, 0.11200000531971455, 0.4800000227987766, 0.9120000433176756, 0.0, 0.0, 0.0, 0.0, 0.0, 1.6384943944565594E9, 0.0, 2021-12-02 19:19:54.456
99.0, 1611.9118405021727, 497.836782601662, 793.7002680962905, 1966.5216745007783, 0.11200000531971455, 0.4800000227987766, 0.9120000433176756, 0.0, 0.0, 0.0, 0.0, 0.0, 1.638494394457268E9, 0.0, 2021-12-02 19:19:54.457
99.0, 1653.8809978049248, 490.4990988885984, 789.3096255483106, 1953.7947949515656, 0.11200000531971455, 0.4800000227987766, 0.9120000433176756, 0.0, 0.0, 0.0, 0.0, 0.0, 1.638494394457268E9, 0.0, 2021-12-02 19:19:54.457
100.0, 1645.316626906395, 468.7141816467047, 766.8216071147472, 1923.179973914288, 0.11200000531971455, 0.4800000227987766, 0.9120000433176756, 0.0, 0.0, 0.0, 0.0, 0.0, 1.6384943944714675E9, 0.0, 2021-12-02 19:19:54.471
100.0, 1647.2987738829106, 492.155874568969, 793.7040079962462, 1945.7540100468323, 0.11200000531971455, 0.4800000227987766, 0.9120000433176756, 0.0, 0.0, 0.0, 0.0, 0.0, 1.6384943944714675E9, 0.0, 2021-12-02 19:19:54.471
0.0, 1662.8324483488686, 495.207632932812, 795.6992446226068, 1952.9869765611365, 0.11200000531971455, 0.4800000227987766, 0.9120000433176756, 0.0, 0.0, 0.0, 0.0, 0.0, 1.638494394472161E9, 0.0, 2021-12-02 19:19:54.472
1.0, 1629.1845684475265, 475.8835698617622, 777.1418610424735, 1951.2254836820066, 0.11200000531971455, 0.4800000227987766, 0.9120000433176756, 0.0, 0.0, 0.0, 0.0, 0.0, 1.6384943944858005E9, 0.0, 2021-12-02 19:19:54.485
1.0, 1632.9095088033937, 489.7062400979921, 786.7795832282864, 1948.6000739131123, 0.11200000531971455, 0.4800000227987766, 0.9120000433176756, 0.0, 0.0, 0.0, 0.0, 0.0, 1.6384943944858005E9, 0.0, 2021-12-02 19:19:54.485
2.0, 1627.165022471454, 503.95525892917067, 800.9276247606613, 1945.974664144218, 0.09600000455975533, 0.4800000227987766, 0.9120000433176756, 0.0, 0.0, 0.0, 0.0, 0.0, 1.638494394501468E9, 0.0, 2021-12-02 19:19:54.501
2.0, 1642.8613825854845, 475.43104196712375, 784.25141085824, 1956.3753259209916, 0.09600000455975533, 0.4800000227987766, 0.9120000433176756, 0.0, 0.0, 0.0, 0.0, 0.0, 1.638494394501468E9, 0.0, 2021-12-02 19:19:54.501
3.0, 1621.1624830425717, 474.35769067984074, 781.9326728857122, 1950.4214051915333, 0.09600000455975533, 0.4800000227987766, 0.9120000433176756, 0.0, 0.0, 0.0, 0.0, 0.0, 1.6384943945021985E9, 0.0, 2021-12-02 19:19:54.502
3.0, 1580.6518867225386, 499.32526278402656, 806.3205604967661, 1953.8097545513883, 0.09600000455975533, 0.4800000227987766, 0.9120000433176756, 0.0, 0.0, 0.0, 0.0, 0.0, 1.6384943945021985E9, 0.0, 2021-12-02 19:19:54.502
4.0, 1603.816827048082, 493.1880869567394, 798.7210837868042, 1973.073979223147, 0.09600000455975533, 0.4800000227987766, 0.9120000433176756, 0.0, 0.0, 0.0, 0.0, 0.0, 1.6384943945158143E9, 0.0, 2021-12-02 19:19:54.515
4.0, 1572.4652457195334, 467.0798453660682, 782.0186905846931, 1945.6642524478957, 0.09600000455975533, 0.4800000227987766, 0.9120000433176756, 0.0, 0.0, 0.0, 0.0, 0.0, 1.6384943945158143E9, 0.0, 2021-12-02 19:19:54.515
5.0, 1559.2933180755936, 497.2795375082642, 808.4523034715094, 1945.7764494465664, 0.09600000455975533, 0.4800000227987766, 0.9120000433176756, 0.0, 0.0, 0.0, 0.0, 0.0, 1.638494394531463E9, 0.0, 2021-12-02 19:19:54.531
5.0, 1577.439312660601, 497.3580754073337, 809.7911876556464, 1950.7953951871023, 0.09600000455975533, 0.4800000227987766, 0.9120000433176756, 0.0, 0.0, 0.0, 0.0, 0.0, 1.638494394531463E9, 0.0, 2021-12-02 19:19:54.531
6.0, 1561.2492857524194, 461.4774752324447, 771.5694101084955, 1940.5518092084676, 0.09600000455975533, 0.4800000227987766, 0.9120000433176756, 0.0, 0.0, 0.0, 0.0, 0.0, 1.63849439453221E9, 0.0, 2021-12-02 19:19:54.532
6.0, 1560.5237451610155, 500.791303566657, 803.1940041338094, 1936.6062147552148, 0.09600000455975533, 0.4800000227987766, 0.9120000433176756, 0.0, 0.0, 0.0, 0.0, 0.0, 1.63849439453221E9, 0.0, 2021-12-02 19:19:54.532
7.0, 1549.9248686865903, 519.3673866465688, 821.0034077228047, 1955.7619823282585, 0.09600000455975533, 0.4800000227987766, 0.9120000433176756, 0.0, 0.0, 0.0, 0.0, 0.0, 1.638494394545863E9, 0.0, 2021-12-02 19:19:54.545
7.0, 1569.5443838541396, 489.9642931949347, 796.7950353096239, 1948.3233213163912, 0.09600000455975533, 0.4800000227987766, 0.9120000433176756, 0.0, 0.0, 0.0, 0.0, 0.0, 1.638494394545863E9, 0.0, 2021-12-02 19:19:54.545
8.0, 1596.9466308294795, 485.40161524899304, 791.9443850670941, 1929.6275614378974, 0.09600000455975533, 0.4800000227987766, 0.9120000433176756, 0.0, 0.0, 0.0, 0.0, 0.0, 1.6384943945615032E9, 0.0, 2021-12-02 19:19:54.561
8.0, 1542.1944954781793, 509.26217696629465, 810.6438848455437, 1951.1581654828042, 0.09600000455975533, 0.4800000227987766, 0.9120000433176756, 0.0, 0.0, 0.0, 0.0, 0.0, 1.6384943945615032E9, 0.0, 2021-12-02 19:19:54.561
9.0, 1573.1758267111145, 508.59647477418184, 813.5572669110261, 1953.8172343512997, 0.09600000455975533, 0.4800000227987766, 0.9120000433176756, 0.0, 0.0, 0.0, 0.0, 0.0, 1.638494394562199E9, 0.0, 2021-12-02 19:19:54.562
9.0, 1541.0538259916939, 482.8173443796113, 787.2208914230578, 1946.2663763407618, 0.09600000455975533, 0.4800000227987766, 0.9120000433176756, 0.0, 0.0, 0.0, 0.0, 0.0, 1.638494394562199E9, 0.0, 2021-12-02 19:19:54.562
10.0, 1579.1708863400854, 508.88444707076997, 811.2198294387199, 1938.8613744284958, 0.09600000455975533, 0.4800000227987766, 0.9120000433176756, 0.0, 0.0, 0.0, 0.0, 0.0, 1.6384943945757747E9, 0.0, 2021-12-02 19:19:54.575
10.0, 1582.4769579009153, 515.0216228980571, 821.325039118994, 1959.5878999829292, 0.09600000455975533, 0.4800000227987766, 0.9120000433176756, 0.0, 0.0, 0.0, 0.0, 0.0, 1.6384943945757747E9, 0.0, 2021-12-02 19:19:54.575
11.0, 1583.2211979920976, 483.1838545752689, 791.7237309697084, 1929.5265841390938, 0.09600000455975533, 0.4800000227987766, 0.9120000433176756, 0.0, 0.0, 0.0, 0.0, 0.0, 1.6384943945920062E9, 0.0, 2021-12-02 19:19:54.592
11.0, 1552.281005658675, 496.5988757163286, 801.6756047517993, 1942.5788349844515, 0.09600000455975533, 0.4800000227987766, 0.9120000433176756, 0.0, 0.0, 0.0, 0.0, 0.0, 1.6384943945920062E9, 0.0, 2021-12-02 19:19:54.592
12.0, 1550.4933334798552, 511.6108341384679, 819.9450160353445, 1970.8038599500433, 0.11200000531971455, 0.4800000227987766, 0.9120000433176756, 0.0, 0.0, 0.0, 0.0, 0.0, 1.6384943946228654E9, 0.0, 2021-12-02 19:19:54.622
12.0, 1595.626446145121, 500.0208841757849, 807.7118032802828, 1939.3026826232672, 0.11200000531971455, 0.4800000227987766, 0.9120000433176756, 0.0, 0.0, 0.0, 0.0, 0.0, 1.6384943946228654E9, 0.0, 2021-12-02 19:19:54.622
13.0, 1563.2239529290237, 487.14066872838885, 793.9302719435655, 1928.2288388544694, 0.11200000531971455, 0.4800000227987766, 0.9120000433176756, 0.0, 0.0, 0.0, 0.0, 0.0, 1.638494394623587E9, 0.0, 2021-12-02 19:19:54.623
13.0, 1573.8377890032716, 502.0553897516802, 817.2784673669375, 1958.0283617014065, 0.11200000531971455, 0.4800000227987766, 0.9120000433176756, 0.0, 0.0, 0.0, 0.0, 0.0, 1.638494394623587E9, 0.0, 2021-12-02 19:19:54.623
14.0, 1552.883129551541, 507.55304268654436, 818.9950814465992, 1960.1040061768144, 0.11200000531971455, 0.4800000227987766, 0.9120000433176756, 0.0, 0.0, 0.0, 0.0, 0.0, 1.6384943946243043E9, 0.0, 2021-12-02 19:19:54.624
14.0, 1578.5164038478397, 490.2709649913013, 801.4100718549453, 1937.844121640548, 0.11200000531971455, 0.4800000227987766, 0.9120000433176756, 0.0, 0.0, 0.0, 0.0, 0.0, 1.6384943946243043E9, 0.0, 2021-12-02 19:19:54.624
15.0, 1532.369778294582, 501.4981446582824, 813.8564589074813, 1927.2003663666546, 0.11200000531971455, 0.4800000227987766, 0.9120000433176756, 0.0, 0.0, 0.0, 0.0, 0.0, 1.6384943946250732E9, 0.0, 2021-12-02 19:19:54.625
15.0, 1567.8614288740791, 511.74173063691705, 828.4233692348935, 1958.2677152985707, 0.11200000531971455, 0.4800000227987766, 0.9120000433176756, 0.0, 0.0, 0.0, 0.0, 0.0, 1.6384943946250732E9, 0.0, 2021-12-02 19:19:54.625
16.0, 1585.9887239593081, 492.6046625636518, 808.6168590695597, 1919.0174652636051, 0.11200000531971455, 0.4800000227987766, 0.9120000433176756, 0.0, 0.0, 0.0, 0.0, 0.0, 1.6384943946357956E9, 0.0, 2021-12-02 19:19:54.635
16.0, 1558.118989489507, 495.6713805273175, 818.6809298503213, 1933.7900700885803, 0.11200000531971455, 0.4800000227987766, 0.9120000433176756, 0.0, 0.0, 0.0, 0.0, 0.0, 1.6384943946357956E9, 0.0, 2021-12-02 19:19:54.635
17.0, 1547.3929564165883, 513.828594812192, 832.2418070896529, 1958.4621900962666, 0.11200000531971455, 0.4800000227987766, 0.9120000433176756, 0.0, 0.0, 0.0, 0.0, 0.0, 1.6384943946514804E9, 0.0, 2021-12-02 19:19:54.651
17.0, 1572.2445916221477, 498.005078099668, 817.9890483585186, 1943.741943870671, 0.11200000531971455, 0.4800000227987766, 0.9120000433176756, 0.0, 0.0, 0.0, 0.0, 0.0, 1.6384943946514804E9, 0.0, 2021-12-02 19:19:54.651
18.0, 1602.261028666515, 504.8603147184476, 818.1910029561259, 1945.492217049934, 0.11200000531971455, 0.4800000227987766, 0.9120000433176756, 0.0, 0.0, 0.0, 0.0, 0.0, 1.6384943946522102E9, 0.0, 2021-12-02 19:19:54.652
18.0, 1567.464999478776, 502.1975059499964, 825.1135577741079, 1956.0723940245807, 0.11200000531971455, 0.4800000227987766, 0.9120000433176756, 0.0, 0.0, 0.0, 0.0, 0.0, 1.6384943946522102E9, 0.0, 2021-12-02 19:19:54.652
19.0, 1553.2309402474202, 499.3888410832733, 819.3728113421239, 1921.081890039146, 0.11200000531971455, 0.4800000227987766, 0.9120000433176756, 0.0, 0.0, 0.0, 0.0, 0.0, 1.6384943946657946E9, 0.0, 2021-12-02 19:19:54.665
19.0, 1576.859628167469, 479.2943586213514, 798.1226997938938, 1913.2692390317097, 0.11200000531971455, 0.4800000227987766, 0.9120000433176756, 0.0, 0.0, 0.0, 0.0, 0.0, 1.6384943946657946E9, 0.0, 2021-12-02 19:19:54.665
20.0, 1571.9379198257811, 500.21909887343645, 816.1377978804521, 1930.3194429297, 0.11200000531971455, 0.4800000227987766, 0.9120000433176756, 0.0, 0.0, 0.0, 0.0, 0.0, 1.6384943946815257E9, 0.0, 2021-12-02 19:19:54.681
20.0, 1566.993772084359, 503.22223853785545, 821.3773977183737, 1960.4779961723834, 0.11200000531971455, 0.4800000227987766, 0.9120000433176756, 0.0, 0.0, 0.0, 0.0, 0.0, 1.6384943946815257E9, 0.0, 2021-12-02 19:19:54.681
21.0, 1588.3635604311712, 485.5661708470434, 796.1293331175111, 1941.2511705001816, 0.11200000531971455, 0.4640000220388174, 0.9120000433176756, 0.0, 0.0, 0.0, 0.0, 0.0, 1.6384943946822467E9, 0.0, 2021-12-02 19:19:54.682
21.0, 1568.6767270644195, 495.0916960341856, 813.6919033094309, 1947.1901316298172, 0.11200000531971455, 0.4640000220388174, 0.9120000433176756, 0.0, 0.0, 0.0, 0.0, 0.0, 1.6384943946822467E9, 0.0, 2021-12-02 19:19:54.682
22.0, 1581.3400283143856, 501.70009925588965, 820.240468131844, 1943.7120246710256, 0.09600000455975533, 0.4640000220388174, 0.9120000433176756, 0.0, 0.0, 0.0, 0.0, 0.0, 1.6384943946957586E9, 0.0, 2021-12-02 19:19:54.695
22.0, 1569.5817828536965, 491.0488641820848, 804.5179287181236, 1931.5049912156537, 0.09600000455975533, 0.4640000220388174, 0.9120000433176756, 0.0, 0.0, 0.0, 0.0, 0.0, 1.6384943946957586E9, 0.0, 2021-12-02 19:19:54.695
23.0, 1551.06179827312, 488.3523963140324, 804.2523958212696, 1919.6495083561167, 0.09600000455975533, 0.4640000220388174, 0.9120000433176756, 0.0, 0.0, 0.0, 0.0, 0.0, 1.6384943947114992E9, 0.0, 2021-12-02 19:19:54.711
23.0, 1586.9349186480977, 507.545562886633, 825.4351891702972, 1949.774402499199, 0.09600000455975533, 0.4640000220388174, 0.9120000433176756, 0.0, 0.0, 0.0, 0.0, 0.0, 1.6384943947114992E9, 0.0, 2021-12-02 19:19:54.711
24.0, 1573.3216828093864, 497.4291335064918, 817.3869244656526, 1960.9155644671991, 0.09600000455975533, 0.4640000220388174, 0.9120000433176756, 0.0, 0.0, 0.0, 0.0, 0.0, 1.6384943947121964E9, 0.0, 2021-12-02 19:19:54.712
24.0, 1567.0349109838717, 483.4830465717241, 803.2426228332333, 1916.8408434893936, 0.09600000455975533, 0.4640000220388174, 0.9120000433176756, 0.0, 0.0, 0.0, 0.0, 0.0, 1.6384943947121964E9, 0.0, 2021-12-02 19:19:54.712
25.0, 1557.501905996818, 501.48318505845964, 821.3474785187282, 1939.0221901265904, 0.09600000455975533, 0.4640000220388174, 0.9120000433176756, 0.0, 0.0, 0.0, 0.0, 0.0, 1.638494394725785E9, 0.0, 2021-12-02 19:19:54.725
25.0, 1583.0753418938257, 505.7279715081677, 824.4702949817292, 1942.3843601867557, 0.09600000455975533, 0.4640000220388174, 0.9120000433176756, 0.0, 0.0, 0.0, 0.0, 0.0, 1.638494394725785E9, 0.0, 2021-12-02 19:19:54.725
26.0, 1607.1864769081585, 485.68958754558116, 804.5515878177248, 1932.3015899062157, 0.09600000455975533, 0.4640000220388174, 0.9120000433176756, 0.0, 0.0, 0.0, 0.0, 0.0, 1.6384943947414603E9, 0.0, 2021-12-02 19:19:54.741
26.0, 1555.2916251230054, 493.80891034938395, 814.7989136963151, 1927.955826157704, 0.09600000455975533, 0.4640000220388174, 0.9120000433176756, 0.0, 0.0, 0.0, 0.0, 0.0, 1.6384943947414603E9, 0.0, 2021-12-02 19:19:54.741
27.0, 1557.0119791026227, 510.8291950477287, 832.9449082813226, 1943.6858453713357, 0.09600000455975533, 0.4640000220388174, 0.9120000433176756, 0.0, 0.0, 0.0, 0.0, 0.0, 1.6384943947423239E9, 0.0, 2021-12-02 19:19:54.742
27.0, 1568.7403053636663, 493.0945894578472, 812.3866782248951, 1945.1518861539662, 0.09600000455975533, 0.4640000220388174, 0.9120000433176756, 0.0, 0.0, 0.0, 0.0, 0.0, 1.6384943947423239E9, 0.0, 2021-12-02 19:19:54.742
28.0, 1584.9565115715377, 485.99251944199204, 804.0205220240168, 1881.4838293083012, 0.09600000455975533, 0.4640000220388174, 0.9120000433176756, 0.0, 0.0, 0.0, 0.0, 0.0, 1.6384943947722044E9, 0.0, 2021-12-02 19:19:54.772
28.0, 1557.1017367015593, 508.47679797559977, 827.6118109445088, 1935.2000123718753, 0.09600000455975533, 0.4640000220388174, 0.9120000433176756, 0.0, 0.0, 0.0, 0.0, 0.0, 1.6384943947722044E9, 0.0, 2021-12-02 19:19:54.772
29.0, 1578.9427524427883, 509.7334043607116, 827.6940887435339, 1949.6023671012372, 0.09600000455975533, 0.4640000220388174, 0.9120000433176756, 0.0, 0.0, 0.0, 0.0, 0.0, 1.6384943947728765E9, 0.0, 2021-12-02 19:19:54.772
29.0, 1550.4035758809187, 482.35733668506145, 803.6128729288466, 1930.6485541258007, 0.09600000455975533, 0.4640000220388174, 0.9120000433176756, 0.0, 0.0, 0.0, 0.0, 0.0, 1.6384943947728765E9, 0.0, 2021-12-02 19:19:54.772
30.0, 1563.0369579312392, 501.9394528530538, 826.4935808577575, 1943.453971574083, 0.09600000455975533, 0.4640000220388174, 0.9120000433176756, 0.0, 0.0, 0.0, 0.0, 0.0, 1.6384943947735953E9, 0.0, 2021-12-02 19:19:54.773
30.0, 1581.407346513588, 503.25963753741235, 834.9943734570406, 1948.8394275102764, 0.09600000455975533, 0.4640000220388174, 0.9120000433176756, 0.0, 0.0, 0.0, 0.0, 0.0, 1.6384943947735953E9, 0.0, 2021-12-02 19:19:54.773
31.0, 1587.7838759380393, 480.4238084079698, 811.2385289384983, 1919.1820208616555, 0.09600000455975533, 0.4640000220388174, 0.9120000433176756, 0.0, 0.0, 0.0, 0.0, 0.0, 1.6384943947857895E9, 0.0, 2021-12-02 19:19:54.785
31.0, 1557.2064539003186, 492.0137583706528, 814.0696332049556, 1910.4830135647207, 0.09600000455975533, 0.4640000220388174, 0.9120000433176756, 0.0, 0.0, 0.0, 0.0, 0.0, 1.6384943947857895E9, 0.0, 2021-12-02 19:19:54.785
32.0, 1547.011486621108, 502.63507424481213, 829.6874554199167, 1937.3205356467515, 0.09600000455975533, 0.4640000220388174, 0.9120000433176756, 0.0, 0.0, 0.0, 0.0, 0.0, 1.6384943948014956E9, 0.0, 2021-12-02 19:19:54.801
32.0, 1590.427985206712, 487.4211612250656, 812.532534323167, 1939.9422055156901, 0.09600000455975533, 0.4640000220388174, 0.9120000433176756, 0.0, 0.0, 0.0, 0.0, 0.0, 1.6384943948014956E9, 0.0, 2021-12-02 19:19:54.801
33.0, 1578.4490856486373, 478.94280802551657, 800.1198063702323, 1925.098542591557, 0.09600000455975533, 0.4640000220388174, 0.9120000433176756, 0.0, 0.0, 0.0, 0.0, 0.0, 1.6384943948022063E9, 0.0, 2021-12-02 19:19:54.802
33.0, 1568.9310402614065, 499.826409378089, 824.6647697794251, 1917.5663840807974, 0.09600000455975533, 0.4640000220388174, 0.9120000433176756, 0.0, 0.0, 0.0, 0.0, 0.0, 1.6384943948022063E9, 0.0, 2021-12-02 19:19:54.802
34.0, 1552.4680006564595, 491.84172297269106, 820.300306531135, 1921.9084079293534, 0.09600000455975533, 0.4640000220388174, 0.9120000433176756, 0.0, 0.0, 0.0, 0.0, 0.0, 1.6384943948158114E9, 0.0, 2021-12-02 19:19:54.815
34.0, 1556.5482315081172, 477.0765979476273, 804.1888175220229, 1897.8832906140015, 0.09600000455975533, 0.4640000220388174, 0.9120000433176756, 0.0, 0.0, 0.0, 0.0, 0.0, 1.6384943948158114E9, 0.0, 2021-12-02 19:19:54.815
35.0, 1537.8001130302437, 492.40644786600024, 823.4530421937816, 1928.1764802550897, 0.09600000455975533, 0.4640000220388174, 0.9120000433176756, 0.0, 0.0, 0.0, 0.0, 0.0, 1.6384943948314807E9, 0.0, 2021-12-02 19:19:54.831
35.0, 1557.3186508989893, 501.37098805978894, 831.7369205956347, 1920.6031828448176, 0.09600000455975533, 0.4640000220388174, 0.9120000433176756, 0.0, 0.0, 0.0, 0.0, 0.0, 1.6384943948314807E9, 0.0, 2021-12-02 19:19:54.831
36.0, 1543.2678467654623, 474.7391604753211, 797.5804143003188, 1888.0623133303598, 0.09600000455975533, 0.4640000220388174, 0.9120000433176756, 0.0, 0.0, 0.0, 0.0, 0.0, 1.6384943948321953E9, 0.0, 2021-12-02 19:19:54.832
36.0, 1558.6051764837466, 486.40390843711793, 813.9985751057975, 1906.1970882155001, 0.09600000455975533, 0.4640000220388174, 0.9120000433176756, 0.0, 0.0, 0.0, 0.0, 0.0, 1.6384943948321953E9, 0.0, 2021-12-02 19:19:54.832
37.0, 1571.4405131316744, 505.2679638136178, 829.3059856244363, 1926.5645833741874, 0.09600000455975533, 0.4640000220388174, 0.9120000433176756, 0.0, 0.0, 0.0, 0.0, 0.0, 1.6384943948457873E9, 0.0, 2021-12-02 19:19:54.845
37.0, 1556.671648206655, 477.27481264527887, 804.2411761214025, 1920.7714783428237, 0.09600000455975533, 0.4640000220388174, 0.9120000433176756, 0.0, 0.0, 0.0, 0.0, 0.0, 1.6384943948457873E9, 0.0, 2021-12-02 19:19:54.845
38.0, 1570.853348838631, 479.3728965204209, 807.6332653812133, 1923.8269766066223, 0.09600000455975533, 0.4640000220388174, 0.9120000433176756, 0.0, 0.0, 0.0, 0.0, 0.0, 1.6384943948614855E9, 0.0, 2021-12-02 19:19:54.861
38.0, 1542.6395435729064, 501.6776598561555, 822.4021303062327, 1922.6713475203142, 0.09600000455975533, 0.4640000220388174, 0.9120000433176756, 0.0, 0.0, 0.0, 0.0, 0.0, 1.6384943948614855E9, 0.0, 2021-12-02 19:19:54.861
39.0, 1611.113371861633, 488.1654013162479, 815.6628305860795, 1922.6900470200926, 0.09600000455975533, 0.4640000220388174, 0.9120000433176756, 0.0, 0.0, 0.0, 0.0, 0.0, 1.6384943948621874E9, 0.0, 2021-12-02 19:19:54.862
39.0, 1528.2858075429685, 480.72674030438066, 803.1827844339423, 1926.4075075760484, 0.09600000455975533, 0.4640000220388174, 0.9120000433176756, 0.0, 0.0, 0.0, 0.0, 0.0, 1.6384943948621874E9, 0.0, 2021-12-02 19:19:54.862
40.0, 1555.078450825531, 500.7539045671001, 819.129717845004, 1913.373956230469, 0.09600000455975533, 0.4640000220388174, 0.9120000433176756, 0.0, 0.0, 0.0, 0.0, 0.0, 1.6384943948757858E9, 0.0, 2021-12-02 19:19:54.875
40.0, 1579.6869925339706, 506.0832620039582, 824.6797293792479, 1931.7443448128179, 0.09600000455975533, 0.4640000220388174, 0.9120000433176756, 0.0, 0.0, 0.0, 0.0, 0.0, 1.6384943948757858E9, 0.0, 2021-12-02 19:19:54.875
41.0, 1583.5091702886857, 478.17986843455583, 801.2118571572937, 1897.1240909229964, 0.09600000455975533, 0.4800000227987766, 0.9120000433176756, 0.0, 0.0, 0.0, 0.0, 0.0, 1.6384943948914716E9, 0.0, 2021-12-02 19:19:54.891
41.0, 1547.7445070124231, 481.3812227966264, 805.0639541116543, 1912.6820747386664, 0.09600000455975533, 0.4800000227987766, 0.9120000433176756, 0.0, 0.0, 0.0, 0.0, 0.0, 1.6384943948914716E9, 0.0, 2021-12-02 19:19:54.891
42.0, 1567.0610902835615, 506.1318807033822, 826.9199294527061, 1928.4233136521652, 0.11200000531971455, 0.4800000227987766, 0.9120000433176756, 0.0, 0.0, 0.0, 0.0, 0.0, 1.6384943948921816E9, 0.0, 2021-12-02 19:19:54.892
42.0, 1574.821382691618, 487.10700962878764, 810.9954354413785, 1931.815402911976, 0.11200000531971455, 0.4800000227987766, 0.9120000433176756, 0.0, 0.0, 0.0, 0.0, 0.0, 1.6384943948921816E9, 0.0, 2021-12-02 19:19:54.892
43.0, 1546.5140799270011, 486.149595240131, 805.1911107101478, 1911.5713244518265, 0.11200000531971455, 0.4800000227987766, 0.9120000433176756, 0.0, 0.0, 0.0, 0.0, 0.0, 1.6384943949057589E9, 0.0, 2021-12-02 19:19:54.905
43.0, 1575.2739105862565, 498.8652550894767, 824.79940617783, 1928.2587580541149, 0.11200000531971455, 0.4800000227987766, 0.9120000433176756, 0.0, 0.0, 0.0, 0.0, 0.0, 1.6384943949057589E9, 0.0, 2021-12-02 19:19:54.905
44.0, 1568.3775350679643, 506.70034549664706, 826.8900102530606, 1928.7486849483103, 0.11200000531971455, 0.4800000227987766, 0.9120000433176756, 0.0, 0.0, 0.0, 0.0, 0.0, 1.638494394921484E9, 0.0, 2021-12-02 19:19:54.921
44.0, 1565.5426909015514, 474.20809468161315, 794.7605297337286, 1915.4645603056997, 0.11200000531971455, 0.4800000227987766, 0.9120000433176756, 0.0, 0.0, 0.0, 0.0, 0.0, 1.638494394921484E9, 0.0, 2021-12-02 19:19:54.921
45.0, 1534.4491626699455, 490.4616998890415, 822.4432692057453, 1923.1650143144652, 0.11200000531971455, 0.4800000227987766, 0.9120000433176756, 0.0, 0.0, 0.0, 0.0, 0.0, 1.6384943949221592E9, 0.0, 2021-12-02 19:19:54.922
45.0, 1557.2550725997426, 498.2780907964334, 830.1586828143336, 1928.112901955843, 0.11200000531971455, 0.4800000227987766, 0.9120000433176756, 0.0, 0.0, 0.0, 0.0, 0.0, 1.6384943949221592E9, 0.0, 2021-12-02 19:19:54.922
46.0, 1564.076650118921, 476.68764835223556, 804.3384135202505, 1908.9683540826663, 0.11200000531971455, 0.4800000227987766, 0.9120000433176756, 0.0, 0.0, 0.0, 0.0, 0.0, 1.6384943949685352E9, 0.0, 2021-12-02 19:19:54.968
46.0, 1570.2063461462967, 493.6443547513336, 815.0008682939224, 1917.450447182171, 0.11200000531971455, 0.4800000227987766, 0.9120000433176756, 0.0, 0.0, 0.0, 0.0, 0.0, 1.6384943949685352E9, 0.0, 2021-12-02 19:19:54.968
47.0, 1550.3848763811402, 503.96273872908205, 828.1727959378622, 1967.0340407947078, 0.11200000531971455, 0.4800000227987766, 0.9120000433176756, 0.0, 0.0, 0.0, 0.0, 0.0, 1.6384943949692528E9, 0.0, 2021-12-02 19:19:54.969
47.0, 1559.5438913726248, 488.35987611394376, 816.1938963797875, 1925.532370986417, 0.11200000531971455, 0.4800000227987766, 0.9120000433176756, 0.0, 0.0, 0.0, 0.0, 0.0, 1.6384943949692528E9, 0.0, 2021-12-02 19:19:54.969
48.0, 1595.2823753491975, 474.5259861778468, 805.8530730023049, 1914.6305626155809, 0.11200000531971455, 0.4800000227987766, 0.9120000433176756, 0.0, 0.0, 0.0, 0.0, 0.0, 1.6384943949699728E9, 0.0, 2021-12-02 19:19:54.969
48.0, 1558.492979485076, 492.02497807051986, 821.8299256130122, 1932.8962339991704, 0.11200000531971455, 0.4800000227987766, 0.9120000433176756, 0.0, 0.0, 0.0, 0.0, 0.0, 1.6384943949699728E9, 0.0, 2021-12-02 19:19:54.969
49.0, 1589.5752880168147, 487.14440862834454, 817.8431922602467, 1939.5083771208301, 0.11200000531971455, 0.4800000227987766, 0.9120000433176756, 0.0, 0.0, 0.0, 0.0, 0.0, 1.6384943949707587E9, 0.0, 2021-12-02 19:19:54.970
49.0, 1594.5830140574835, 475.9658476607874, 808.5570206702687, 1900.7555337799713, 0.11200000531971455, 0.4800000227987766, 0.9120000433176756, 0.0, 0.0, 0.0, 0.0, 0.0, 1.6384943949707587E9, 0.0, 2021-12-02 19:19:54.970
50.0, 1577.2410979629494, 487.28278492670506, 813.0262011173181, 1918.7556722667068, 0.11200000531971455, 0.4800000227987766, 0.9120000433176756, 0.0, 0.0, 0.0, 0.0, 0.0, 1.6384943949818711E9, 0.0, 2021-12-02 19:19:54.981
50.0, 1537.8412519297563, 489.47062640078366, 823.2024688967504, 1919.6495083561167, 0.11200000531971455, 0.4800000227987766, 0.9120000433176756, 0.0, 0.0, 0.0, 0.0, 0.0, 1.6384943949818711E9, 0.0, 2021-12-02 19:19:54.981
51.0, 1546.4168425281532, 470.4420154262334, 801.7765820506029, 1925.3939946880564, 0.11200000531971455, 0.4640000220388174, 0.9120000433176756, 0.0, 0.0, 0.0, 0.0, 0.0, 1.6384943949965403E9, 0.0, 2021-12-02 19:19:54.996
51.0, 1555.9386278153397, 479.72070721630007, 809.4358971598558, 1929.2236522426829, 0.11200000531971455, 0.4640000220388174, 0.9120000433176756, 0.0, 0.0, 0.0, 0.0, 0.0, 1.6384943949965403E9, 0.0, 2021-12-02 19:19:54.996
52.0, 1552.123929860536, 497.0551435109228, 825.2519340724684, 1943.8429211694747, 0.09600000455975533, 0.4640000220388174, 0.9120000433176756, 0.0, 0.0, 0.0, 0.0, 0.0, 1.6384943949972305E9, 0.0, 2021-12-02 19:19:54.997
52.0, 1562.2366193407215, 476.754966551438, 809.783707855735, 1911.2197738559917, 0.09600000455975533, 0.4640000220388174, 0.9120000433176756, 0.0, 0.0, 0.0, 0.0, 0.0, 1.6384943949972305E9, 0.0, 2021-12-02 19:19:54.997
53.0, 1536.6183046442457, 465.42680958565325, 797.9581441958435, 1899.6410435931757, 0.09600000455975533, 0.4640000220388174, 0.9120000433176756, 0.0, 0.0, 0.0, 0.0, 0.0, 1.6384943950279176E9, 0.0, 2021-12-02 19:19:55.027
53.0, 1537.9384893286042, 486.8339969320223, 821.7626074138097, 1921.9308473290876, 0.09600000455975533, 0.4640000220388174, 0.9120000433176756, 0.0, 0.0, 0.0, 0.0, 0.0, 1.6384943950279176E9, 0.0, 2021-12-02 19:19:55.027
54.0, 1542.4675081749447, 474.993473672308, 813.1084789163433, 1937.0475229499862, 0.09600000455975533, 0.4640000220388174, 0.9120000433176756, 0.0, 0.0, 0.0, 0.0, 0.0, 1.6384943950286052E9, 0.0, 2021-12-02 19:19:55.028
54.0, 1555.7815520172007, 463.19782921206206, 798.7547428864054, 1914.0658377222717, 0.09600000455975533, 0.4640000220388174, 0.9120000433176756, 0.0, 0.0, 0.0, 0.0, 0.0, 1.6384943950286052E9, 0.0, 2021-12-02 19:19:55.028
55.0, 1573.0150110130198, 480.24803311005235, 815.4309567888267, 1899.5064071947709, 0.09600000455975533, 0.4640000220388174, 0.9120000433176756, 0.0, 0.0, 0.0, 0.0, 0.0, 1.6384943950293803E9, 0.0, 2021-12-02 19:19:55.029
55.0, 1538.0469464273192, 484.1487487638369, 819.0511799459346, 1928.606568749994, 0.09600000455975533, 0.4640000220388174, 0.9120000433176756, 0.0, 0.0, 0.0, 0.0, 0.0, 1.6384943950293803E9, 0.0, 2021-12-02 19:19:55.029
56.0, 1538.0880853268318, 465.61006468348205, 803.728809827473, 1931.5049912156537, 0.09600000455975533, 0.4640000220388174, 0.9120000433176756, 0.0, 0.0, 0.0, 0.0, 0.0, 1.6384943950300744E9, 0.0, 2021-12-02 19:19:55.030
56.0, 1507.5181430890225, 478.4603609312326, 807.3490329845808, 1899.9776345891878, 0.09600000455975533, 0.4640000220388174, 0.9120000433176756, 0.0, 0.0, 0.0, 0.0, 0.0, 1.6384943950300744E9, 0.0, 2021-12-02 19:19:55.030
57.0, 1560.5387047608383, 496.36700191907585, 832.1183903911151, 1931.164660319686, 0.09600000455975533, 0.4640000220388174, 0.9120000433176756, 0.0, 0.0, 0.0, 0.0, 0.0, 1.6384943950408585E9, 0.0, 2021-12-02 19:19:55.040
57.0, 1554.064937937539, 482.92206157837063, 812.6484712217934, 1928.1989196548238, 0.09600000455975533, 0.4640000220388174, 0.9120000433176756, 0.0, 0.0, 0.0, 0.0, 0.0, 1.6384943950408585E9, 0.0, 2021-12-02 19:19:55.040
58.0, 1502.0279699540697, 477.4206687435508, 815.1616839920171, 1917.282151684165, 0.09600000455975533, 0.4640000220388174, 0.9120000433176756, 0.0, 0.0, 0.0, 0.0, 0.0, 1.6384943950557473E9, 0.0, 2021-12-02 19:19:55.055
58.0, 1558.926807879936, 501.29992996063083, 829.949248416815, 1933.5320169916376, 0.09600000455975533, 0.4640000220388174, 0.9120000433176756, 0.0, 0.0, 0.0, 0.0, 0.0, 1.6384943950557473E9, 0.0, 2021-12-02 19:19:55.055
59.0, 1557.479466597084, 488.29255791474134, 817.9105104594491, 1932.2230520071462, 0.09600000455975533, 0.4640000220388174, 0.9120000433176756, 0.0, 0.0, 0.0, 0.0, 0.0, 1.6384943950714517E9, 0.0, 2021-12-02 19:19:55.071
59.0, 1573.5385970068164, 473.98744058422744, 804.308494320605, 1902.4833675595, 0.09600000455975533, 0.4640000220388174, 0.9120000433176756, 0.0, 0.0, 0.0, 0.0, 0.0, 1.6384943950714517E9, 0.0, 2021-12-02 19:19:55.071
60.0, 1523.9363038945012, 483.87947596702725, 821.8486251127906, 1919.9187811529264, 0.09600000455975533, 0.4640000220388174, 0.9120000433176756, 0.0, 0.0, 0.0, 0.0, 0.0, 1.6384943950721989E9, 0.0, 2021-12-02 19:19:55.072
60.0, 1572.023937524762, 492.51864486467093, 828.6589829321019, 1944.261789964512, 0.09600000455975533, 0.4640000220388174, 0.9120000433176756, 0.0, 0.0, 0.0, 0.0, 0.0, 1.6384943950721989E9, 0.0, 2021-12-02 19:19:55.072
61.0, 1615.8742645052262, 475.5694182654843, 807.6706643807702, 1931.4264533165842, 0.09600000455975533, 0.4640000220388174, 0.9120000433176756, 0.0, 0.0, 0.0, 0.0, 0.0, 1.6384943950857651E9, 0.0, 2021-12-02 19:19:55.085
61.0, 1614.0117943272926, 474.9635544726625, 813.6058856104501, 1941.3895467985421, 0.09600000455975533, 0.4640000220388174, 0.9120000433176756, 0.0, 0.0, 0.0, 0.0, 0.0, 1.6384943950857651E9, 0.0, 2021-12-02 19:19:55.085
62.0, 1649.0135180125944, 490.226086191833, 826.4187828586437, 1977.030793376267, 0.09600000455975533, 0.4640000220388174, 0.9120000433176756, 0.0, 0.0, 0.0, 0.0, 0.0, 1.638494395117843E9, 0.0, 2021-12-02 19:19:55.117
62.0, 1651.8184429793619, 479.2644394217059, 812.6484712217934, 1960.687430569902, 0.09600000455975533, 0.4640000220388174, 0.9120000433176756, 0.0, 0.0, 0.0, 0.0, 0.0, 1.638494395117843E9, 0.0, 2021-12-02 19:19:55.117
63.0, 1651.8969808784313, 472.1885487055406, 802.0047159479, 1941.5915013961494, 0.09600000455975533, 0.4640000220388174, 0.9120000433176756, 0.0, 0.0, 0.0, 0.0, 0.0, 1.6384943951185515E9, 0.0, 2021-12-02 19:19:55.118
63.0, 1609.1761036845855, 491.3817152781412, 826.8638309533708, 1921.1230289386585, 0.09600000455975533, 0.4640000220388174, 0.9120000433176756, 0.0, 0.0, 0.0, 0.0, 0.0, 1.6384943951185515E9, 0.0, 2021-12-02 19:19:55.118
64.0, 1571.4479929315858, 489.05923740565777, 818.684669750277, 1940.6415668074042, 0.09600000455975533, 0.4640000220388174, 0.9120000433176756, 0.0, 0.0, 0.0, 0.0, 0.0, 1.6384943951192813E9, 0.0, 2021-12-02 19:19:55.119
64.0, 1518.606946457643, 474.27915278077126, 805.1537117105909, 1905.1798354275525, 0.09600000455975533, 0.4640000220388174, 0.9120000433176756, 0.0, 0.0, 0.0, 0.0, 0.0, 1.6384943951192813E9, 0.0, 2021-12-02 19:19:55.119
65.0, 1512.8961192253046, 491.9015613719821, 819.877697836142, 1912.7680924376473, 0.09600000455975533, 0.4640000220388174, 0.9120000433176756, 0.0, 0.0, 0.0, 0.0, 0.0, 1.638494395120033E9, 0.0, 2021-12-02 19:19:55.120
65.0, 1556.7688856055029, 500.28641707263887, 833.505893274676, 1925.543590686284, 0.09600000455975533, 0.4640000220388174, 0.9120000433176756, 0.0, 0.0, 0.0, 0.0, 0.0, 1.638494395120033E9, 0.0, 2021-12-02 19:19:55.120
66.0, 1551.2936720703728, 480.2742124097422, 811.6985366330482, 1915.6702548032627, 0.09600000455975533, 0.4640000220388174, 0.9120000433176756, 0.0, 0.0, 0.0, 0.0, 0.0, 1.638494395130812E9, 0.0, 2021-12-02 19:19:55.130
66.0, 1605.9672695226036, 488.4197145132348, 818.4004373536445, 1928.2587580541149, 0.09600000455975533, 0.4640000220388174, 0.9120000433176756, 0.0, 0.0, 0.0, 0.0, 0.0, 1.638494395130812E9, 0.0, 2021-12-02 19:19:55.130
67.0, 1576.2388047748245, 498.319229695946, 829.201268425677, 1923.0565572157502, 0.09600000455975533, 0.4640000220388174, 0.9120000433176756, 0.0, 0.0, 0.0, 0.0, 0.0, 1.6384943951459012E9, 0.0, 2021-12-02 19:19:55.145
67.0, 1541.7494473834522, 484.20484726317227, 817.7272553616203, 1923.73347910773, 0.09600000455975533, 0.4640000220388174, 0.9120000433176756, 0.0, 0.0, 0.0, 0.0, 0.0, 1.6384943951459012E9, 0.0, 2021-12-02 19:19:55.145
68.0, 1549.4274619924836, 473.3740969914943, 806.5486943940632, 1905.0377192292362, 0.09600000455975533, 0.4640000220388174, 0.9120000433176756, 0.0, 0.0, 0.0, 0.0, 0.0, 1.6384943951614633E9, 0.0, 2021-12-02 19:19:55.161
68.0, 1539.6625832081772, 496.7222924148664, 830.2671399130486, 1941.8532943930477, 0.09600000455975533, 0.4640000220388174, 0.9120000433176756, 0.0, 0.0, 0.0, 0.0, 0.0, 1.6384943951614633E9, 0.0, 2021-12-02 19:19:55.161
69.0, 1596.965330329258, 482.6415690816939, 812.0239079291932, 1924.2869843011722, 0.09600000455975533, 0.4640000220388174, 0.9120000433176756, 0.0, 0.0, 0.0, 0.0, 0.0, 1.638494395162211E9, 0.0, 2021-12-02 19:19:55.162
69.0, 1572.300690121483, 473.84158448595554, 802.8499333378859, 1902.1916553629562, 0.09600000455975533, 0.4640000220388174, 0.9120000433176756, 0.0, 0.0, 0.0, 0.0, 0.0, 1.638494395162211E9, 0.0, 2021-12-02 19:19:55.162
70.0, 1546.394403128419, 493.2628849558532, 823.0453930986114, 1910.3932559657842, 0.09600000455975533, 0.4640000220388174, 0.9120000433176756, 0.0, 0.0, 0.0, 0.0, 0.0, 1.6384943951758423E9, 0.0, 2021-12-02 19:19:55.175
70.0, 1537.227908337023, 490.4616998890415, 818.587432351429, 1918.4490004703403, 0.09600000455975533, 0.4640000220388174, 0.9120000433176756, 0.0, 0.0, 0.0, 0.0, 0.0, 1.6384943951758423E9, 0.0, 2021-12-02 19:19:55.175
71.0, 1575.1018751882948, 468.2915729517117, 804.3159741205163, 1904.0429058410227, 0.09600000455975533, 0.4640000220388174, 0.9120000433176756, 0.0, 0.0, 0.0, 0.0, 0.0, 1.6384943951915233E9, 0.0, 2021-12-02 19:19:55.191
71.0, 1565.6623677001335, 479.09988382365555, 810.3446928490885, 1903.941928542219, 0.09600000455975533, 0.4640000220388174, 0.9120000433176756, 0.0, 0.0, 0.0, 0.0, 0.0, 1.6384943951915233E9, 0.0, 2021-12-02 19:19:55.191
72.0, 1559.6523484713398, 499.77779067866504, 830.8842234057374, 1914.8886157125235, 0.09600000455975533, 0.4640000220388174, 0.9120000433176756, 0.0, 0.0, 0.0, 0.0, 0.0, 1.638494395192237E9, 0.0, 2021-12-02 19:19:55.192
72.0, 1556.5781507077627, 472.6971750995144, 811.339506237302, 1902.977034353651, 0.09600000455975533, 0.4640000220388174, 0.9120000433176756, 0.0, 0.0, 0.0, 0.0, 0.0, 1.638494395192237E9, 0.0, 2021-12-02 19:19:55.192
73.0, 1552.400682457257, 478.2658861335367, 809.1367051634006, 1881.8465996040031, 0.09600000455975533, 0.4640000220388174, 0.9120000433176756, 0.0, 0.0, 0.0, 0.0, 0.0, 1.6384943952058377E9, 0.0, 2021-12-02 19:19:55.205
73.0, 1594.9345646533184, 501.62530125677586, 828.9693946284242, 1913.5085926288739, 0.09600000455975533, 0.4640000220388174, 0.9120000433176756, 0.0, 0.0, 0.0, 0.0, 0.0, 1.6384943952058377E9, 0.0, 2021-12-02 19:19:55.205
74.0, 1575.2514711865224, 495.8695952249691, 824.1748428852297, 1912.9962263349444, 0.09600000455975533, 0.4640000220388174, 0.9120000433176756, 0.0, 0.0, 0.0, 0.0, 0.0, 1.638494395221191E9, 0.0, 2021-12-02 19:19:55.221
74.0, 1555.0709710256197, 481.62431629374623, 811.3320264373906, 1905.9427750185132, 0.09600000455975533, 0.4640000220388174, 0.9120000433176756, 0.0, 0.0, 0.0, 0.0, 0.0, 1.638494395221191E9, 0.0, 2021-12-02 19:19:55.221
75.0, 1588.703891327139, 496.7522116145119, 829.2648467249237, 1900.6732559809461, 0.09600000455975533, 0.4640000220388174, 0.9120000433176756, 0.0, 0.0, 0.0, 0.0, 0.0, 1.6384943952364633E9, 0.0, 2021-12-02 19:19:55.236
75.0, 1584.747077174019, 503.7159053320065, 834.2800525655039, 1909.1740485802293, 0.09600000455975533, 0.4640000220388174, 0.9120000433176756, 0.0, 0.0, 0.0, 0.0, 0.0, 1.6384943952364633E9, 0.0, 2021-12-02 19:19:55.236
76.0, 1570.8159498390742, 475.0458322716877, 808.9646697654389, 1894.5809589531273, 0.09600000455975533, 0.4640000220388174, 0.9120000433176756, 0.0, 0.0, 0.0, 0.0, 0.0, 1.6384943952372851E9, 0.0, 2021-12-02 19:19:55.237
76.0, 1583.890640084166, 491.4490334773436, 817.091472369153, 1908.126876592636, 0.09600000455975533, 0.4640000220388174, 0.9120000433176756, 0.0, 0.0, 0.0, 0.0, 0.0, 1.6384943952372851E9, 0.0, 2021-12-02 19:19:55.237
77.0, 1588.3112018317915, 499.06346978712827, 833.6554892729037, 1902.1505164634436, 0.09600000455975533, 0.4640000220388174, 0.9120000433176756, 0.0, 0.0, 0.0, 0.0, 0.0, 1.6384943952521312E9, 0.0, 2021-12-02 19:19:55.252
77.0, 1575.9059536787681, 478.91288882587105, 815.692749785725, 1909.4321016771719, 0.09600000455975533, 0.4640000220388174, 0.9120000433176756, 0.0, 0.0, 0.0, 0.0, 0.0, 1.6384943952521312E9, 0.0, 2021-12-02 19:19:55.252
78.0, 1581.6803592103533, 469.7089950349182, 806.3953584958799, 1896.3761109318584, 0.09600000455975533, 0.4640000220388174, 0.9120000433176756, 0.0, 0.0, 0.0, 0.0, 0.0, 1.6384943952528617E9, 0.0, 2021-12-02 19:19:55.252
78.0, 1558.1489086891524, 488.95452020689845, 823.3109259954654, 1917.510285581462, 0.09600000455975533, 0.4640000220388174, 0.9120000433176756, 0.0, 0.0, 0.0, 0.0, 0.0, 1.6384943952528617E9, 0.0, 2021-12-02 19:19:55.252
79.0, 1582.6527331988327, 480.46868720743805, 813.5572669110261, 1894.5809589531273, 0.09600000455975533, 0.4640000220388174, 0.9120000433176756, 0.0, 0.0, 0.0, 0.0, 0.0, 1.638494395265954E9, 0.0, 2021-12-02 19:19:55.265
79.0, 1618.5969116729684, 465.82697888091207, 799.8841926730238, 1909.1740485802293, 0.09600000455975533, 0.4640000220388174, 0.9120000433176756, 0.0, 0.0, 0.0, 0.0, 0.0, 1.638494395265954E9, 0.0, 2021-12-02 19:19:55.265
80.0, 1572.8541953149252, 485.25201925076544, 816.7361818733625, 1910.4643140649423, 0.09600000455975533, 0.4640000220388174, 0.9280000440776348, 0.0, 0.0, 0.0, 0.0, 0.0, 1.6384943952815309E9, 0.0, 2021-12-02 19:19:55.281
80.0, 1593.636819368694, 493.29280415549874, 831.0637386036105, 1903.6801355453208, 0.09600000455975533, 0.4640000220388174, 0.9280000440776348, 0.0, 0.0, 0.0, 0.0, 0.0, 1.6384943952815309E9, 0.0, 2021-12-02 19:19:55.281
81.0, 1622.6098243254237, 475.1243701707572, 806.1260856990702, 1887.093679241836, 0.09600000455975533, 0.4640000220388174, 0.9280000440776348, 0.0, 0.0, 0.0, 0.0, 0.0, 1.6384943952822125E9, 0.0, 2021-12-02 19:19:55.282
81.0, 1619.554326061625, 479.58233091793954, 814.5520802992396, 1898.1974422102794, 0.09600000455975533, 0.4640000220388174, 0.9280000440776348, 0.0, 0.0, 0.0, 0.0, 0.0, 1.6384943952822125E9, 0.0, 2021-12-02 19:19:55.282
82.0, 1623.148369919043, 494.6466479394585, 828.3710106355138, 1910.999119758606, 0.09600000455975533, 0.4640000220388174, 0.9280000440776348, 0.0, 0.0, 0.0, 0.0, 0.0, 1.6384943952959113E9, 0.0, 2021-12-02 19:19:55.295
82.0, 1597.941444217693, 477.2336737457663, 811.447963336017, 1902.8760570548475, 0.09600000455975533, 0.4640000220388174, 0.9280000440776348, 0.0, 0.0, 0.0, 0.0, 0.0, 1.6384943952959113E9, 0.0, 2021-12-02 19:19:55.295
83.0, 1582.7424907977693, 477.6637622406706, 807.5210683825426, 1890.0407204069197, 0.09600000455975533, 0.4640000220388174, 0.9280000440776348, 0.0, 0.0, 0.0, 0.0, 0.0, 1.6384943953115203E9, 0.0, 2021-12-02 19:19:55.311
83.0, 1605.540920927655, 502.2012458499521, 834.351110664662, 1908.6766418861225, 0.09600000455975533, 0.4640000220388174, 0.9280000440776348, 0.0, 0.0, 0.0, 0.0, 0.0, 1.6384943953115203E9, 0.0, 2021-12-02 19:19:55.311
84.0, 1616.6035449965857, 493.85378914885223, 828.3822303353809, 1913.2841986315325, 0.09600000455975533, 0.4640000220388174, 0.9280000440776348, 0.0, 0.0, 0.0, 0.0, 0.0, 1.6384943953121984E9, 0.0, 2021-12-02 19:19:55.312
84.0, 1618.626830872614, 483.50174607150257, 807.962376577314, 1888.9561494197696, 0.09600000455975533, 0.4640000220388174, 0.9280000440776348, 0.0, 0.0, 0.0, 0.0, 0.0, 1.6384943953121984E9, 0.0, 2021-12-02 19:19:55.312
85.0, 1618.5744722732343, 501.06805616337806, 834.036959068384, 1906.9675076063722, 0.09600000455975533, 0.4640000220388174, 0.9280000440776348, 0.0, 0.0, 0.0, 0.0, 0.0, 1.6384943953257973E9, 0.0, 2021-12-02 19:19:55.325
85.0, 1612.848685441073, 498.5024847937748, 839.5046928036027, 1920.6256222445518, 0.09600000455975533, 0.4640000220388174, 0.9280000440776348, 0.0, 0.0, 0.0, 0.0, 0.0, 1.6384943953257973E9, 0.0, 2021-12-02 19:19:55.325
86.0, 1633.5639912956394, 496.81578991375864, 821.5045543168671, 1874.093786995858, 0.09600000455975533, 0.4640000220388174, 0.9280000440776348, 0.0, 0.0, 0.0, 0.0, 0.0, 1.6384943953414924E9, 0.0, 2021-12-02 19:19:55.341
86.0, 1564.0579506191425, 526.529295061715, 843.0426381616853, 1886.431716949679, 0.09600000455975533, 0.4640000220388174, 0.9280000440776348, 0.0, 0.0, 0.0, 0.0, 0.0, 1.6384943953414924E9, 0.0, 2021-12-02 19:19:55.341
87.0, 1640.890455308836, 528.0028156442568, 863.9561587139033, 1921.900928129442, 0.09600000455975533, 0.4640000220388174, 0.9280000440776348, 0.0, 0.0, 0.0, 0.0, 0.0, 1.6384943953422008E9, 0.0, 2021-12-02 19:19:55.342
87.0, 1606.9209440113045, 524.7790218824521, 844.0972899491899, 1903.2126480508596, 0.09600000455975533, 0.4640000220388174, 0.9280000440776348, 0.0, 0.0, 0.0, 0.0, 0.0, 1.6384943953422008E9, 0.0, 2021-12-02 19:19:55.342
88.0, 1610.2157958722673, 536.9785755379125, 868.1859855637886, 1871.1804049303755, 0.09600000455975533, 0.4640000220388174, 0.9280000440776348, 0.0, 0.0, 0.0, 0.0, 0.0, 1.6384943953722231E9, 0.0, 2021-12-02 19:19:55.372
88.0, 1621.2746800412424, 567.5298182759434, 903.2101486488245, 1899.3904702961445, 0.09600000455975533, 0.4640000220388174, 0.9280000440776348, 0.0, 0.0, 0.0, 0.0, 0.0, 1.6384943953722231E9, 0.0, 2021-12-02 19:19:55.372
89.0, 1603.2670617545955, 578.6597605440766, 918.6970743653364, 1897.2325480217114, 0.09600000455975533, 0.4640000220388174, 0.9280000440776348, 0.0, 0.0, 0.0, 0.0, 0.0, 1.6384943953728924E9, 0.0, 2021-12-02 19:19:55.372
89.0, 1595.2487162495963, 575.4845854816958, 899.7395214899443, 1867.1637523779646, 0.09600000455975533, 0.4640000220388174, 0.9280000440776348, 0.0, 0.0, 0.0, 0.0, 0.0, 1.6384943953728924E9, 0.0, 2021-12-02 19:19:55.372
90.0, 1598.4874696112238, 630.6742891278118, 940.3099562092684, 1878.929477638565, 0.09600000455975533, 0.4640000220388174, 0.9120000433176756, 0.0, 0.0, 0.0, 0.0, 0.0, 1.63849439537369E9, 0.0, 2021-12-02 19:19:55.373
90.0, 1570.4718790431507, 659.1872863899916, 980.7158353305422, 1888.8140332214534, 0.09600000455975533, 0.4640000220388174, 0.9120000433176756, 0.0, 0.0, 0.0, 0.0, 0.0, 1.63849439537369E9, 0.0, 2021-12-02 19:19:55.373
91.0, 1569.3012903570198, 641.1347893038765, 963.7740885312669, 1864.7963957060128, 0.09600000455975533, 0.4640000220388174, 0.9120000433176756, 0.0, 0.0, 0.0, 0.0, 0.0, 1.6384943954021642E9, 0.0, 2021-12-02 19:19:55.402
91.0, 1551.8322176639922, 684.3642928916961, 999.6322493064217, 1877.9384041503072, 0.09600000455975533, 0.4640000220388174, 0.9120000433176756, 0.0, 0.0, 0.0, 0.0, 0.0, 1.6384943954021642E9, 0.0, 2021-12-02 19:19:55.402
92.0, 1524.6805439856835, 688.7100566402078, 1022.25490413839, 1876.8351336633787, 0.09600000455975533, 0.4640000220388174, 0.9120000433176756, 0.0, 0.0, 0.0, 0.0, 0.0, 1.6384943954028778E9, 0.0, 2021-12-02 19:19:55.402
92.0, 1567.9250071733259, 666.214558406733, 1001.2030072878115, 1868.6484926603734, 0.09600000455975533, 0.4640000220388174, 0.9120000433176756, 0.0, 0.0, 0.0, 0.0, 0.0, 1.6384943954028778E9, 0.0, 2021-12-02 19:19:55.402
93.0, 1524.0185816935264, 674.7602298054844, 1002.3474166742526, 1860.151439961046, 0.09600000455975533, 0.4640000220388174, 0.9120000433176756, 0.0, 0.0, 0.0, 0.0, 0.0, 1.6384943954036283E9, 0.0, 2021-12-02 19:19:55.403
93.0, 1516.980089976918, 694.6303182700649, 1022.5914951344021, 1864.298989011906, 0.09600000455975533, 0.4640000220388174, 0.9120000433176756, 0.0, 0.0, 0.0, 0.0, 0.0, 1.6384943954036283E9, 0.0, 2021-12-02 19:19:55.403
94.0, 1543.6306170611642, 685.1421920824796, 1020.5682092583738, 1831.9002356957644, 0.09600000455975533, 0.4640000220388174, 0.9120000433176756, 0.0, 0.0, 0.0, 0.0, 0.0, 1.638494395415914E9, 0.0, 2021-12-02 19:19:55.415
94.0, 1547.407916016411, 661.8987138578668, 992.5862777899019, 1842.8581425659359, 0.09600000455975533, 0.4640000220388174, 0.9120000433176756, 0.0, 0.0, 0.0, 0.0, 0.0, 1.638494395415914E9, 0.0, 2021-12-02 19:19:55.415
95.0, 1500.3450149740092, 677.2846622755751, 1002.2277398756705, 1854.5490698274225, 0.09600000455975533, 0.4640000220388174, 0.9120000433176756, 0.0, 0.0, 0.0, 0.0, 0.0, 1.6384943954315135E9, 0.0, 2021-12-02 19:19:55.431
95.0, 1497.9739184021018, 687.3225537566468, 1015.7848772150464, 1883.4323171852157, 0.09600000455975533, 0.4640000220388174, 0.9120000433176756, 0.0, 0.0, 0.0, 0.0, 0.0, 1.6384943954315135E9, 0.0, 2021-12-02 19:19:55.431
96.0, 1529.81168672489, 659.6547738844529, 987.6196906487457, 1848.5315707987174, 0.09600000455975533, 0.4640000220388174, 0.9120000433176756, 0.0, 0.0, 0.0, 0.0, 0.0, 1.6384943954321926E9, 0.0, 2021-12-02 19:19:55.432
96.0, 1492.5548033663072, 658.6487407963723, 987.0961046549492, 1850.3379424773157, 0.09600000455975533, 0.4640000220388174, 0.9120000433176756, 0.0, 0.0, 0.0, 0.0, 0.0, 1.6384943954321926E9, 0.0, 2021-12-02 19:19:55.432
97.0, 1506.1231604055502, 673.6606992185116, 1001.7378129814751, 1868.3268612641841, 0.09600000455975533, 0.4640000220388174, 0.9120000433176756, 0.0, 0.0, 0.0, 0.0, 0.0, 1.6384943954621382E9, 0.0, 2021-12-02 19:19:55.462
97.0, 1517.0848071756773, 644.2351663671434, 956.6533190156333, 1840.4833060940728, 0.09600000455975533, 0.4640000220388174, 0.9120000433176756, 0.0, 0.0, 0.0, 0.0, 0.0, 1.6384943954621382E9, 0.0, 2021-12-02 19:19:55.462
98.0, 1505.607054211665, 626.2462475802749, 942.3145425855182, 1845.2030598381534, 0.09600000455975533, 0.4640000220388174, 0.9120000433176756, 0.0, 0.0, 0.0, 0.0, 0.0, 1.6384943954629257E9, 0.0, 2021-12-02 19:19:55.462
98.0, 1492.678220064845, 629.2157281450927, 943.9526187661104, 1864.5720017086715, 0.09600000455975533, 0.4640000220388174, 0.9120000433176756, 0.0, 0.0, 0.0, 0.0, 0.0, 1.6384943954629257E9, 0.0, 2021-12-02 19:19:55.462
99.0, 1528.5775197395124, 613.4557897318155, 922.7399062174372, 1872.283675417304, 0.09600000455975533, 0.4640000220388174, 0.9120000433176756, 0.0, 0.0, 0.0, 0.0, 0.0, 1.638494395463607E9, 0.0, 2021-12-02 19:19:55.463
99.0, 1507.3012288915925, 582.7175519960001, 890.793680795934, 1845.5433907341212, 0.09600000455975533, 0.4640000220388174, 0.9120000433176756, 0.0, 0.0, 0.0, 0.0, 0.0, 1.638494395463607E9, 0.0, 2021-12-02 19:19:55.463
100.0, 1507.1478929934092, 587.0446162447333, 897.6825765143149, 1849.9976115813479, 0.09600000455975533, 0.4640000220388174, 0.9120000433176756, 0.0, 0.0, 0.0, 0.0, 0.0, 1.6384943954928908E9, 0.0, 2021-12-02 19:19:55.492
100.0, 1517.0661076758988, 576.1278482740745, 889.9970821053721, 1862.4215592341498, 0.09600000455975533, 0.4640000220388174, 0.9120000433176756, 0.0, 0.0, 0.0, 0.0, 0.0, 1.6384943954928908E9, 0.0, 2021-12-02 19:19:55.492
0.0, 1518.9715867033228, 544.5406532483175, 855.7919571106322, 1860.2019286104478, 0.09600000455975533, 0.4640000220388174, 0.9120000433176756, 0.0, 0.0, 0.0, 0.0, 0.0, 1.6384943954935706E9, 0.0, 2021-12-02 19:19:55.493
1.0, 1525.1162423305213, 541.0326270898804, 853.5854161367752, 1860.9798278012313, 0.09600000455975533, 0.4640000220388174, 0.9120000433176756, 0.0, 0.0, 0.0, 0.0, 0.0, 1.6384943954942942E9, 0.0, 2021-12-02 19:19:55.494
1.0, 1539.881367355585, 535.8042469518259, 852.1567743537016, 1881.4669997585006, 0.09600000455975533, 0.4640000220388174, 0.9120000433176756, 0.0, 0.0, 0.0, 0.0, 0.0, 1.6384943954942942E9, 0.0, 2021-12-02 19:19:55.494
2.0, 1535.6104016061872, 516.8242546766996, 836.8680633348413, 1867.4797739242204, 0.11200000531971455, 0.4640000220388174, 0.9120000433176756, 0.0, 0.0, 0.0, 0.0, 0.0, 1.6384943954950469E9, 0.0, 2021-12-02 19:19:55.495
2.0, 1524.7385124349967, 509.00038396939635, 827.8549044416286, 1858.3693776321597, 0.11200000531971455, 0.4640000220388174, 0.9120000433176756, 0.0, 0.0, 0.0, 0.0, 0.0, 1.6384943954950469E9, 0.0, 2021-12-02 19:19:55.495
3.0, 1497.7775736544281, 515.3170749945566, 834.0145196686499, 1881.3510628598742, 0.11200000531971455, 0.4640000220388174, 0.9120000433176756, 0.0, 0.0, 0.0, 0.0, 0.0, 1.6384943955057786E9, 0.0, 2021-12-02 19:19:55.505
3.0, 1560.5443146107718, 497.6497876038775, 824.5899717803113, 1881.040651163552, 0.11200000531971455, 0.4640000220388174, 0.9120000433176756, 0.0, 0.0, 0.0, 0.0, 0.0, 1.6384943955057786E9, 0.0, 2021-12-02 19:19:55.505
4.0, 1546.3065154794604, 460.2582678468898, 793.7170976460911, 1860.5310398065485, 0.11200000531971455, 0.4640000220388174, 0.9120000433176756, 0.0, 0.0, 0.0, 0.0, 0.0, 1.6384943955207937E9, 0.0, 2021-12-02 19:19:55.520
4.0, 1507.7818060358986, 469.7052551349625, 801.4100718549453, 1853.844098685775, 0.11200000531971455, 0.4640000220388174, 0.9120000433176756, 0.0, 0.0, 0.0, 0.0, 0.0, 1.6384943955207937E9, 0.0, 2021-12-02 19:19:55.520
5.0, 1538.4901245720685, 473.49751369003206, 807.6557047809474, 1874.4733868413605, 0.11200000531971455, 0.4640000220388174, 0.9120000433176756, 0.0, 0.0, 0.0, 0.0, 0.0, 1.6384943955366783E9, 0.0, 2021-12-02 19:19:55.536
5.0, 1554.620313080959, 452.4717961391434, 781.7344581880607, 1885.7117862082087, 0.11200000531971455, 0.4640000220388174, 0.9120000433176756, 0.0, 0.0, 0.0, 0.0, 0.0, 1.6384943955366783E9, 0.0, 2021-12-02 19:19:55.536
6.0, 1521.0659306785092, 449.6893105721101, 781.4464858914725, 1874.8361571370624, 0.11200000531971455, 0.4640000220388174, 0.9120000433176756, 0.0, 0.0, 0.0, 0.0, 0.0, 1.6384943955372388E9, 0.0, 2021-12-02 19:19:55.537
6.0, 1552.1332796104252, 469.90346983261406, 802.0869937469251, 1904.7216976829804, 0.11200000531971455, 0.4640000220388174, 0.9120000433176756, 0.0, 0.0, 0.0, 0.0, 0.0, 1.6384943955372388E9, 0.0, 2021-12-02 19:19:55.537
7.0, 1542.8209287207574, 437.8674868121743, 771.1505413134582, 1882.5179116460495, 0.11200000531971455, 0.4640000220388174, 0.9120000433176756, 0.0, 0.0, 0.0, 0.0, 0.0, 1.6384943955507717E9, 0.0, 2021-12-02 19:19:55.550
7.0, 1531.320736357011, 428.97026481758803, 763.5510646034963, 1890.8279693475924, 0.11200000531971455, 0.4640000220388174, 0.9120000433176756, 0.0, 0.0, 0.0, 0.0, 0.0, 1.6384943955507717E9, 0.0, 2021-12-02 19:19:55.550
8.0, 1545.0386893944815, 449.4798761745915, 783.0770822721533, 1888.5615899744444, 0.11200000531971455, 0.4640000220388174, 0.9120000433176756, 0.0, 0.0, 0.0, 0.0, 0.0, 1.6384943955664914E9, 0.0, 2021-12-02 19:19:55.566
8.0, 1581.285799765028, 440.70981077849865, 775.2980903643183, 1903.8129019937478, 0.11200000531971455, 0.4640000220388174, 0.9120000433176756, 0.0, 0.0, 0.0, 0.0, 0.0, 1.6384943955664914E9, 0.0, 2021-12-02 19:19:55.566
9.0, 1535.696419305168, 409.54148454777896, 750.8728037537076, 1887.4396199877374, 0.11200000531971455, 0.4640000220388174, 0.9120000433176756, 0.0, 0.0, 0.0, 0.0, 0.0, 1.638494395567278E9, 0.0, 2021-12-02 19:19:55.567
9.0, 1533.321582833305, 427.55284273438156, 767.9529268513434, 1886.9571728934534, 0.11200000531971455, 0.4640000220388174, 0.9120000433176756, 0.0, 0.0, 0.0, 0.0, 0.0, 1.638494395567278E9, 0.0, 2021-12-02 19:19:55.567
10.0, 1548.916965648532, 433.5479023633525, 778.2488714293577, 1914.8119477634318, 0.11200000531971455, 0.4640000220388174, 0.9120000433176756, 0.0, 0.0, 0.0, 0.0, 0.0, 1.6384943955808485E9, 0.0, 2021-12-02 19:19:55.580
10.0, 1538.699558969587, 409.91173464339226, 747.1927421973087, 1893.7263918132521, 0.11200000531971455, 0.4640000220388174, 0.9120000433176756, 0.0, 0.0, 0.0, 0.0, 0.0, 1.6384943955808485E9, 0.0, 2021-12-02 19:19:55.580
11.0, 1536.504237695597, 416.39672116655856, 763.4201681050472, 1865.8828366431408, 0.11200000531971455, 0.4640000220388174, 0.9120000433176756, 0.0, 0.0, 0.0, 0.0, 0.0, 1.6384943955964708E9, 0.0, 2021-12-02 19:19:55.596
11.0, 1538.048816377297, 428.55139602255076, 779.2773439171724, 1888.9243602701463, 0.11200000531971455, 0.4640000220388174, 0.9120000433176756, 0.0, 0.0, 0.0, 0.0, 0.0, 1.6384943955964708E9, 0.0, 2021-12-02 19:19:55.596
12.0, 1556.0003361646086, 415.8319962732494, 761.299644830171, 1891.4787119398825, 0.09600000455975533, 0.4640000220388174, 0.9120000433176756, 0.0, 0.0, 0.0, 0.0, 0.0, 1.638494395597218E9, 0.0, 2021-12-02 19:19:55.597
12.0, 1521.8774889688939, 410.6858939342201, 756.4003758882172, 1893.7450913130306, 0.09600000455975533, 0.4640000220388174, 0.9120000433176756, 0.0, 0.0, 0.0, 0.0, 0.0, 1.638494395597218E9, 0.0, 2021-12-02 19:19:55.597
13.0, 1511.540405491367, 436.1620924323797, 776.5995755488984, 1907.6051605488174, 0.09600000455975533, 0.4640000220388174, 0.9120000433176756, 0.0, 0.0, 0.0, 0.0, 0.0, 1.6384943956107905E9, 0.0, 2021-12-02 19:19:55.610
13.0, 1544.7095781983808, 428.102608027868, 770.260445124004, 1896.609854679089, 0.09600000455975533, 0.4640000220388174, 0.9120000433176756, 0.0, 0.0, 0.0, 0.0, 0.0, 1.6384943956107905E9, 0.0, 2021-12-02 19:19:55.610
14.0, 1565.933510446921, 404.17846801131964, 747.3311184956692, 1875.9469074239023, 0.09600000455975533, 0.4640000220388174, 0.9120000433176756, 0.0, 0.0, 0.0, 0.0, 0.0, 1.638494395626511E9, 0.0, 2021-12-02 19:19:55.626
14.0, 1516.6939876303077, 417.95999934803694, 758.8051315597259, 1888.9804587694816, 0.09600000455975533, 0.4640000220388174, 0.9120000433176756, 0.0, 0.0, 0.0, 0.0, 0.0, 1.638494395626511E9, 0.0, 2021-12-02 19:19:55.626
15.0, 1545.973664383404, 431.6405533859506, 769.0898564378731, 1884.911447617691, 0.09600000455975533, 0.4640000220388174, 0.9120000433176756, 0.0, 0.0, 0.0, 0.0, 0.0, 1.6384943956272547E9, 0.0, 2021-12-02 19:19:55.627
15.0, 1530.2249456699938, 409.492865848355, 755.607517097611, 1878.5274383933283, 0.09600000455975533, 0.4640000220388174, 0.9120000433176756, 0.0, 0.0, 0.0, 0.0, 0.0, 1.6384943956272547E9, 0.0, 2021-12-02 19:19:55.627
16.0, 1541.0332565419376, 420.8247627140954, 761.782091924455, 1892.002297933679, 0.09600000455975533, 0.4640000220388174, 0.9120000433176756, 0.0, 0.0, 0.0, 0.0, 0.0, 1.638494395640778E9, 0.0, 2021-12-02 19:19:55.640
16.0, 1565.2416289551184, 424.58336216956377, 772.7923573940061, 1901.7297777184285, 0.09600000455975533, 0.4640000220388174, 0.9120000433176756, 0.0, 0.0, 0.0, 0.0, 0.0, 1.638494395640778E9, 0.0, 2021-12-02 19:19:55.640
17.0, 1594.3043915107846, 411.9724195189774, 755.1026306035928, 1895.8282155883498, 0.09600000455975533, 0.4640000220388174, 0.9120000433176756, 0.0, 0.0, 0.0, 0.0, 0.0, 1.6384943956564422E9, 0.0, 2021-12-02 19:19:55.656
17.0, 1526.122275418602, 411.33289662655443, 753.8759434181266, 1893.7974499124102, 0.09600000455975533, 0.4640000220388174, 0.9120000433176756, 0.0, 0.0, 0.0, 0.0, 0.0, 1.6384943956564422E9, 0.0, 2021-12-02 19:19:55.656
18.0, 1531.489031855017, 433.0617153691128, 779.101568619255, 1882.487992446404, 0.09600000455975533, 0.4640000220388174, 0.9120000433176756, 0.0, 0.0, 0.0, 0.0, 0.0, 1.6384943956572528E9, 0.0, 2021-12-02 19:19:55.657
18.0, 1548.8571272492409, 420.77240411471575, 767.1226690611802, 1861.8213052912615, 0.09600000455975533, 0.4640000220388174, 0.9120000433176756, 0.0, 0.0, 0.0, 0.0, 0.0, 1.6384943956572528E9, 0.0, 2021-12-02 19:19:55.657
19.0, 1573.387131058611, 410.7980909328908, 752.5520188338123, 1858.8892237260006, 0.09600000455975533, 0.4640000220388174, 0.9120000433176756, 0.0, 0.0, 0.0, 0.0, 0.0, 1.6384943956708274E9, 0.0, 2021-12-02 19:19:55.670
19.0, 1524.6038760365918, 421.95421250071377, 760.6750815375708, 1862.1242371876724, 0.09600000455975533, 0.4640000220388174, 0.9120000433176756, 0.0, 0.0, 0.0, 0.0, 0.0, 1.6384943956708274E9, 0.0, 2021-12-02 19:19:55.670
20.0, 1560.6303323097527, 434.5688950512558, 781.6933192885481, 1898.3451682585292, 0.09600000455975533, 0.4640000220388174, 0.9120000433176756, 0.0, 0.0, 0.0, 0.0, 0.0, 1.6384943956864955E9, 0.0, 2021-12-02 19:19:55.686
20.0, 1575.5039144335315, 414.051803894341, 759.5792908505537, 1887.0843294919468, 0.09600000455975533, 0.4640000220388174, 0.9120000433176756, 0.0, 0.0, 0.0, 0.0, 0.0, 1.6384943956864955E9, 0.0, 2021-12-02 19:19:55.686
21.0, 1543.0565424179658, 418.1245549460873, 767.5639772559516, 1897.694425666239, 0.09600000455975533, 0.4640000220388174, 0.9120000433176756, 0.0, 0.0, 0.0, 0.0, 0.0, 1.6384943956871889E9, 0.0, 2021-12-02 19:19:55.687
21.0, 1547.8735335608944, 422.9004071895033, 774.4715724741109, 1879.6681078798138, 0.09600000455975533, 0.4640000220388174, 0.9120000433176756, 0.0, 0.0, 0.0, 0.0, 0.0, 1.6384943956871889E9, 0.0, 2021-12-02 19:19:55.687
22.0, 1559.613079521805, 423.84286197833717, 766.7374593657441, 1893.5543564152904, 0.09600000455975533, 0.4640000220388174, 0.9120000433176756, 0.0, 0.0, 0.0, 0.0, 0.0, 1.638494395700917E9, 0.0, 2021-12-02 19:19:55.700
22.0, 1532.4352265438065, 416.2807842679322, 766.3111107707955, 1863.8483310672455, 0.09600000455975533, 0.4640000220388174, 0.9120000433176756, 0.0, 0.0, 0.0, 0.0, 0.0, 1.638494395700917E9, 0.0, 2021-12-02 19:19:55.700
23.0, 1538.9015135671943, 433.6600993620232, 778.4957048264332, 1889.1524941674434, 0.09600000455975533, 0.4640000220388174, 0.9120000433176756, 0.0, 0.0, 0.0, 0.0, 0.0, 1.638494395716526E9, 0.0, 2021-12-02 19:19:55.716
23.0, 1552.1444993102923, 437.5832544155419, 781.2445312938653, 1904.1046141902916, 0.09600000455975533, 0.4640000220388174, 0.9120000433176756, 0.0, 0.0, 0.0, 0.0, 0.0, 1.638494395716526E9, 0.0, 2021-12-02 19:19:55.716
24.0, 1570.3690317943692, 418.4948050417006, 759.526932251174, 1867.7303472212516, 0.09600000455975533, 0.4640000220388174, 0.9120000433176756, 0.0, 0.0, 0.0, 0.0, 0.0, 1.6384943957172377E9, 0.0, 2021-12-02 19:19:55.717
24.0, 1547.4172657663003, 434.74467034917325, 773.2710645883344, 1875.3373037311248, 0.09600000455975533, 0.4640000220388174, 0.9120000433176756, 0.0, 0.0, 0.0, 0.0, 0.0, 1.6384943957172377E9, 0.0, 2021-12-02 19:19:55.717
25.0, 1566.0943261450157, 433.7685564607382, 778.3461088282056, 1896.0114706861787, 0.09600000455975533, 0.4640000220388174, 0.9120000433176756, 0.0, 0.0, 0.0, 0.0, 0.0, 1.6384943957308183E9, 0.0, 2021-12-02 19:19:55.730
25.0, 1543.284676315263, 410.2670251391828, 756.8080249833874, 1893.0419901213609, 0.09600000455975533, 0.4640000220388174, 0.9120000433176756, 0.0, 0.0, 0.0, 0.0, 0.0, 1.6384943957308183E9, 0.0, 2021-12-02 19:19:55.730
26.0, 1544.8180352970958, 417.9338200483471, 766.2176132719032, 1877.1361956098117, 0.09600000455975533, 0.4640000220388174, 0.9120000433176756, 0.0, 0.0, 0.0, 0.0, 0.0, 1.638494395746584E9, 0.0, 2021-12-02 19:19:55.746
26.0, 1548.0306093590334, 434.96532444655895, 776.3714416516013, 1887.5555568863638, 0.09600000455975533, 0.4640000220388174, 0.9120000433176756, 0.0, 0.0, 0.0, 0.0, 0.0, 1.638494395746584E9, 0.0, 2021-12-02 19:19:55.746
27.0, 1600.2508324403316, 425.3537815604359, 770.742892218288, 1878.3965418948792, 0.09600000455975533, 0.4640000220388174, 0.9120000433176756, 0.0, 0.0, 0.0, 0.0, 0.0, 1.6384943957473147E9, 0.0, 2021-12-02 19:19:55.747
27.0, 1565.9596897466108, 415.1887334808707, 758.3900026646443, 1860.5946181057952, 0.09600000455975533, 0.4640000220388174, 0.9120000433176756, 0.0, 0.0, 0.0, 0.0, 0.0, 1.6384943957473147E9, 0.0, 2021-12-02 19:19:55.747
28.0, 1529.0132180843502, 430.7616768963635, 772.5343042970635, 1888.6064687739126, 0.09600000455975533, 0.4640000220388174, 0.9120000433176756, 0.0, 0.0, 0.0, 0.0, 0.0, 1.6384943957608216E9, 0.0, 2021-12-02 19:19:55.760
28.0, 1548.348500855267, 433.686278661713, 783.7053854647093, 1886.0371575043537, 0.09600000455975533, 0.4640000220388174, 0.9120000433176756, 0.0, 0.0, 0.0, 0.0, 0.0, 1.6384943957608216E9, 0.0, 2021-12-02 19:19:55.760
29.0, 1520.0486778905615, 425.40240025985986, 771.3711954108439, 1864.8244449556805, 0.09600000455975533, 0.4640000220388174, 0.9120000433176756, 0.0, 0.0, 0.0, 0.0, 0.0, 1.6384943957764952E9, 0.0, 2021-12-02 19:19:55.776
29.0, 1545.6632526870817, 430.00247720535845, 779.5241773142479, 1886.6579808969982, 0.09600000455975533, 0.4640000220388174, 0.9120000433176756, 0.0, 0.0, 0.0, 0.0, 0.0, 1.6384943957764952E9, 0.0, 2021-12-02 19:19:55.776
30.0, 1570.769201089628, 437.92732521146536, 786.9740580259822, 1900.3048758353107, 0.09600000455975533, 0.4640000220388174, 0.9120000433176756, 0.0, 0.0, 0.0, 0.0, 0.0, 1.6384943957772572E9, 0.0, 2021-12-02 19:19:55.777
30.0, 1565.0508940573782, 423.5810689814389, 768.0090253506787, 1882.8806819417514, 0.09600000455975533, 0.4640000220388174, 0.9120000433176756, 0.0, 0.0, 0.0, 0.0, 0.0, 1.6384943957772572E9, 0.0, 2021-12-02 19:19:55.777
31.0, 1577.0746724149212, 432.9569981703535, 777.8075632345863, 1880.8386965659447, 0.09600000455975533, 0.4640000220388174, 0.9120000433176756, 0.0, 0.0, 0.0, 0.0, 0.0, 1.6384943957908514E9, 0.0, 2021-12-02 19:19:55.790
31.0, 1572.0931256739423, 452.8495260346681, 794.7941888333298, 1894.3995738052763, 0.09600000455975533, 0.4640000220388174, 0.9120000433176756, 0.0, 0.0, 0.0, 0.0, 0.0, 1.6384943957908514E9, 0.0, 2021-12-02 19:19:55.790
32.0, 1607.3828216558322, 443.15196544956416, 784.3187290574424, 1887.8584887827747, 0.09600000455975533, 0.4640000220388174, 0.9120000433176756, 0.0, 0.0, 0.0, 0.0, 0.0, 1.638494395806749E9, 0.0, 2021-12-02 19:19:55.806
32.0, 1566.1579044442624, 435.3954129414633, 774.759544770699, 1889.4292467641644, 0.09600000455975533, 0.4640000220388174, 0.9120000433176756, 0.0, 0.0, 0.0, 0.0, 0.0, 1.638494395806749E9, 0.0, 2021-12-02 19:19:55.806
33.0, 1577.2803669124842, 452.1090258434415, 792.2061780639924, 1877.1474153096788, 0.09600000455975533, 0.4640000220388174, 0.9120000433176756, 0.0, 0.0, 0.0, 0.0, 0.0, 1.6384943958072848E9, 0.0, 2021-12-02 19:19:55.807
33.0, 1588.9974734736606, 454.5923194140196, 798.6687251874246, 1886.5495237982832, 0.09600000455975533, 0.4640000220388174, 0.9120000433176756, 0.0, 0.0, 0.0, 0.0, 0.0, 1.6384943958072848E9, 0.0, 2021-12-02 19:19:55.807
34.0, 1564.5310479635373, 440.8781062765047, 781.9999910849147, 1869.8695699959062, 0.09600000455975533, 0.4640000220388174, 0.9120000433176756, 0.0, 0.0, 0.0, 0.0, 0.0, 1.638494395820765E9, 0.0, 2021-12-02 19:19:55.820
34.0, 1582.5835450496525, 455.04484730865806, 795.8563204207458, 1877.0464380108751, 0.09600000455975533, 0.4640000220388174, 0.9120000433176756, 0.0, 0.0, 0.0, 0.0, 0.0, 1.638494395820765E9, 0.0, 2021-12-02 19:19:55.820
35.0, 1580.3994434755296, 451.72007624804974, 799.7420764747076, 1892.5146642276086, 0.09600000455975533, 0.4640000220388174, 0.9120000433176756, 0.0, 0.0, 0.0, 0.0, 0.0, 1.6384943958364632E9, 0.0, 2021-12-02 19:19:55.836
35.0, 1576.135957526043, 442.52740215696394, 787.8080557161011, 1884.1447681267746, 0.09600000455975533, 0.4640000220388174, 0.9120000433176756, 0.0, 0.0, 0.0, 0.0, 0.0, 1.6384943958364632E9, 0.0, 2021-12-02 19:19:55.836
36.0, 1580.190009078011, 443.2005841489881, 791.1403065766208, 1888.516711174976, 0.09600000455975533, 0.4640000220388174, 0.9120000433176756, 0.0, 0.0, 0.0, 0.0, 0.0, 1.6384943958371503E9, 0.0, 2021-12-02 19:19:55.837
36.0, 1563.9887624699622, 447.30699430033565, 794.6445928351022, 1887.5443371864967, 0.09600000455975533, 0.4640000220388174, 0.9120000433176756, 0.0, 0.0, 0.0, 0.0, 0.0, 1.6384943958371503E9, 0.0, 2021-12-02 19:19:55.837
37.0, 1577.8338721059263, 436.26680963113904, 787.8192754159681, 1884.2868843250908, 0.09600000455975533, 0.4640000220388174, 0.9120000433176756, 0.0, 0.0, 0.0, 0.0, 0.0, 1.638494395850763E9, 0.0, 2021-12-02 19:19:55.850
37.0, 1571.034733986482, 435.33931444212794, 785.4668783438392, 1878.0524710989557, 0.09600000455975533, 0.4640000220388174, 0.9120000433176756, 0.0, 0.0, 0.0, 0.0, 0.0, 1.638494395850763E9, 0.0, 2021-12-02 19:19:55.850
38.0, 1572.4297166699544, 453.1823771307245, 804.5029691183008, 1914.3706395686604, 0.09600000455975533, 0.4640000220388174, 0.9120000433176756, 0.0, 0.0, 0.0, 0.0, 0.0, 1.638494395866474E9, 0.0, 2021-12-02 19:19:55.866
38.0, 1578.3125793002546, 448.9114113813266, 797.8010683977045, 1883.5763033335097, 0.09600000455975533, 0.4640000220388174, 0.9120000433176756, 0.0, 0.0, 0.0, 0.0, 0.0, 1.638494395866474E9, 0.0, 2021-12-02 19:19:55.866
39.0, 1585.410909416154, 436.2892490308732, 785.915666338522, 1862.116757387761, 0.09600000455975533, 0.4640000220388174, 0.9120000433176756, 0.0, 0.0, 0.0, 0.0, 0.0, 1.6384943958671792E9, 0.0, 2021-12-02 19:19:55.867
39.0, 1570.189516596496, 453.09261953178793, 799.8318340736441, 1910.2081309179775, 0.09600000455975533, 0.4640000220388174, 0.9120000433176756, 0.0, 0.0, 0.0, 0.0, 0.0, 1.6384943958671792E9, 0.0, 2021-12-02 19:19:55.867
40.0, 1543.2397975157946, 458.71742906514555, 807.0423611882143, 1913.132732683327, 0.09600000455975533, 0.4640000220388174, 0.9120000433176756, 0.0, 0.0, 0.0, 0.0, 0.0, 1.6384943958808093E9, 0.0, 2021-12-02 19:19:55.880
40.0, 1542.5142569243908, 447.3668326996267, 795.732903722208, 1877.6485619037412, 0.09600000455975533, 0.4640000220388174, 0.9120000433176756, 0.0, 0.0, 0.0, 0.0, 0.0, 1.6384943958808093E9, 0.0, 2021-12-02 19:19:55.880
41.0, 1553.8461537901312, 452.78968763537705, 798.4331114902161, 1879.4998123818077, 0.09600000455975533, 0.4640000220388174, 0.9120000433176756, 0.0, 0.0, 0.0, 0.0, 0.0, 1.6384943958964896E9, 0.0, 2021-12-02 19:19:55.896
41.0, 1554.8297474784777, 461.5111343320459, 810.2100564506836, 1905.933425268624, 0.09600000455975533, 0.4640000220388174, 0.9120000433176756, 0.0, 0.0, 0.0, 0.0, 0.0, 1.6384943958964896E9, 0.0, 2021-12-02 19:19:55.896
42.0, 1561.2137567028403, 456.7801608880982, 803.1640849341638, 1890.532517251093, 0.09600000455975533, 0.4640000220388174, 0.9120000433176756, 0.0, 0.0, 0.0, 0.0, 0.0, 1.6384943958971832E9, 0.0, 2021-12-02 19:19:55.897
42.0, 1581.0501860678196, 453.26465492974967, 796.3275478151627, 1887.48075888725, 0.09600000455975533, 0.4640000220388174, 0.9120000433176756, 0.0, 0.0, 0.0, 0.0, 0.0, 1.6384943958971832E9, 0.0, 2021-12-02 19:19:55.897
43.0, 1542.2973427269608, 460.9538892386481, 803.5829537292011, 1875.2737254318781, 0.09600000455975533, 0.4640000220388174, 0.9120000433176756, 0.0, 0.0, 0.0, 0.0, 0.0, 1.6384943959107585E9, 0.0, 2021-12-02 19:19:55.910
43.0, 1576.027500427328, 460.7107957415283, 801.1071399585344, 1883.3219901365228, 0.09600000455975533, 0.4640000220388174, 0.9120000433176756, 0.0, 0.0, 0.0, 0.0, 0.0, 1.6384943959107585E9, 0.0, 2021-12-02 19:19:55.910
44.0, 1560.6303323097527, 454.01263492088765, 797.554235000629, 1893.2850836184807, 0.09600000455975533, 0.4640000220388174, 0.9120000433176756, 0.0, 0.0, 0.0, 0.0, 0.0, 1.6384943959264936E9, 0.0, 2021-12-02 19:19:55.926
44.0, 1558.1769579388201, 462.35261182207614, 802.0271553476341, 1894.2873768066056, 0.09600000455975533, 0.4640000220388174, 0.9120000433176756, 0.0, 0.0, 0.0, 0.0, 0.0, 1.6384943959264936E9, 0.0, 2021-12-02 19:19:55.926
45.0, 1557.563614346087, 464.0393067020923, 809.5144350589253, 1909.3479539281689, 0.09600000455975533, 0.4640000220388174, 0.9120000433176756, 0.0, 0.0, 0.0, 0.0, 0.0, 1.6384943959271915E9, 0.0, 2021-12-02 19:19:55.927
45.0, 1547.8286547614262, 455.5048550032079, 796.8735732086934, 1908.6934714359231, 0.09600000455975533, 0.4640000220388174, 0.9120000433176756, 0.0, 0.0, 0.0, 0.0, 0.0, 1.6384943959271915E9, 0.0, 2021-12-02 19:19:55.927
46.0, 1544.0027371067554, 461.2231620354578, 797.0755278063007, 1875.6664149272256, 0.09600000455975533, 0.4640000220388174, 0.9120000433176756, 0.0, 0.0, 0.0, 0.0, 0.0, 1.638494395940761E9, 0.0, 2021-12-02 19:19:55.940
46.0, 1579.6963422838598, 467.5548126604408, 813.3366128136404, 1900.0543025382794, 0.09600000455975533, 0.4640000220388174, 0.9120000433176756, 0.0, 0.0, 0.0, 0.0, 0.0, 1.638494395940761E9, 0.0, 2021-12-02 19:19:55.940
47.0, 1579.4943876862526, 461.3241393342614, 805.8007144029252, 1902.833048205357, 0.09600000455975533, 0.4640000220388174, 0.9120000433176756, 0.0, 0.0, 0.0, 0.0, 0.0, 1.6384943959564445E9, 0.0, 2021-12-02 19:19:55.956
47.0, 1585.2014750186354, 459.8506187517196, 797.6215531998314, 1885.6257685092278, 0.09600000455975533, 0.4640000220388174, 0.9120000433176756, 0.0, 0.0, 0.0, 0.0, 0.0, 1.6384943959564445E9, 0.0, 2021-12-02 19:19:55.956
48.0, 1591.357350345701, 479.6758284168318, 819.1970360442065, 1890.4764187517576, 0.09600000455975533, 0.4640000220388174, 0.9120000433176756, 0.0, 0.0, 0.0, 0.0, 0.0, 1.6384943959572008E9, 0.0, 2021-12-02 19:19:55.957
48.0, 1582.385330352001, 463.1791297122836, 810.7822611439042, 1914.8979654624127, 0.09600000455975533, 0.4640000220388174, 0.9120000433176756, 0.0, 0.0, 0.0, 0.0, 0.0, 1.6384943959572008E9, 0.0, 2021-12-02 19:19:55.957
49.0, 1618.2659305268899, 441.26705587189645, 785.5753354425542, 1895.3158492944203, 0.09600000455975533, 0.4640000220388174, 0.9120000433176756, 0.0, 0.0, 0.0, 0.0, 0.0, 1.6384943959708412E9, 0.0, 2021-12-02 19:19:55.970
49.0, 1648.6002590674907, 460.93892963882536, 803.1491253343411, 1927.8978577083908, 0.09600000455975533, 0.4640000220388174, 0.9120000433176756, 0.0, 0.0, 0.0, 0.0, 0.0, 1.6384943959708412E9, 0.0, 2021-12-02 19:19:55.970
50.0, 1682.4650531662628, 465.35575148649514, 807.5547274821438, 1948.0072997701354, 0.09600000455975533, 0.4640000220388174, 0.9120000433176756, 0.0, 0.0, 0.0, 0.0, 0.0, 1.6384943959864943E9, 0.0, 2021-12-02 19:19:55.986
50.0, 1696.0932486047968, 456.63804468978196, 789.9360587908886, 1942.2254144386388, 0.09600000455975533, 0.4640000220388174, 0.9120000433176756, 0.0, 0.0, 0.0, 0.0, 0.0, 1.6384943959864943E9, 0.0, 2021-12-02 19:19:55.986
51.0, 1643.338219829835, 452.9168442338705, 791.1851853760891, 1909.0487619317137, 0.09600000455975533, 0.4640000220388174, 0.9120000433176756, 0.0, 0.0, 0.0, 0.0, 0.0, 1.6384943959871724E9, 0.0, 2021-12-02 19:19:55.987
51.0, 1576.872717817314, 469.79501273389906, 809.0319879646413, 1899.1941255484708, 0.09600000455975533, 0.4640000220388174, 0.9120000433176756, 0.0, 0.0, 0.0, 0.0, 0.0, 1.6384943959871724E9, 0.0, 2021-12-02 19:19:55.987
52.0, 1539.0772888651118, 452.90562453400344, 793.7058779462241, 1882.0205049519427, 0.09600000455975533, 0.4640000220388174, 0.9120000433176756, 0.0, 0.0, 0.0, 0.0, 0.0, 1.6384943960171576E9, 0.0, 2021-12-02 19:19:56.017
52.0, 1500.8031527185813, 447.4453705986962, 793.103754053358, 1877.8953953008167, 0.09600000455975533, 0.4640000220388174, 0.9120000433176756, 0.0, 0.0, 0.0, 0.0, 0.0, 1.6384943960171576E9, 0.0, 2021-12-02 19:19:56.017
53.0, 1554.4557574829087, 471.0030004195869, 811.724715932738, 1898.2928096591495, 0.09600000455975533, 0.4640000220388174, 0.9120000433176756, 0.0, 0.0, 0.0, 0.0, 0.0, 1.638494396017918E9, 0.0, 2021-12-02 19:19:56.017
53.0, 1589.5173195675015, 470.79356602206826, 809.3199602612294, 1906.3036753642373, 0.09600000455975533, 0.4640000220388174, 0.9120000433176756, 0.0, 0.0, 0.0, 0.0, 0.0, 1.638494396017918E9, 0.0, 2021-12-02 19:19:56.017
54.0, 1554.8521868782118, 456.78390078805387, 803.1005066349171, 1890.0575499567203, 0.09600000455975533, 0.4640000220388174, 0.9120000433176756, 0.0, 0.0, 0.0, 0.0, 0.0, 1.6384943960186296E9, 0.0, 2021-12-02 19:19:56.018
54.0, 1581.1249840669334, 469.38362373877317, 811.242268838454, 1897.0399431739934, 0.09600000455975533, 0.4640000220388174, 0.9120000433176756, 0.0, 0.0, 0.0, 0.0, 0.0, 1.6384943960186296E9, 0.0, 2021-12-02 19:19:56.018
55.0, 1551.9088856130838, 468.5945048481226, 809.0993061638437, 1898.1731328605674, 0.09600000455975533, 0.4640000220388174, 0.9120000433176756, 0.0, 0.0, 0.0, 0.0, 0.0, 1.6384943960307276E9, 0.0, 2021-12-02 19:19:56.030
55.0, 1572.1754034729674, 456.5595067907125, 798.5602680887096, 1909.6808050242253, 0.09600000455975533, 0.4640000220388174, 0.9120000433176756, 0.0, 0.0, 0.0, 0.0, 0.0, 1.6384943960307276E9, 0.0, 2021-12-02 19:19:56.030
56.0, 1574.3707247469574, 463.42596310935915, 804.6488252165727, 1908.3531405399553, 0.09600000455975533, 0.4640000220388174, 0.9120000433176756, 0.0, 0.0, 0.0, 0.0, 0.0, 1.6384943960464747E9, 0.0, 2021-12-02 19:19:56.046
56.0, 1562.8368732836097, 483.50548597145826, 818.5350737520494, 1923.6904702582397, 0.09600000455975533, 0.4640000220388174, 0.9120000433176756, 0.0, 0.0, 0.0, 0.0, 0.0, 1.6384943960464747E9, 0.0, 2021-12-02 19:19:56.046
57.0, 1587.1499628955498, 469.27142674010247, 807.3677324843593, 1897.5448296680115, 0.09600000455975533, 0.4640000220388174, 0.9120000433176756, 0.0, 0.0, 0.0, 0.0, 0.0, 1.638494396047316E9, 0.0, 2021-12-02 19:19:56.047
57.0, 1584.8013057233766, 470.0381062310189, 801.5372284534387, 1909.912678821478, 0.09600000455975533, 0.4640000220388174, 0.9120000433176756, 0.0, 0.0, 0.0, 0.0, 0.0, 1.638494396047316E9, 0.0, 2021-12-02 19:19:56.047
58.0, 1599.0129255549982, 478.83435092680156, 816.4332499769516, 1920.57513359515, 0.09600000455975533, 0.4640000220388174, 0.9120000433176756, 0.0, 0.0, 0.0, 0.0, 0.0, 1.6384943960607243E9, 0.0, 2021-12-02 19:19:56.060
58.0, 1569.093725909479, 482.4919730834663, 816.7735808729194, 1898.8874537521042, 0.09600000455975533, 0.4640000220388174, 0.9120000433176756, 0.0, 0.0, 0.0, 0.0, 0.0, 1.6384943960607243E9, 0.0, 2021-12-02 19:19:56.060
59.0, 1580.8145723706111, 472.3830235032365, 801.8588598496281, 1894.2013591076247, 0.09600000455975533, 0.4640000220388174, 0.9120000433176756, 0.0, 0.0, 0.0, 0.0, 0.0, 1.6384943960765047E9, 0.0, 2021-12-02 19:19:56.076
59.0, 1561.976696293801, 479.0325656244531, 816.7100025736727, 1915.230816558469, 0.09600000455975533, 0.4640000220388174, 0.9120000433176756, 0.0, 0.0, 0.0, 0.0, 0.0, 1.6384943960765047E9, 0.0, 2021-12-02 19:19:56.076
60.0, 1587.449154892005, 473.90516278520226, 811.2684481381439, 1914.2584425699897, 0.09600000455975533, 0.4640000220388174, 0.9120000433176756, 0.0, 0.0, 0.0, 0.0, 0.0, 1.6384943960772676E9, 0.0, 2021-12-02 19:19:56.077
60.0, 1584.1393434312195, 467.214481764473, 798.5266089891084, 1902.1598662133329, 0.09600000455975533, 0.4640000220388174, 0.9120000433176756, 0.0, 0.0, 0.0, 0.0, 0.0, 1.6384943960772676E9, 0.0, 2021-12-02 19:19:56.077
61.0, 1601.3054842278361, 471.23487421683967, 801.5073092537932, 1892.5034445277415, 0.09600000455975533, 0.4640000220388174, 0.9120000433176756, 0.0, 0.0, 0.0, 0.0, 0.0, 1.6384943960907729E9, 0.0, 2021-12-02 19:19:56.090
61.0, 1585.5642453143373, 482.3797760847956, 816.2462549791671, 1918.7837215163745, 0.09600000455975533, 0.4640000220388174, 0.9120000433176756, 0.0, 0.0, 0.0, 0.0, 0.0, 1.6384943960907729E9, 0.0, 2021-12-02 19:19:56.090
62.0, 1594.420328409411, 470.31111892778426, 805.5164820062928, 1908.779489134904, 0.09600000455975533, 0.4640000220388174, 0.9120000433176756, 0.0, 0.0, 0.0, 0.0, 0.0, 1.6384943961064827E9, 0.0, 2021-12-02 19:19:56.106
62.0, 1589.8651302633807, 464.5180138964206, 796.5856009121053, 1906.7188042593189, 0.09600000455975533, 0.4640000220388174, 0.9120000433176756, 0.0, 0.0, 0.0, 0.0, 0.0, 1.6384943961064827E9, 0.0, 2021-12-02 19:19:56.106
63.0, 1577.7141953073442, 480.517305906862, 814.0471938052215, 1895.1101547968574, 0.09600000455975533, 0.4640000220388174, 0.9120000433176756, 0.0, 0.0, 0.0, 0.0, 0.0, 1.6384943961072712E9, 0.0, 2021-12-02 19:19:56.107
63.0, 1606.096296071075, 477.188794946298, 807.6257855813019, 1903.3715937989764, 0.09600000455975533, 0.4640000220388174, 0.9120000433176756, 0.0, 0.0, 0.0, 0.0, 0.0, 1.6384943961072712E9, 0.0, 2021-12-02 19:19:56.107
64.0, 1617.6077081346884, 459.7272020531818, 788.6831923057325, 1902.6497931075282, 0.09600000455975533, 0.4640000220388174, 0.9120000433176756, 0.0, 0.0, 0.0, 0.0, 0.0, 1.6384943961207547E9, 0.0, 2021-12-02 19:19:56.120
64.0, 1602.1656612176448, 468.68426244705915, 803.6764512280934, 1911.36002010433, 0.09600000455975533, 0.4640000220388174, 0.9120000433176756, 0.0, 0.0, 0.0, 0.0, 0.0, 1.6384943961207547E9, 0.0, 2021-12-02 19:19:56.120
65.0, 1600.6023830361664, 482.25261948630214, 808.4897024710663, 1928.7916937978007, 0.09600000455975533, 0.4640000220388174, 0.9120000433176756, 0.0, 0.0, 0.0, 0.0, 0.0, 1.6384943961363103E9, 0.0, 2021-12-02 19:19:56.136
65.0, 1597.460867073387, 464.97802159097046, 801.1407990581356, 1898.442405657377, 0.09600000455975533, 0.4640000220388174, 0.9120000433176756, 0.0, 0.0, 0.0, 0.0, 0.0, 1.6384943961363103E9, 0.0, 2021-12-02 19:19:56.136
66.0, 1594.1585354125127, 473.28059949260205, 803.4670168305747, 1901.2510705241002, 0.09600000455975533, 0.4640000220388174, 0.9120000433176756, 0.0, 0.0, 0.0, 0.0, 0.0, 1.6384943961515071E9, 0.0, 2021-12-02 19:19:56.151
66.0, 1593.8930025156587, 483.21003387495875, 818.9801218467765, 1901.9317323160358, 0.09600000455975533, 0.4640000220388174, 0.9120000433176756, 0.0, 0.0, 0.0, 0.0, 0.0, 1.6384943961515071E9, 0.0, 2021-12-02 19:19:56.151
67.0, 1632.7991817547008, 473.35165759176016, 810.1726574511267, 1909.5349489259534, 0.09600000455975533, 0.4640000220388174, 0.9120000433176756, 0.0, 0.0, 0.0, 0.0, 0.0, 1.6384943961522844E9, 0.0, 2021-12-02 19:19:56.152
67.0, 1611.1227216115221, 461.38397773355246, 801.6045466526411, 1904.4561647861265, 0.09600000455975533, 0.4640000220388174, 0.9120000433176756, 0.0, 0.0, 0.0, 0.0, 0.0, 1.6384943961522844E9, 0.0, 2021-12-02 19:19:56.152
68.0, 1632.0811209632084, 482.28627858590335, 816.9269167711027, 1901.6549797193147, 0.09600000455975533, 0.4640000220388174, 0.9120000433176756, 0.0, 0.0, 0.0, 0.0, 0.0, 1.6384943961661854E9, 0.0, 2021-12-02 19:19:56.166
68.0, 1666.5031601553783, 482.7799453800544, 813.0935193165205, 1924.6366649470292, 0.09600000455975533, 0.4640000220388174, 0.9120000433176756, 0.0, 0.0, 0.0, 0.0, 0.0, 1.6384943961661854E9, 0.0, 2021-12-02 19:19:56.166
69.0, 1624.5190432528034, 459.4093105569482, 796.5856009121053, 1900.2188581363298, 0.09600000455975533, 0.4640000220388174, 0.9120000433176756, 0.0, 0.0, 0.0, 0.0, 0.0, 1.6384943961815093E9, 0.0, 2021-12-02 19:19:56.181
69.0, 1625.8354880372062, 468.1157976537943, 805.924131101463, 1919.501782307867, 0.09600000455975533, 0.4640000220388174, 0.9120000433176756, 0.0, 0.0, 0.0, 0.0, 0.0, 1.6384943961815093E9, 0.0, 2021-12-02 19:19:56.181
70.0, 1635.1515788268298, 479.975020413287, 819.0960587454028, 1941.0473459525965, 0.09600000455975533, 0.4640000220388174, 0.9120000433176756, 0.0, 0.0, 0.0, 0.0, 0.0, 1.6384943961822205E9, 0.0, 2021-12-02 19:19:56.182
70.0, 1643.6710709258914, 465.1126579893753, 804.9031384135596, 1899.7401509420015, 0.09600000455975533, 0.4640000220388174, 0.9120000433176756, 0.0, 0.0, 0.0, 0.0, 0.0, 1.6384943961822205E9, 0.0, 2021-12-02 19:19:56.182
71.0, 1647.2725945832208, 472.5625387011096, 806.7431691917591, 1896.9427057751454, 0.09600000455975533, 0.4640000220388174, 0.9120000433176756, 0.0, 0.0, 0.0, 0.0, 0.0, 1.6384943961965032E9, 0.0, 2021-12-02 19:19:56.196
