%OpenBCI Raw EEG Data
%Number of channels = 4
%Sample Rate = 200 Hz
%Board = OpenBCI_GUI$BoardGanglionBLE
Sample Index, EXG Channel 0, EXG Channel 1, EXG Channel 2, EXG Channel 3, Accel Channel 0, Accel Channel 1, Accel Channel 2, Other, Other, Other, Other, Other, Timestamp, Other, Timestamp (Formatted)
2.0, -3.1527356626465917, -2.7862254669889808, -1.5969372810795903, -15.169034220278263, 0.03200000151991844, 0.0, 0.0, 0.0, 0.0, 0.0, 0.0, 0.0, 1.648337700950591E9, 0.0, 2022-03-26 18:35:00.950
2.0, 2.655328968539834, -2.1205232748761773, 2.0307656759396195, 9.28617158997804, 0.03200000151991844, 0.0, 0.0, 0.0, 0.0, 0.0, 0.0, 0.0, 1.648337700950591E9, 0.0, 2022-03-26 18:35:00.950
3.0, -0.2617929968982935, -1.0621315874159336, -5.063824540004134, -0.7405001912266016, 0.03200000151991844, 0.0, 0.0, 0.0, 0.0, 0.0, 0.0, 0.0, 1.64833770096513E9, 0.0, 2022-03-26 18:35:00.965
3.0, -0.35529049579054117, -0.17951519787311554, -10.04537128098309, -4.140069250948727, 0.03200000151991844, 0.0, 0.0, 0.0, 0.0, 0.0, 0.0, 0.0, 1.64833770096513E9, 0.0, 2022-03-26 18:35:00.965
4.0, 0.10097729880362749, 3.586564057506621, -3.6838014563545585, -5.841723730787635, 0.03200000151991844, 0.0, 0.0, 0.0, 0.0, 0.0, 0.0, 0.0, 1.6483377009658644E9, 0.0, 2022-03-26 18:35:00.965
4.0, 4.652435544878244, -0.2767525967210531, -3.62770295701921, 1.3014851845800877, 0.03200000151991844, 0.0, 0.0, 0.0, 0.0, 0.0, 0.0, 0.0, 1.6483377009658644E9, 0.0, 2022-03-26 18:35:00.965
5.0, 0.17577529791742563, -3.657622156664729, -0.8788764895871282, 9.574143886566162, 0.03200000151991844, 0.0, 0.0, 0.0, 0.0, 0.0, 0.0, 0.0, 1.6483377009794765E9, 0.0, 2022-03-26 18:35:00.979
5.0, 0.9424547888338566, 3.264932661317289, 0.23187379725277424, 10.243585978634655, 0.03200000151991844, 0.0, 0.0, 0.0, 0.0, 0.0, 0.0, 0.0, 1.6483377009794765E9, 0.0, 2022-03-26 18:35:00.979
6.0, -0.35155059583485126, 3.788518655113876, -2.7263870676979423, 1.6156367808580399, 0.03200000151991844, 0.0, 0.0, 0.0, 0.0, 0.0, 0.0, 0.0, 1.648337700994835E9, 0.0, 2022-03-26 18:35:00.994
6.0, -8.201600602827966, -3.575344357639551, -12.341669853776693, -16.07409000955522, 0.03200000151991844, 0.0, 0.0, 0.0, 0.0, 0.0, 0.0, 0.0, 1.648337700994835E9, 0.0, 2022-03-26 18:35:00.994
7.0, 6.234413226135075, 1.7053943797945976, 1.1144901867955923, 12.270611754618585, 0.03200000151991844, 0.0, 0.0, 0.0, 0.0, 0.0, 0.0, 0.0, 1.6483377010101864E9, 0.0, 2022-03-26 18:35:01.010
7.0, 8.111843003891408, 2.41597537137568, 1.3987225834280252, 10.572697174735367, 0.03200000151991844, 0.0, 0.0, 0.0, 0.0, 0.0, 0.0, 0.0, 1.6483377010101864E9, 0.0, 2022-03-26 18:35:01.010
8.0, 4.315844548866153, 4.955367441289127, 1.7876721788197756, 6.406448624096811, 0.03200000151991844, 0.0, 0.0, 0.0, 0.0, 0.0, 0.0, 0.0, 1.648337701010872E9, 0.0, 2022-03-26 18:35:01.010
8.0, 5.060084640048444, -2.973220464773476, -0.9798537883907557, 5.890342430211604, 0.03200000151991844, 0.0, 0.0, 0.0, 0.0, 0.0, 0.0, 0.0, 1.648337701010872E9, 0.0, 2022-03-26 18:35:01.010
9.0, 2.9096421655267477, 0.8526971898972988, -0.9087956892326474, 11.582470162771642, 0.03200000151991844, 0.0, 0.0, 0.0, 0.0, 0.0, 0.0, 0.0, 1.6483377010251503E9, 0.0, 2022-03-26 18:35:01.025
9.0, -0.7442400911822915, -2.861023466102779, -9.043078092858195, -7.24792611412704, 0.03200000151991844, 0.0, 0.0, 0.0, 0.0, 0.0, 0.0, 0.0, 1.6483377010251503E9, 0.0, 2022-03-26 18:35:01.025
10.0, 6.885155818425119, 1.3949826834723353, 2.3149980725720525, 10.011712181381881, 0.03200000151991844, 0.0, 0.9280000440776348, 0.0, 0.0, 0.0, 0.0, 0.0, 1.6483377010258822E9, 0.0, 2022-03-26 18:35:01.025
10.0, 1.3201846843585372, -0.7853789906948805, 2.494513270445168, 12.618422450497746, 0.03200000151991844, 0.0, 0.9280000440776348, 0.0, 0.0, 0.0, 0.0, 0.0, 1.6483377010258822E9, 0.0, 2022-03-26 18:35:01.025
11.0, 1.9410080770030618, -0.5123662939295173, -1.3089649844914675, 0.19447479769587517, 0.03200000151991844, 0.4640000220388174, 0.9280000440776348, 0.0, 0.0, 0.0, 0.0, 0.0, 1.6483377010393746E9, 0.0, 2022-03-26 18:35:01.039
11.0, 2.775005767121911, 5.553751434199512, 0.5348056936636567, -6.642062321305275, 0.03200000151991844, 0.4640000220388174, 0.9280000440776348, 0.0, 0.0, 0.0, 0.0, 0.0, 1.6483377010393746E9, 0.0, 2022-03-26 18:35:01.039
12.0, -0.22439399734139442, -3.1676952624693513, -3.141515962779522, 14.933420523069799, 0.01600000075995922, 0.4640000220388174, 0.9280000440776348, 0.0, 0.0, 0.0, 0.0, 0.0, 1.648337701055083E9, 0.0, 2022-03-26 18:35:01.055
12.0, 0.3253712961450219, -2.9620007649064064, -4.536498646251857, 1.727833779528737, 0.01600000075995922, 0.4640000220388174, 0.9280000440776348, 0.0, 0.0, 0.0, 0.0, 0.0, 1.648337701055083E9, 0.0, 2022-03-26 18:35:01.055
13.0, 3.137776062823832, -0.9013158893212676, -6.608403221704066, -6.7392997201532125, 0.01600000075995922, 0.4640000220388174, 0.9280000440776348, 0.0, 0.0, 0.0, 0.0, 0.0, 1.6483377010558217E9, 0.0, 2022-03-26 18:35:01.055
13.0, 3.9568141531199217, 1.372543283738196, 5.841723730787635, 9.963093481957912, 0.01600000075995922, 0.4640000220388174, 0.9280000440776348, 0.0, 0.0, 0.0, 0.0, 0.0, 1.6483377010558217E9, 0.0, 2022-03-26 18:35:01.055
14.0, 3.268672561272979, 4.248526349663734, 1.4585609827190638, 3.822177754715085, 0.01600000075995922, 0.4640000220388174, 0.9280000440776348, 0.0, 0.0, 0.0, 0.0, 0.0, 1.6483377010694158E9, 0.0, 2022-03-26 18:35:01.069
14.0, -2.9657406648620963, -2.9470411650836468, -6.881415918469429, -9.327310489490628, 0.01600000075995922, 0.4640000220388174, 0.9280000440776348, 0.0, 0.0, 0.0, 0.0, 0.0, 1.6483377010694158E9, 0.0, 2022-03-26 18:35:01.069
15.0, 1.2266871854662895, -2.7114274678751826, -11.002785669639707, 3.422008459456265, 0.01600000075995922, 0.4640000220388174, 0.9280000440776348, 0.0, 0.0, 0.0, 0.0, 0.0, 1.6483377010850956E9, 0.0, 2022-03-26 18:35:01.085
15.0, 4.514059246517718, 1.9597075767815113, 1.8811696777120233, 10.344563277438283, 0.01600000075995922, 0.4640000220388174, 0.9280000440776348, 0.0, 0.0, 0.0, 0.0, 0.0, 1.6483377010850956E9, 0.0, 2022-03-26 18:35:01.085
16.0, 4.8169911429286, -0.7965986905619502, -3.1938745621591806, -3.3920892598107457, 0.01600000075995922, 0.4640000220388174, 0.9280000440776348, 0.0, 0.0, 0.0, 0.0, 0.0, 1.6483377010857964E9, 0.0, 2022-03-26 18:35:01.085
16.0, 5.3330973368138075, 10.415621376596391, -5.714567132294178, -4.312104648910463, 0.01600000075995922, 0.4640000220388174, 0.9280000440776348, 0.0, 0.0, 0.0, 0.0, 0.0, 1.6483377010857964E9, 0.0, 2022-03-26 18:35:01.085
17.0, 7.5059792110696435, 13.373882241547108, -10.322123877704144, -3.5716044576838613, 0.01600000075995922, 0.4640000220388174, 0.9280000440776348, 0.0, 0.0, 0.0, 0.0, 0.0, 1.6483377010993435E9, 0.0, 2022-03-26 18:35:01.099
17.0, 4.188687950372696, 7.674274709075689, -8.990719493478537, 3.21257406193763, 0.01600000075995922, 0.4640000220388174, 0.9280000440776348, 0.0, 0.0, 0.0, 0.0, 0.0, 1.6483377010993435E9, 0.0, 2022-03-26 18:35:01.099
18.0, 2.9881800645962358, 14.948380122892559, -6.963693717494607, 3.2836321610957384, 0.01600000075995922, 0.4640000220388174, 0.9280000440776348, 0.0, 0.0, 0.0, 0.0, 0.0, 1.6483377011151135E9, 0.0, 2022-03-26 18:35:01.115
18.0, 3.867056554183364, 27.540623273700476, -7.176868014968932, -0.4188687950372696, 0.01600000075995922, 0.4640000220388174, 0.9280000440776348, 0.0, 0.0, 0.0, 0.0, 0.0, 1.6483377011151135E9, 0.0, 2022-03-26 18:35:01.115
19.0, 10.692373973317444, 20.603108855895698, -0.5011465940624475, 5.018945740535855, 0.01600000075995922, 0.4640000220388174, 0.9280000440776348, 0.0, 0.0, 0.0, 0.0, 0.0, 1.6483377011158206E9, 0.0, 2022-03-26 18:35:01.115
19.0, 11.507672163657844, 17.72338589001447, -9.768618684262037, 3.9979530526325107, 0.01600000075995922, 0.4640000220388174, 0.9280000440776348, 0.0, 0.0, 0.0, 0.0, 0.0, 1.6483377011158206E9, 0.0, 2022-03-26 18:35:01.115
20.0, 11.058884168975055, 22.667533631436527, -7.857529806904495, 3.5117660583928227, 0.01600000075995922, 0.4640000220388174, 0.9280000440776348, 0.0, 0.0, 0.0, 0.0, 0.0, 1.6483377011293805E9, 0.0, 2022-03-26 18:35:01.129
20.0, 6.600923421792686, 15.385948417708278, -19.548457068391144, -7.715413608588278, 0.01600000075995922, 0.4640000220388174, 0.9280000440776348, 0.0, 0.0, 0.0, 0.0, 0.0, 1.6483377011293805E9, 0.0, 2022-03-26 18:35:01.129
21.0, 8.44095419999212, 15.71879951376468, -11.862962659448385, -4.0428318521007895, 0.01600000075995922, 0.4640000220388174, 0.9280000440776348, 0.0, 0.0, 0.0, 0.0, 0.0, 1.64833770114515E9, 0.0, 2022-03-26 18:35:01.145
21.0, 9.64894188567996, 11.836783359758556, -10.913028070703149, -3.657622156664729, 0.01600000075995922, 0.4640000220388174, 0.9280000440776348, 0.0, 0.0, 0.0, 0.0, 0.0, 1.64833770114515E9, 0.0, 2022-03-26 18:35:01.145
22.0, 8.515752199105918, 8.717706796713173, -20.707826054655015, -6.589703721925616, 0.03200000151991844, 0.4640000220388174, 0.9280000440776348, 0.0, 0.0, 0.0, 0.0, 0.0, 1.6483377011458952E9, 0.0, 2022-03-26 18:35:01.145
22.0, 6.129696027375758, 9.065517492592335, -20.07204306218773, -5.112443239428103, 0.03200000151991844, 0.4640000220388174, 0.9280000440776348, 0.0, 0.0, 0.0, 0.0, 0.0, 1.6483377011458952E9, 0.0, 2022-03-26 18:35:01.145
23.0, -0.5161061938852072, 3.941854553297162, -21.35482874698937, -8.493312799371779, 0.03200000151991844, 0.4640000220388174, 0.9280000440776348, 0.0, 0.0, 0.0, 0.0, 0.0, 1.648337701159399E9, 0.0, 2022-03-26 18:35:01.159
23.0, 1.2229472855105996, 5.538791834376752, -14.982039222493768, -0.17577529791742563, 0.03200000151991844, 0.4640000220388174, 0.9280000440776348, 0.0, 0.0, 0.0, 0.0, 0.0, 1.648337701159399E9, 0.0, 2022-03-26 18:35:01.159
24.0, 1.7764524789527059, 11.096283168531954, -17.016544798389077, -12.685740649700165, 0.03200000151991844, 0.4640000220388174, 0.9280000440776348, 0.0, 0.0, 0.0, 0.0, 0.0, 1.6483377011751292E9, 0.0, 2022-03-26 18:35:01.175
24.0, 2.247679873369634, 13.093389744870365, -17.585009591653943, -8.904701794497669, 0.03200000151991844, 0.4640000220388174, 0.9280000440776348, 0.0, 0.0, 0.0, 0.0, 0.0, 1.6483377011751292E9, 0.0, 2022-03-26 18:35:01.175
25.0, 3.332250860519707, 15.629041914828122, -15.363509017974138, -6.657021921128035, 0.03200000151991844, 0.4640000220388174, 0.9280000440776348, 0.0, 0.0, 0.0, 0.0, 0.0, 1.6483377011758575E9, 0.0, 2022-03-26 18:35:01.175
25.0, 6.197014226578176, 16.777191201224923, -15.228872619569302, 4.802031543105841, 0.03200000151991844, 0.4640000220388174, 0.9280000440776348, 0.0, 0.0, 0.0, 0.0, 0.0, 1.6483377011758575E9, 0.0, 2022-03-26 18:35:01.175
26.0, 3.751119655556977, 8.781285095959902, -16.84450940042734, 1.8849095776677132, 0.03200000151991844, 0.4640000220388174, 0.9280000440776348, 0.0, 0.0, 0.0, 0.0, 0.0, 1.648337701189443E9, 0.0, 2022-03-26 18:35:01.189
26.0, 0.9312350889667869, 8.900961894541979, -14.671627526171505, -8.134282403625548, 0.03200000151991844, 0.4640000220388174, 0.9280000440776348, 0.0, 0.0, 0.0, 0.0, 0.0, 1.648337701189443E9, 0.0, 2022-03-26 18:35:01.189
27.0, 6.686941120773554, 7.019792216829956, -20.281477459706366, -7.158168515190482, 0.03200000151991844, 0.4640000220388174, 0.9280000440776348, 0.0, 0.0, 0.0, 0.0, 0.0, 1.6483377012215807E9, 0.0, 2022-03-26 18:35:01.221
27.0, 4.098930351436138, 7.307764513418078, -20.404894158244133, -21.227672148495913, 0.03200000151991844, 0.4640000220388174, 0.9280000440776348, 0.0, 0.0, 0.0, 0.0, 0.0, 1.6483377012215807E9, 0.0, 2022-03-26 18:35:01.221
28.0, 4.241046549752355, 6.799138119444251, -25.562216197140515, -15.094236221164465, 0.03200000151991844, 0.4640000220388174, 0.9280000440776348, 0.0, 0.0, 0.0, 0.0, 0.0, 1.6483377012223227E9, 0.0, 2022-03-26 18:35:01.222
28.0, 0.34033089596778154, 4.83569064270705, -29.79578294698149, -17.498991892673075, 0.03200000151991844, 0.4640000220388174, 0.9280000440776348, 0.0, 0.0, 0.0, 0.0, 0.0, 1.6483377012223227E9, 0.0, 2022-03-26 18:35:01.222
29.0, -1.5071796821430326, 5.808064631186426, -21.257591348141432, -8.781285095959902, 0.03200000151991844, 0.4640000220388174, 0.9280000440776348, 0.0, 0.0, 0.0, 0.0, 0.0, 1.6483377012230232E9, 0.0, 2022-03-26 18:35:01.223
29.0, 6.010019228793681, 12.221993055194616, -7.528418610803783, 4.659915344789624, 0.03200000151991844, 0.4640000220388174, 0.9280000440776348, 0.0, 0.0, 0.0, 0.0, 0.0, 1.6483377012230232E9, 0.0, 2022-03-26 18:35:01.223
30.0, 8.598029998131096, 10.385702176950872, -12.753058848902583, -3.739899955689907, 0.03200000151991844, 0.4640000220388174, 0.9280000440776348, 0.0, 0.0, 0.0, 0.0, 0.0, 1.6483377012237365E9, 0.0, 2022-03-26 18:35:01.223
30.0, 8.773805296048522, 7.001092717051506, -11.795644460245967, -1.690434779971838, 0.03200000151991844, 0.4640000220388174, 0.9280000440776348, 0.0, 0.0, 0.0, 0.0, 0.0, 1.6483377012237365E9, 0.0, 2022-03-26 18:35:01.223
31.0, 4.959107341244817, 5.467733735218644, -12.341669853776693, -0.6170834926888347, 0.03200000151991844, 0.4640000220388174, 0.9280000440776348, 0.0, 0.0, 0.0, 0.0, 0.0, 1.6483377012344341E9, 0.0, 2022-03-26 18:35:01.234
31.0, 1.4660407826304436, 10.88310887105763, -11.406694864854217, -5.449034235440195, 0.03200000151991844, 0.4640000220388174, 0.9280000440776348, 0.0, 0.0, 0.0, 0.0, 0.0, 1.6483377012344341E9, 0.0, 2022-03-26 18:35:01.234
32.0, 8.919661394320428, 13.822670236229897, -11.926540958695114, 1.6044170809909701, 0.03200000151991844, 0.4640000220388174, 0.9280000440776348, 0.0, 0.0, 0.0, 0.0, 0.0, 1.6483377012494664E9, 0.0, 2022-03-26 18:35:01.249
32.0, 4.622516345232725, 10.598876474425197, -16.597676003351808, -11.376775665208697, 0.03200000151991844, 0.4640000220388174, 0.9280000440776348, 0.0, 0.0, 0.0, 0.0, 0.0, 1.6483377012494664E9, 0.0, 2022-03-26 18:35:01.249
33.0, 7.532158510759473, 17.67102729063481, -10.277245078235865, 4.82073104288429, 0.03200000151991844, 0.4640000220388174, 0.9280000440776348, 0.0, 0.0, 0.0, 0.0, 0.0, 1.648337701265106E9, 0.0, 2022-03-26 18:35:01.265
33.0, 5.325617536902428, 9.469426687806845, -13.863809135742486, -0.9985532881692052, 0.03200000151991844, 0.4640000220388174, 0.9280000440776348, 0.0, 0.0, 0.0, 0.0, 0.0, 1.648337701265106E9, 0.0, 2022-03-26 18:35:01.265
34.0, 9.301131189800799, 13.048510945402086, -7.520938810892403, -6.2568526258692145, 0.03200000151991844, 0.4640000220388174, 0.9280000440776348, 0.0, 0.0, 0.0, 0.0, 0.0, 1.6483377012658658E9, 0.0, 2022-03-26 18:35:01.265
34.0, -2.247679873369634, 9.226333190687, -9.933174282312393, -5.407895335927606, 0.03200000151991844, 0.4640000220388174, 0.9280000440776348, 0.0, 0.0, 0.0, 0.0, 0.0, 1.6483377012658658E9, 0.0, 2022-03-26 18:35:01.265
35.0, 1.5483185816556215, 12.300530954264104, -6.85897651873529, -1.5183993820101023, 0.03200000151991844, 0.4640000220388174, 0.9280000440776348, 0.0, 0.0, 0.0, 0.0, 0.0, 1.6483377012794325E9, 0.0, 2022-03-26 18:35:01.279
35.0, 1.9410080770030618, 9.446987288072705, 0.7105809915810823, -0.964894188567996, 0.03200000151991844, 0.4640000220388174, 0.9280000440776348, 0.0, 0.0, 0.0, 0.0, 0.0, 1.6483377012794325E9, 0.0, 2022-03-26 18:35:01.279
36.0, 1.772712578997016, 9.742439384572208, -10.87188917119056, -11.488972663879395, 0.03200000151991844, 0.4640000220388174, 0.9280000440776348, 0.0, 0.0, 0.0, 0.0, 0.0, 1.6483377012951462E9, 0.0, 2022-03-26 18:35:01.295
36.0, 3.657622156664729, 6.312951125204563, -12.07239705696702, -0.7928587906062603, 0.03200000151991844, 0.4640000220388174, 0.9280000440776348, 0.0, 0.0, 0.0, 0.0, 0.0, 1.6483377012951462E9, 0.0, 2022-03-26 18:35:01.295
37.0, 4.214867250062525, 4.274705649353564, -15.801077312789857, -0.4188687950372696, 0.03200000151991844, 0.4640000220388174, 0.9280000440776348, 0.0, 0.0, 0.0, 0.0, 0.0, 1.6483377012958655E9, 0.0, 2022-03-26 18:35:01.295
37.0, -0.018699499778449535, 7.479799911379814, -12.016298557631671, -4.095190451480448, 0.03200000151991844, 0.4640000220388174, 0.9280000440776348, 0.0, 0.0, 0.0, 0.0, 0.0, 1.6483377012958655E9, 0.0, 2022-03-26 18:35:01.295
38.0, 1.7465332793071866, 4.050311652012169, -16.664994202554226, -17.229719095863402, 0.03200000151991844, 0.4640000220388174, 0.9280000440776348, 0.0, 0.0, 0.0, 0.0, 0.0, 1.6483377013095553E9, 0.0, 2022-03-26 18:35:01.309
38.0, 5.404155435971916, 4.3270642487332225, -11.926540958695114, -6.174574826844037, 0.03200000151991844, 0.4640000220388174, 0.9280000440776348, 0.0, 0.0, 0.0, 0.0, 0.0, 1.6483377013095553E9, 0.0, 2022-03-26 18:35:01.309
39.0, 1.7502731792628765, 6.350350124761462, -16.91556749958545, -5.336837236769497, 0.03200000151991844, 0.4640000220388174, 0.9280000440776348, 0.0, 0.0, 0.0, 0.0, 0.0, 1.648337701325119E9, 0.0, 2022-03-26 18:35:01.325
39.0, -3.4107887595891953, 0.7180607914924622, -26.4934512861073, -18.276891083456576, 0.03200000151991844, 0.4640000220388174, 0.9280000440776348, 0.0, 0.0, 0.0, 0.0, 0.0, 1.648337701325119E9, 0.0, 2022-03-26 18:35:01.325
40.0, 1.3388841841369867, 7.150688715279102, -16.95670639909804, -13.65437473822385, 0.03200000151991844, 0.4640000220388174, 0.9280000440776348, 0.0, 0.0, 0.0, 0.0, 0.0, 1.6483377013258371E9, 0.0, 2022-03-26 18:35:01.325
40.0, -2.4346748711541295, 5.665948432870209, -13.796490936540067, -24.301869912073016, 0.03200000151991844, 0.4640000220388174, 0.9280000440776348, 0.0, 0.0, 0.0, 0.0, 0.0, 1.6483377013258371E9, 0.0, 2022-03-26 18:35:01.325
41.0, -3.7623393554240465, 6.503686022944748, -30.57742203772068, -13.467379740439355, 0.03200000151991844, 0.4640000220388174, 0.9280000440776348, 0.0, 0.0, 0.0, 0.0, 0.0, 1.648337701339446E9, 0.0, 2022-03-26 18:35:01.339
41.0, 1.8961292775347829, 15.961893010884523, -24.328049211762846, -1.686694880016148, 0.03200000151991844, 0.4640000220388174, 0.9280000440776348, 0.0, 0.0, 0.0, 0.0, 0.0, 1.648337701339446E9, 0.0, 2022-03-26 18:35:01.339
42.0, 5.680908032692969, 8.06322430446744, -23.995198115706444, -1.9447479769587517, 0.03200000151991844, 0.4640000220388174, 0.9280000440776348, 0.0, 0.0, 0.0, 0.0, 0.0, 1.6483377013551302E9, 0.0, 2022-03-26 18:35:01.355
42.0, 6.7430396201089025, 9.185194291174412, -20.59562905598432, -4.3682031482458115, 0.03200000151991844, 0.4640000220388174, 0.9280000440776348, 0.0, 0.0, 0.0, 0.0, 0.0, 1.6483377013551302E9, 0.0, 2022-03-26 18:35:01.355
43.0, 1.7988918786868453, 15.434567117132246, -15.397168117575347, -13.213066543452442, 0.03200000151991844, 0.4640000220388174, 0.9280000440776348, 0.0, 0.0, 0.0, 0.0, 0.0, 1.6483377013558118E9, 0.0, 2022-03-26 18:35:01.355
43.0, 8.751365896314383, 13.175667543895543, -11.305717566050589, -14.342516330070794, 0.03200000151991844, 0.4640000220388174, 0.9280000440776348, 0.0, 0.0, 0.0, 0.0, 0.0, 1.6483377013558118E9, 0.0, 2022-03-26 18:35:01.355
44.0, 5.8940823301672935, 11.780684860423207, -12.640861850231886, -5.015205840580165, 0.03200000151991844, 0.4640000220388174, 0.9280000440776348, 0.0, 0.0, 0.0, 0.0, 0.0, 1.6483377013693893E9, 0.0, 2022-03-26 18:35:01.369
44.0, 4.8095113430172205, 13.25420544296503, -25.053589803166687, -15.030657921917737, 0.03200000151991844, 0.4640000220388174, 0.9280000440776348, 0.0, 0.0, 0.0, 0.0, 0.0, 1.6483377013693893E9, 0.0, 2022-03-26 18:35:01.369
45.0, 0.6170834926888347, 13.224286243319511, -23.946579416282475, -7.696714108809829, 0.03200000151991844, 0.4640000220388174, 0.9280000440776348, 0.0, 0.0, 0.0, 0.0, 0.0, 1.6483377013851025E9, 0.0, 2022-03-26 18:35:01.385
45.0, 2.861023466102779, 10.954166970215738, -15.31863021850586, -10.804570971988142, 0.03200000151991844, 0.4640000220388174, 0.9280000440776348, 0.0, 0.0, 0.0, 0.0, 0.0, 1.6483377013851025E9, 0.0, 2022-03-26 18:35:01.385
46.0, 4.5664178458973765, 1.813851478509605, -8.41851480025798, -12.532404751516879, 0.03200000151991844, 0.4640000220388174, 0.9280000440776348, 0.0, 0.0, 0.0, 0.0, 0.0, 1.648337701385779E9, 0.0, 2022-03-26 18:35:01.385
46.0, 2.939561365172267, 16.302223906852305, -18.92015387583524, -7.6667949091643095, 0.03200000151991844, 0.4640000220388174, 0.9280000440776348, 0.0, 0.0, 0.0, 0.0, 0.0, 1.648337701385779E9, 0.0, 2022-03-26 18:35:01.385
47.0, 9.147795291617513, 24.051296615041792, -15.255051919259131, 8.88974219467491, 0.03200000151991844, 0.4640000220388174, 0.9280000440776348, 0.0, 0.0, 0.0, 0.0, 0.0, 1.6483377013994143E9, 0.0, 2022-03-26 18:35:01.399
47.0, 5.276998837478459, 16.792150801047683, -8.115582903847098, -1.4436013828963041, 0.03200000151991844, 0.4640000220388174, 0.9280000440776348, 0.0, 0.0, 0.0, 0.0, 0.0, 1.6483377013994143E9, 0.0, 2022-03-26 18:35:01.399
48.0, 5.4939130349084735, 16.5640169037506, -10.08277028053999, -0.5609849933534861, 0.03200000151991844, 0.4640000220388174, 0.9280000440776348, 0.0, 0.0, 0.0, 0.0, 0.0, 1.6483377014314675E9, 0.0, 2022-03-26 18:35:01.431
48.0, 7.195567514747381, 15.853435912169516, -18.04875718615949, -3.706240856088698, 0.03200000151991844, 0.4640000220388174, 0.9280000440776348, 0.0, 0.0, 0.0, 0.0, 0.0, 1.6483377014314675E9, 0.0, 2022-03-26 18:35:01.431
49.0, 7.487279711291194, 17.510211592540145, -14.45845322869718, -0.4787071943283081, 0.03200000151991844, 0.4640000220388174, 0.9280000440776348, 0.0, 0.0, 0.0, 0.0, 0.0, 1.6483377014322495E9, 0.0, 2022-03-26 18:35:01.432
49.0, 0.8938360894098878, 9.746179284527898, -18.392827982082963, -16.410681005567312, 0.03200000151991844, 0.4640000220388174, 0.9280000440776348, 0.0, 0.0, 0.0, 0.0, 0.0, 1.6483377014322495E9, 0.0, 2022-03-26 18:35:01.432
50.0, 3.2462331615388393, 12.524924951605499, -15.640261614695191, -10.714813373051584, 0.03200000151991844, 0.4640000220388174, 0.9280000440776348, 0.0, 0.0, 0.0, 0.0, 0.0, 1.6483377014329984E9, 0.0, 2022-03-26 18:35:01.432
50.0, 5.340577136725187, 11.511412063613534, -19.036090774461627, -18.366648682393134, 0.03200000151991844, 0.4640000220388174, 0.9280000440776348, 0.0, 0.0, 0.0, 0.0, 0.0, 1.6483377014329984E9, 0.0, 2022-03-26 18:35:01.432
51.0, 2.2701192731037736, 5.65098883304745, -17.790704089216888, -0.9536744887009263, 0.03200000151991844, 0.4640000220388174, 0.9280000440776348, 0.0, 0.0, 0.0, 0.0, 0.0, 1.648337701433762E9, 0.0, 2022-03-26 18:35:01.433
51.0, 5.063824540004134, 8.983239693567157, -16.765971501357853, -5.187241238541901, 0.03200000151991844, 0.4640000220388174, 0.9280000440776348, 0.0, 0.0, 0.0, 0.0, 0.0, 1.648337701433762E9, 0.0, 2022-03-26 18:35:01.433
52.0, 4.42804154753685, 5.015205840580165, -11.073843768797815, -8.758845696225762, 0.03200000151991844, 0.4640000220388174, 0.9280000440776348, 0.0, 0.0, 0.0, 0.0, 0.0, 1.6483377014444034E9, 0.0, 2022-03-26 18:35:01.444
52.0, 2.0382454758509994, 0.6694420920684934, -8.923401294276118, -8.553151198662817, 0.03200000151991844, 0.4640000220388174, 0.9280000440776348, 0.0, 0.0, 0.0, 0.0, 0.0, 1.6483377014444034E9, 0.0, 2022-03-26 18:35:01.444
53.0, -1.6567756803706288, -0.5273258937522769, -20.5657098563388, -10.295944578014314, 0.03200000151991844, 0.4640000220388174, 0.9280000440776348, 0.0, 0.0, 0.0, 0.0, 0.0, 1.6483377014593933E9, 0.0, 2022-03-26 18:35:01.459
53.0, 0.14585609827190638, 6.163355126976967, -23.27713732421398, -5.561231234110892, 0.03200000151991844, 0.4640000220388174, 0.9280000440776348, 0.0, 0.0, 0.0, 0.0, 0.0, 1.6483377014593933E9, 0.0, 2022-03-26 18:35:01.459
54.0, 2.165402074344456, 7.528418610803783, -19.27544437162578, -0.321631396189332, 0.03200000151991844, 0.4640000220388174, 0.9280000440776348, 0.0, 0.0, 0.0, 0.0, 0.0, 1.648337701475124E9, 0.0, 2022-03-26 18:35:01.475
54.0, -3.5977837573736906, 14.50333202816546, -15.539284315891564, -20.408634058199823, 0.03200000151991844, 0.4640000220388174, 0.9280000440776348, 0.0, 0.0, 0.0, 0.0, 0.0, 1.648337701475124E9, 0.0, 2022-03-26 18:35:01.475
55.0, -4.319584448821843, 7.0646710162982345, -15.834736412391067, -10.273505178280175, 0.03200000151991844, 0.4640000220388174, 0.9280000440776348, 0.0, 0.0, 0.0, 0.0, 0.0, 1.6483377014758365E9, 0.0, 2022-03-26 18:35:01.475
55.0, 6.548564822413027, 12.928834146820009, -16.362062306143343, 1.7053943797945976, 0.03200000151991844, 0.4640000220388174, 0.9280000440776348, 0.0, 0.0, 0.0, 0.0, 0.0, 1.6483377014758365E9, 0.0, 2022-03-26 18:35:01.475
56.0, 1.929788377135992, 7.169388215057552, -11.27953826636076, 2.3486571721732616, 0.03200000151991844, 0.4640000220388174, 0.9280000440776348, 0.0, 0.0, 0.0, 0.0, 0.0, 1.6483377014894109E9, 0.0, 2022-03-26 18:35:01.489
56.0, 0.022439399734139442, 13.201846843585372, -1.7614928791299462, -8.998199293389916, 0.03200000151991844, 0.4640000220388174, 0.9280000440776348, 0.0, 0.0, 0.0, 0.0, 0.0, 1.6483377014894109E9, 0.0, 2022-03-26 18:35:01.489
57.0, 1.7502731792628765, 14.013405133970082, -8.8560830950737, -3.010619464330375, 0.03200000151991844, 0.4640000220388174, 0.9280000440776348, 0.0, 0.0, 0.0, 0.0, 0.0, 1.6483377015051472E9, 0.0, 2022-03-26 18:35:01.505
57.0, -2.2850788729265332, 10.400661776773632, -17.592489391565323, -5.385455936193466, 0.03200000151991844, 0.4640000220388174, 0.9280000440776348, 0.0, 0.0, 0.0, 0.0, 0.0, 1.6483377015051472E9, 0.0, 2022-03-26 18:35:01.505
58.0, 1.7614928791299462, 12.150934956036508, -16.332143106497824, -2.6702885683625937, 0.03200000151991844, 0.4640000220388174, 0.9280000440776348, 0.0, 0.0, 0.0, 0.0, 0.0, 1.648337701505856E9, 0.0, 2022-03-26 18:35:01.505
58.0, -3.4407079592347145, 5.811804531142116, -29.04780295584351, -2.3897960716858506, 0.03200000151991844, 0.4640000220388174, 0.9280000440776348, 0.0, 0.0, 0.0, 0.0, 0.0, 1.648337701505856E9, 0.0, 2022-03-26 18:35:01.505
59.0, -3.5117660583928227, 2.098083875142038, -34.73619078844786, -19.68309346679598, 0.03200000151991844, 0.4640000220388174, 0.9280000440776348, 0.0, 0.0, 0.0, 0.0, 0.0, 1.6483377015193713E9, 0.0, 2022-03-26 18:35:01.519
59.0, -1.249126585200429, -0.8601769898086786, -33.69649860076606, -12.150934956036508, 0.03200000151991844, 0.4640000220388174, 0.9280000440776348, 0.0, 0.0, 0.0, 0.0, 0.0, 1.6483377015193713E9, 0.0, 2022-03-26 18:35:01.519
60.0, 2.0008464762941003, 7.337683713063598, -23.3818545229733, -11.799384360201657, 0.03200000151991844, 0.4640000220388174, 0.9280000440776348, 0.0, 0.0, 0.0, 0.0, 0.0, 1.6483377015351443E9, 0.0, 2022-03-26 18:35:01.535
60.0, -4.233566749840975, 5.759445931762457, -23.34819542337209, -21.066856450401247, 0.03200000151991844, 0.4640000220388174, 0.9280000440776348, 0.0, 0.0, 0.0, 0.0, 0.0, 1.6483377015351443E9, 0.0, 2022-03-26 18:35:01.535
61.0, -5.056344740092754, -2.2327202735468745, -31.123447431251407, -5.056344740092754, 0.03200000151991844, 0.4640000220388174, 0.9280000440776348, 0.0, 0.0, 0.0, 0.0, 0.0, 1.648337701535872E9, 0.0, 2022-03-26 18:35:01.535
61.0, -2.1616621743887663, 1.488480182364583, -25.203185801394284, -19.27170447167009, 0.03200000151991844, 0.4640000220388174, 0.9280000440776348, 0.0, 0.0, 0.0, 0.0, 0.0, 1.648337701535872E9, 0.0, 2022-03-26 18:35:01.535
62.0, -2.255159673281014, -0.762939590960741, -31.73305112402886, -9.734959584660828, 0.03200000151991844, 0.4640000220388174, 0.9280000440776348, 0.0, 0.0, 0.0, 0.0, 0.0, 1.6483377015493617E9, 0.0, 2022-03-26 18:35:01.549
62.0, -10.83823007158935, -1.8587302779778838, -33.08315500803292, -15.034397821873426, 0.03200000151991844, 0.4640000220388174, 0.9280000440776348, 0.0, 0.0, 0.0, 0.0, 0.0, 1.6483377015493617E9, 0.0, 2022-03-26 18:35:01.549
63.0, -3.6838014563545585, -4.177468250505626, -36.75573676452041, -22.57029623258859, 0.03200000151991844, 0.4640000220388174, 0.9280000440776348, 0.0, 0.0, 0.0, 0.0, 0.0, 1.648337701565114E9, 0.0, 2022-03-26 18:35:01.565
63.0, -1.043432087637484, -1.7914120787754655, -28.337221964262426, -8.44469409994781, 0.03200000151991844, 0.4640000220388174, 0.9280000440776348, 0.0, 0.0, 0.0, 0.0, 0.0, 1.648337701565114E9, 0.0, 2022-03-26 18:35:01.565
64.0, -5.24333973787725, -5.796844931319356, -29.3469949522987, -13.26916504278779, 0.03200000151991844, 0.4640000220388174, 0.9280000440776348, 0.0, 0.0, 0.0, 0.0, 0.0, 1.6483377015658364E9, 0.0, 2022-03-26 18:35:01.565
64.0, -6.776698719710112, -0.003739899955689907, -26.695405883714557, -9.398368588648736, 0.03200000151991844, 0.4640000220388174, 0.9280000440776348, 0.0, 0.0, 0.0, 0.0, 0.0, 1.6483377015658364E9, 0.0, 2022-03-26 18:35:01.565
65.0, -3.709980756044388, 3.695021156221628, -33.91715269815177, -5.568711034022272, 0.03200000151991844, 0.4640000220388174, 0.9280000440776348, 0.0, 0.0, 0.0, 0.0, 0.0, 1.6483377015794024E9, 0.0, 2022-03-26 18:35:01.579
65.0, -3.178914962336421, 1.7951519787311554, -32.757783711887896, -3.0480184638872743, 0.03200000151991844, 0.4640000220388174, 0.9280000440776348, 0.0, 0.0, 0.0, 0.0, 0.0, 1.6483377015794024E9, 0.0, 2022-03-26 18:35:01.579
66.0, -7.438661011867225, -6.013759128749371, -32.13322041928768, -24.17471331357956, 0.03200000151991844, 0.4640000220388174, 0.9280000440776348, 0.0, 0.0, 0.0, 0.0, 0.0, 1.648337701595174E9, 0.0, 2022-03-26 18:35:01.595
66.0, -4.873089642263949, -6.709380520507693, -26.489711386151612, -16.339622906409204, 0.03200000151991844, 0.4640000220388174, 0.9280000440776348, 0.0, 0.0, 0.0, 0.0, 0.0, 1.648337701595174E9, 0.0, 2022-03-26 18:35:01.595
67.0, -5.273258937522769, -8.46713349968195, -33.49080410320312, -8.773805296048522, 0.03200000151991844, 0.4640000220388174, 0.9280000440776348, 0.0, 0.0, 0.0, 0.0, 0.0, 1.6483377015958912E9, 0.0, 2022-03-26 18:35:01.595
67.0, -6.765479019843042, 1.21172758564353, -30.857914534397423, -9.925694482401013, 0.03200000151991844, 0.4640000220388174, 0.9280000440776348, 0.0, 0.0, 0.0, 0.0, 0.0, 1.6483377015958912E9, 0.0, 2022-03-26 18:35:01.595
68.0, -7.218006914481521, 2.135482874698937, -32.024763320572674, -15.045617521740496, 0.03200000151991844, 0.4640000220388174, 0.9280000440776348, 0.0, 0.0, 0.0, 0.0, 0.0, 1.6483377016095734E9, 0.0, 2022-03-26 18:35:01.609
68.0, -4.218607150018215, -1.8849095776677132, -28.15770676638931, -19.193166572600603, 0.03200000151991844, 0.4640000220388174, 0.9280000440776348, 0.0, 0.0, 0.0, 0.0, 0.0, 1.6483377016095734E9, 0.0, 2022-03-26 18:35:01.609
69.0, -0.11219699867069721, -4.5664178458973765, -21.30994994752109, -20.303916859440506, 0.03200000151991844, 0.4640000220388174, 0.9280000440776348, 0.0, 0.0, 0.0, 0.0, 0.0, 1.648337701625264E9, 0.0, 2022-03-26 18:35:01.625
69.0, -4.151288950815797, -3.0068795643746853, -29.178699454292655, -22.92184682842344, 0.03200000151991844, 0.4640000220388174, 0.9280000440776348, 0.0, 0.0, 0.0, 0.0, 0.0, 1.648337701625264E9, 0.0, 2022-03-26 18:35:01.625
70.0, -1.7465332793071866, -3.7548595555126667, -24.032597115263343, -6.84027701895684, 0.03200000151991844, 0.4640000220388174, 0.9280000440776348, 0.0, 0.0, 0.0, 0.0, 0.0, 1.6483377016259482E9, 0.0, 2022-03-26 18:35:01.625
70.0, -7.031011916697025, -6.728080020286143, -36.07881487254053, -13.28412464261055, 0.03200000151991844, 0.4640000220388174, 0.9280000440776348, 0.0, 0.0, 0.0, 0.0, 0.0, 1.6483377016259482E9, 0.0, 2022-03-26 18:35:01.625
71.0, -9.192674091085792, -2.8797229658812284, -35.184978783130646, -26.736544783227146, 0.03200000151991844, 0.4640000220388174, 0.9280000440776348, 0.0, 0.0, 0.0, 0.0, 0.0, 1.648337701639454E9, 0.0, 2022-03-26 18:35:01.639
71.0, -0.38894959539175034, 5.879122730344534, -38.15071944799274, -15.034397821873426, 0.03200000151991844, 0.4640000220388174, 0.9280000440776348, 0.0, 0.0, 0.0, 0.0, 0.0, 1.648337701639454E9, 0.0, 2022-03-26 18:35:01.639
72.0, -6.926294717937708, -5.501392834819853, -33.12055400758982, -7.4237014120444655, 0.03200000151991844, 0.4640000220388174, 0.9280000440776348, 0.0, 0.0, 0.0, 0.0, 0.0, 1.6483377016551137E9, 0.0, 2022-03-26 18:35:01.655
72.0, -1.3351442841812968, 5.003986140713096, -12.10605615656823, -5.5761908339336514, 0.03200000151991844, 0.4640000220388174, 0.9280000440776348, 0.0, 0.0, 0.0, 0.0, 0.0, 1.6483377016551137E9, 0.0, 2022-03-26 18:35:01.655
73.0, -9.106656392104924, -1.163108886219561, -15.752458613365889, -9.559184286743402, 0.03200000151991844, 0.4640000220388174, 0.9280000440776348, 0.0, 0.0, 0.0, 0.0, 0.0, 1.6483377016558576E9, 0.0, 2022-03-26 18:35:01.655
73.0, -5.707087332382798, -6.971173517405987, -17.057683697901666, -13.557137339375913, 0.03200000151991844, 0.4640000220388174, 0.9280000440776348, 0.0, 0.0, 0.0, 0.0, 0.0, 1.6483377016558576E9, 0.0, 2022-03-26 18:35:01.655
74.0, -2.1205232748761773, -5.523832234553993, -7.562077710404992, -9.850896483287215, 0.03200000151991844, 0.4640000220388174, 0.9280000440776348, 0.0, 0.0, 0.0, 0.0, 0.0, 1.6483377016693957E9, 0.0, 2022-03-26 18:35:01.669
74.0, -9.061777592636645, -4.738453243859112, -11.178560967557132, -3.709980756044388, 0.03200000151991844, 0.4640000220388174, 0.9280000440776348, 0.0, 0.0, 0.0, 0.0, 0.0, 1.6483377016693957E9, 0.0, 2022-03-26 18:35:01.669
75.0, -10.101469780318439, -5.045125040225685, 1.8175913784652948, 0.8788764895871282, 0.03200000151991844, 0.4640000220388174, 0.9280000440776348, 0.0, 0.0, 0.0, 0.0, 0.0, 1.6483377016851745E9, 0.0, 2022-03-26 18:35:01.685
75.0, -5.475213535130024, -1.9372681770473719, 4.996506340801716, 7.472320111468434, 0.03200000151991844, 0.4640000220388174, 0.9280000440776348, 0.0, 0.0, 0.0, 0.0, 0.0, 1.6483377016851745E9, 0.0, 2022-03-26 18:35:01.685
76.0, -4.315844548866153, -2.531912270002067, 4.03161215223372, 3.1228164630010724, 0.03200000151991844, 0.4640000220388174, 0.9280000440776348, 0.0, 0.0, 0.0, 0.0, 0.0, 1.6483377016859257E9, 0.0, 2022-03-26 18:35:01.685
76.0, -4.955367441289127, 3.579084257595241, 5.729526732116938, 4.633736045099795, 0.03200000151991844, 0.4640000220388174, 0.9280000440776348, 0.0, 0.0, 0.0, 0.0, 0.0, 1.6483377016859257E9, 0.0, 2022-03-26 18:35:01.685
77.0, -6.563524422235787, -4.237306649796665, -1.4810003824532032, 2.6702885683625937, 0.03200000151991844, 0.4640000220388174, 0.9280000440776348, 0.0, 0.0, 0.0, 0.0, 0.0, 1.648337701699448E9, 0.0, 2022-03-26 18:35:01.699
77.0, -10.647495173849165, -7.131989215500653, -1.529619081877172, -0.9686340885236859, 0.03200000151991844, 0.4640000220388174, 0.9280000440776348, 0.0, 0.0, 0.0, 0.0, 0.0, 1.648337701699448E9, 0.0, 2022-03-26 18:35:01.699
78.0, -11.137422068044543, -6.466287023387849, -7.24792611412704, -3.025579064153135, 0.03200000151991844, 0.4640000220388174, 0.9280000440776348, 0.0, 0.0, 0.0, 0.0, 0.0, 1.6483377017150433E9, 0.0, 2022-03-26 18:35:01.715
78.0, -1.5221392819657922, -6.208233926445246, -2.9582608649507165, -0.7891188906505704, 0.03200000151991844, 0.4640000220388174, 0.9280000440776348, 0.0, 0.0, 0.0, 0.0, 0.0, 1.6483377017150433E9, 0.0, 2022-03-26 18:35:01.715
79.0, -6.05115812830627, -12.379068853333592, -6.85897651873529, -11.455313564278185, 0.03200000151991844, 0.4640000220388174, 0.9280000440776348, 0.0, 0.0, 0.0, 0.0, 0.0, 1.6483377017157917E9, 0.0, 2022-03-26 18:35:01.715
79.0, -6.694420920684934, 1.8811696777120233, -1.690434779971838, -15.928233911283314, 0.03200000151991844, 0.4640000220388174, 0.9280000440776348, 0.0, 0.0, 0.0, 0.0, 0.0, 1.6483377017157917E9, 0.0, 2022-03-26 18:35:01.715
80.0, -3.781038855202496, 2.3075182726606727, 0.923755289055407, 3.6127433571964502, 0.03200000151991844, 0.4640000220388174, 0.9280000440776348, 0.0, 0.0, 0.0, 0.0, 0.0, 1.6483377017294874E9, 0.0, 2022-03-26 18:35:01.729
80.0, -4.532758746296167, -2.210280873812735, -6.649542121216655, -1.0209926879033446, 0.03200000151991844, 0.4640000220388174, 0.9280000440776348, 0.0, 0.0, 0.0, 0.0, 0.0, 1.6483377017294874E9, 0.0, 2022-03-26 18:35:01.729
81.0, -9.880815682932734, -7.573297410272062, -11.993859157897532, -0.7105809915810823, 0.03200000151991844, 0.4640000220388174, 0.9280000440776348, 0.0, 0.0, 0.0, 0.0, 0.0, 1.6483377017450771E9, 0.0, 2022-03-26 18:35:01.745
81.0, 2.487033470533788, 2.8273643665015697, 0.33659099601209164, -4.41682184766978, 0.03200000151991844, 0.4640000220388174, 0.9280000440776348, 0.0, 0.0, 0.0, 0.0, 0.0, 1.6483377017450771E9, 0.0, 2022-03-26 18:35:01.745
82.0, 9.159014991484582, 12.09857635665685, -0.5834243930876255, 1.5931973811239004, 0.01600000075995922, 0.4640000220388174, 0.9280000440776348, 0.0, 0.0, 0.0, 0.0, 0.0, 1.6483377017458448E9, 0.0, 2022-03-26 18:35:01.745
82.0, 6.971173517405987, 13.411281241104007, 2.976960364729166, -1.2229472855105996, 0.01600000075995922, 0.4640000220388174, 0.9280000440776348, 0.0, 0.0, 0.0, 0.0, 0.0, 1.6483377017458448E9, 0.0, 2022-03-26 18:35:01.745
83.0, 0.06357829924672842, -1.9821469765156507, 0.0, -1.570757981389761, 0.01600000075995922, 0.4640000220388174, 0.9280000440776348, 0.0, 0.0, 0.0, 0.0, 0.0, 1.648337701759446E9, 0.0, 2022-03-26 18:35:01.759
83.0, 0.35529049579054117, -0.22439399734139442, -3.990473252721131, 2.935821465216577, 0.01600000075995922, 0.4640000220388174, 0.9280000440776348, 0.0, 0.0, 0.0, 0.0, 0.0, 1.648337701759446E9, 0.0, 2022-03-26 18:35:01.759
84.0, -0.4226086949929595, 5.153582138940692, -5.7332666320726275, -9.951873782090843, 0.01600000075995922, 0.4640000220388174, 0.9280000440776348, 0.0, 0.0, 0.0, 0.0, 0.0, 1.6483377017752423E9, 0.0, 2022-03-26 18:35:01.775
84.0, -1.6717352801933885, -1.1444093864411116, -6.320430925115943, -7.113289715722203, 0.01600000075995922, 0.4640000220388174, 0.9280000440776348, 0.0, 0.0, 0.0, 0.0, 0.0, 1.6483377017752423E9, 0.0, 2022-03-26 18:35:01.775
85.0, -3.653882256709039, -7.692974208854139, -12.524924951605499, -2.6067102691158652, 0.01600000075995922, 0.4640000220388174, 0.9280000440776348, 0.0, 0.0, 0.0, 0.0, 0.0, 1.6483377017759275E9, 0.0, 2022-03-26 18:35:01.775
85.0, 0.9798537883907557, -2.255159673281014, -7.535898410715163, 0.08975759893655777, 0.01600000075995922, 0.4640000220388174, 0.9280000440776348, 0.0, 0.0, 0.0, 0.0, 0.0, 1.6483377017759275E9, 0.0, 2022-03-26 18:35:01.775
86.0, -0.9798537883907557, -0.09723739884793758, 1.7427933793514967, 0.5048864940181375, 0.01600000075995922, 0.4640000220388174, 0.9280000440776348, 0.0, 0.0, 0.0, 0.0, 0.0, 1.6483377017893672E9, 0.0, 2022-03-26 18:35:01.789
86.0, -1.170588686130941, 7.719153508543968, -0.362770295701921, 6.642062321305275, 0.01600000075995922, 0.4640000220388174, 0.9280000440776348, 0.0, 0.0, 0.0, 0.0, 0.0, 1.6483377017893672E9, 0.0, 2022-03-26 18:35:01.789
87.0, -2.3486571721732616, 4.84317044261843, 2.9283416653051972, 8.751365896314383, 0.01600000075995922, 0.4640000220388174, 0.9280000440776348, 0.0, 0.0, 0.0, 0.0, 0.0, 1.6483377018050761E9, 0.0, 2022-03-26 18:35:01.805
87.0, -2.7675259672105312, 1.0359522877261043, -6.600923421792686, -2.2402000734582543, 0.01600000075995922, 0.4640000220388174, 0.9280000440776348, 0.0, 0.0, 0.0, 0.0, 0.0, 1.6483377018050761E9, 0.0, 2022-03-26 18:35:01.805
88.0, -2.3486571721732616, 1.6418160805478692, 0.3141515962779522, 4.44300114735961, 0.01600000075995922, 0.4640000220388174, 0.9280000440776348, 0.0, 0.0, 0.0, 0.0, 0.0, 1.6483377018058174E9, 0.0, 2022-03-26 18:35:01.805
88.0, -5.22090033814311, -4.282185449264944, -1.7502731792628765, -7.928587906062603, 0.01600000075995922, 0.4640000220388174, 0.9280000440776348, 0.0, 0.0, 0.0, 0.0, 0.0, 1.6483377018058174E9, 0.0, 2022-03-26 18:35:01.805
89.0, -4.745933043770492, -3.459407459013164, -3.695021156221628, -3.784778755158186, 0.01600000075995922, 0.4640000220388174, 0.9280000440776348, 0.0, 0.0, 0.0, 0.0, 0.0, 1.6483377018194244E9, 0.0, 2022-03-26 18:35:01.819
89.0, 2.382316271774471, 3.504286258481443, -0.18325509782880545, -8.332497101277113, 0.01600000075995922, 0.4640000220388174, 0.9280000440776348, 0.0, 0.0, 0.0, 0.0, 0.0, 1.6483377018194244E9, 0.0, 2022-03-26 18:35:01.819
90.0, -3.21257406193763, 4.858130042441189, 3.7548595555126667, 2.617929968982935, 0.01600000075995922, 0.4640000220388174, 0.9280000440776348, 0.0, 0.0, 0.0, 0.0, 0.0, 1.6483377018351E9, 0.0, 2022-03-26 18:35:01.835
90.0, 0.23187379725277424, 5.63602923322469, 3.751119655556977, 2.374836471863091, 0.01600000075995922, 0.4640000220388174, 0.9280000440776348, 0.0, 0.0, 0.0, 0.0, 0.0, 1.6483377018351E9, 0.0, 2022-03-26 18:35:01.835
91.0, 8.48209309950471, 9.742439384572208, 1.9559676768258214, 2.7114274678751826, 0.01600000075995922, 0.4640000220388174, 0.9280000440776348, 0.0, 0.0, 0.0, 0.0, 0.0, 1.6483377018359203E9, 0.0, 2022-03-26 18:35:01.835
91.0, 5.063824540004134, 9.495605987496674, 1.002293188124895, -6.062377828173339, 0.01600000075995922, 0.4640000220388174, 0.9280000440776348, 0.0, 0.0, 0.0, 0.0, 0.0, 1.6483377018359203E9, 0.0, 2022-03-26 18:35:01.835
92.0, 4.263485949486494, 10.393181976862252, 1.2304270854219794, -1.7801923789083958, 0.03200000151991844, 0.4640000220388174, 0.9280000440776348, 0.0, 0.0, 0.0, 0.0, 0.0, 1.6483377018493912E9, 0.0, 2022-03-26 18:35:01.849
92.0, 1.290265484713018, 5.950180829502642, 0.03739899955689907, 2.9246017653495073, 0.03200000151991844, 0.4640000220388174, 0.9280000440776348, 0.0, 0.0, 0.0, 0.0, 0.0, 1.6483377018493912E9, 0.0, 2022-03-26 18:35:01.849
93.0, 3.4781069587916136, 3.4743670588359237, -4.521539046429098, 1.8736898778006434, 0.03200000151991844, 0.4640000220388174, 0.9280000440776348, 0.0, 0.0, 0.0, 0.0, 0.0, 1.64833770186506E9, 0.0, 2022-03-26 18:35:01.865
93.0, 9.506825687363744, 9.974313181824982, 0.7853789906948805, 5.9763601291924715, 0.03200000151991844, 0.4640000220388174, 0.9280000440776348, 0.0, 0.0, 0.0, 0.0, 0.0, 1.64833770186506E9, 0.0, 2022-03-26 18:35:01.865
94.0, 6.627102721482515, 6.6196229215711355, 0.5123662939295173, 4.536498646251857, 0.03200000151991844, 0.4640000220388174, 0.9280000440776348, 0.0, 0.0, 0.0, 0.0, 0.0, 1.6483377018658218E9, 0.0, 2022-03-26 18:35:01.865
94.0, 7.850050006993115, 11.137422068044543, -2.262639473192394, 0.18325509782880545, 0.03200000151991844, 0.4640000220388174, 0.9280000440776348, 0.0, 0.0, 0.0, 0.0, 0.0, 1.6483377018658218E9, 0.0, 2022-03-26 18:35:01.865
95.0, 6.230673326179385, 9.013158893212676, -3.1489957626909018, 1.0359522877261043, 0.03200000151991844, 0.4640000220388174, 0.9280000440776348, 0.0, 0.0, 0.0, 0.0, 0.0, 1.6483377018794425E9, 0.0, 2022-03-26 18:35:01.879
95.0, 0.8489572899416089, 7.431181211955845, -2.8385840663686395, -2.449634470976889, 0.03200000151991844, 0.4640000220388174, 0.9280000440776348, 0.0, 0.0, 0.0, 0.0, 0.0, 1.6483377018794425E9, 0.0, 2022-03-26 18:35:01.879
96.0, -1.9522277768701315, 7.550858010537922, -5.62480953335762, -7.498499411158264, 0.03200000151991844, 0.4640000220388174, 0.9280000440776348, 0.0, 0.0, 0.0, 0.0, 0.0, 1.6483377018951056E9, 0.0, 2022-03-26 18:35:01.895
96.0, 2.41223547141999, 7.419961512088776, -7.378822612576187, -16.751011901535094, 0.03200000151991844, 0.4640000220388174, 0.9280000440776348, 0.0, 0.0, 0.0, 0.0, 0.0, 1.6483377018951056E9, 0.0, 2022-03-26 18:35:01.895
97.0, 2.782485567033291, 5.060084640048444, -13.134528644382954, -7.117029615677893, 0.03200000151991844, 0.4640000220388174, 0.9280000440776348, 0.0, 0.0, 0.0, 0.0, 0.0, 1.648337701895858E9, 0.0, 2022-03-26 18:35:01.895
97.0, 1.2603462850674987, 5.7370065320283175, -12.790457848459482, 0.725540591403842, 0.03200000151991844, 0.4640000220388174, 0.9280000440776348, 0.0, 0.0, 0.0, 0.0, 0.0, 1.648337701895858E9, 0.0, 2022-03-26 18:35:01.895
98.0, 1.0583916874602437, 11.810604060068727, -0.5535051934421062, -14.50333202816546, 0.03200000151991844, 0.4640000220388174, 0.9280000440776348, 0.0, 0.0, 0.0, 0.0, 0.0, 1.6483377019264855E9, 0.0, 2022-03-26 18:35:01.926
98.0, 2.573051169514656, 6.234413226135075, -8.601769898086786, 3.0031396644189954, 0.03200000151991844, 0.4640000220388174, 0.9280000440776348, 0.0, 0.0, 0.0, 0.0, 0.0, 1.6483377019264855E9, 0.0, 2022-03-26 18:35:01.926
99.0, 2.5655713696032763, 8.717706796713173, -16.814590200781822, -4.940407841466367, 0.03200000151991844, 0.4640000220388174, 0.9280000440776348, 0.0, 0.0, 0.0, 0.0, 0.0, 1.6483377019272256E9, 0.0, 2022-03-26 18:35:01.927
99.0, 2.651589068584144, 14.353736029937863, -6.956213917583227, -3.7174605559557676, 0.03200000151991844, 0.4640000220388174, 0.9280000440776348, 0.0, 0.0, 0.0, 0.0, 0.0, 1.6483377019272256E9, 0.0, 2022-03-26 18:35:01.927
100.0, 2.655328968539834, 11.709626761265099, 0.04113889951258898, 10.658714873716235, 0.03200000151991844, 0.4640000220388174, 0.9280000440776348, 0.0, 0.0, 0.0, 0.0, 0.0, 1.6483377019279628E9, 0.0, 2022-03-26 18:35:01.927
100.0, 1.8175913784652948, 4.81325124297291, -7.442400911822915, 6.241893026046455, 0.03200000151991844, 0.4640000220388174, 0.9280000440776348, 0.0, 0.0, 0.0, 0.0, 0.0, 1.6483377019279628E9, 0.0, 2022-03-26 18:35:01.927
0.0, 555.6014073672704, 58.87911495240405, 826.7983827041462, 394.6510728741996, 0.03200000151991844, 0.4640000220388174, 0.9280000440776348, 0.0, 0.0, 0.0, 0.0, 0.0, 1.6483377019288316E9, 0.0, 2022-03-26 18:35:01.928
1.0, 564.7417228589766, 67.55194294964895, 835.7629228979349, 416.60802551405504, 0.03200000151991844, 0.4640000220388174, 0.9280000440776348, 0.0, 0.0, 0.0, 0.0, 0.0, 1.6483377019394217E9, 0.0, 2022-03-26 18:35:01.939
1.0, 553.2490102951415, 66.27663706475869, 829.3639540737495, 413.9227773458697, 0.03200000151991844, 0.4640000220388174, 0.9280000440776348, 0.0, 0.0, 0.0, 0.0, 0.0, 1.6483377019394217E9, 0.0, 2022-03-26 18:35:01.939
2.0, 553.9072326873429, 61.156714025419205, 816.3042234284803, 399.99912981083617, 0.03200000151991844, 0.4640000220388174, 0.9280000440776348, 0.0, 0.0, 0.0, 0.0, 0.0, 1.6483377019544084E9, 0.0, 2022-03-26 18:35:01.954
2.0, 553.7688563889824, 60.09832233795896, 825.8708875151351, 390.33522832533345, 0.03200000151991844, 0.4640000220388174, 0.9280000440776348, 0.0, 0.0, 0.0, 0.0, 0.0, 1.6483377019544084E9, 0.0, 2022-03-26 18:35:01.954
3.0, 552.0073635098524, 55.40848779352382, 821.6859394647181, 396.21809095563367, 0.03200000151991844, 0.4640000220388174, 0.9280000440776348, 0.0, 0.0, 0.0, 0.0, 0.0, 1.6483377019865212E9, 0.0, 2022-03-26 18:35:01.986
3.0, 549.6998452371918, 54.18180060805753, 811.5545504847541, 396.4350051530637, 0.03200000151991844, 0.4640000220388174, 0.9280000440776348, 0.0, 0.0, 0.0, 0.0, 0.0, 1.6483377019865212E9, 0.0, 2022-03-26 18:35:01.986
4.0, 554.4682176806964, 60.12450163764879, 826.1177209122106, 406.34574003564194, 0.03200000151991844, 0.4640000220388174, 0.9280000440776348, 0.0, 0.0, 0.0, 0.0, 0.0, 1.6483377019872687E9, 0.0, 2022-03-26 18:35:01.987
4.0, 554.0194296860136, 58.68464015470818, 818.6865397002548, 396.49110365239903, 0.03200000151991844, 0.4640000220388174, 0.9280000440776348, 0.0, 0.0, 0.0, 0.0, 0.0, 1.6483377019872687E9, 0.0, 2022-03-26 18:35:01.987
5.0, 556.6672788546421, 63.12764130206779, 825.2351045226678, 407.213396825362, 0.03200000151991844, 0.4640000220388174, 0.9280000440776348, 0.0, 0.0, 0.0, 0.0, 0.0, 1.6483377019879656E9, 0.0, 2022-03-26 18:35:01.987
5.0, 551.1434466200881, 61.216552424710244, 818.1031153071672, 398.2488566315733, 0.03200000151991844, 0.4640000220388174, 0.9280000440776348, 0.0, 0.0, 0.0, 0.0, 0.0, 1.6483377019879656E9, 0.0, 2022-03-26 18:35:01.987
6.0, 552.254196906928, 61.164193825330585, 815.7469783350825, 390.5745819224976, 0.03200000151991844, 0.4640000220388174, 0.9280000440776348, 0.0, 0.0, 0.0, 0.0, 0.0, 1.6483377019887335E9, 0.0, 2022-03-26 18:35:01.988
6.0, 556.9178521516733, 54.94100029906258, 820.7472245758399, 406.5925734327175, 0.03200000151991844, 0.4640000220388174, 0.9280000440776348, 0.0, 0.0, 0.0, 0.0, 0.0, 1.6483377019887335E9, 0.0, 2022-03-26 18:35:01.988
7.0, 549.9242392345332, 55.86849548807368, 822.8378286510706, 401.2781755956821, 0.03200000151991844, 0.4640000220388174, 0.9280000440776348, 0.0, 0.0, 0.0, 0.0, 0.0, 1.6483377019994311E9, 0.0, 2022-03-26 18:35:01.999
7.0, 542.8483485183679, 59.29050394752994, 818.0357971079648, 383.0985219110735, 0.03200000151991844, 0.4640000220388174, 0.9280000440776348, 0.0, 0.0, 0.0, 0.0, 0.0, 1.6483377019994311E9, 0.0, 2022-03-26 18:35:01.999
8.0, 549.8270018356852, 56.291104183066636, 812.0669167786837, 384.6393606928177, 0.03200000151991844, 0.4640000220388174, 0.9280000440776348, 0.0, 0.0, 0.0, 0.0, 0.0, 1.648337702014384E9, 0.0, 2022-03-26 18:35:02.014
8.0, 546.5919883740135, 48.80756437173113, 817.7515647113323, 389.73684433242306, 0.03200000151991844, 0.4640000220388174, 0.9280000440776348, 0.0, 0.0, 0.0, 0.0, 0.0, 1.648337702014384E9, 0.0, 2022-03-26 18:35:02.014
9.0, 545.5934350858442, 59.197006448637694, 813.0542503669858, 386.37467427225783, 0.03200000151991844, 0.4640000220388174, 0.9280000440776348, 0.0, 0.0, 0.0, 0.0, 0.0, 1.648337702030082E9, 0.0, 2022-03-26 18:35:02.030
9.0, 550.1374135320075, 53.82651011226699, 814.2659779526293, 384.841315290425, 0.03200000151991844, 0.4640000220388174, 0.9280000440776348, 0.0, 0.0, 0.0, 0.0, 0.0, 1.648337702030082E9, 0.0, 2022-03-26 18:35:02.030
10.0, 550.5600222270004, 60.65182753140107, 811.3077170876786, 392.8409612956457, 0.03200000151991844, 0.4640000220388174, 0.9280000440776348, 0.0, 0.0, 0.0, 0.0, 0.0, 1.6483377020307863E9, 0.0, 2022-03-26 18:35:02.030
10.0, 547.1006147679873, 51.518991839606315, 807.2461857357994, 395.4701109644957, 0.03200000151991844, 0.4640000220388174, 0.9280000440776348, 0.0, 0.0, 0.0, 0.0, 0.0, 1.6483377020307863E9, 0.0, 2022-03-26 18:35:02.030
11.0, 546.7976828715764, 58.407887557987124, 811.9696793798357, 392.11542070424184, 0.03200000151991844, 0.4640000220388174, 0.9280000440776348, 0.0, 0.0, 0.0, 0.0, 0.0, 1.6483377020444326E9, 0.0, 2022-03-26 18:35:02.044
11.0, 541.6141815329902, 53.85268941195682, 807.0105720385909, 387.421846259851, 0.03200000151991844, 0.4640000220388174, 0.9280000440776348, 0.0, 0.0, 0.0, 0.0, 0.0, 1.6483377020444326E9, 0.0, 2022-03-26 18:35:02.044
12.0, 549.4492719401605, 56.87452857615426, 808.9814993152395, 391.3225619136356, 0.01600000075995922, 0.4640000220388174, 0.9280000440776348, 0.0, 0.0, 0.0, 0.0, 0.0, 1.6483377020601041E9, 0.0, 2022-03-26 18:35:02.060
12.0, 552.7703031008132, 61.08191602630541, 805.731526253745, 401.15849879710004, 0.01600000075995922, 0.4640000220388174, 0.9280000440776348, 0.0, 0.0, 0.0, 0.0, 0.0, 1.6483377020601041E9, 0.0, 2022-03-26 18:35:02.060
13.0, 548.5404762509279, 62.09916881425306, 802.7134269895032, 401.2407765961252, 0.01600000075995922, 0.4640000220388174, 0.9280000440776348, 0.0, 0.0, 0.0, 0.0, 0.0, 1.6483377020608203E9, 0.0, 2022-03-26 18:35:02.060
13.0, 545.0474096923135, 67.04705645563081, 807.3509029345587, 395.78426256077364, 0.01600000075995922, 0.4640000220388174, 0.9280000440776348, 0.0, 0.0, 0.0, 0.0, 0.0, 1.6483377020608203E9, 0.0, 2022-03-26 18:35:02.060
14.0, 547.3474481650628, 63.39317419892177, 808.8094639172778, 388.85048804292455, 0.01600000075995922, 0.4640000220388174, 0.9280000440776348, 0.0, 0.0, 0.0, 0.0, 0.0, 1.6483377020744104E9, 0.0, 2022-03-26 18:35:02.074
14.0, 551.5585755151697, 59.167087248992175, 812.1342349778861, 390.03977622883394, 0.01600000075995922, 0.4640000220388174, 0.9280000440776348, 0.0, 0.0, 0.0, 0.0, 0.0, 1.6483377020744104E9, 0.0, 2022-03-26 18:35:02.074
15.0, 550.758236924652, 66.16444006608799, 815.1074554426596, 389.25439723813906, 0.01600000075995922, 0.4640000220388174, 0.9280000440776348, 0.0, 0.0, 0.0, 0.0, 0.0, 1.6483377020900912E9, 0.0, 2022-03-26 18:35:02.090
15.0, 544.6322807972319, 66.25793756498024, 815.5525035373867, 389.03374314075336, 0.01600000075995922, 0.4640000220388174, 0.9280000440776348, 0.0, 0.0, 0.0, 0.0, 0.0, 1.6483377020900912E9, 0.0, 2022-03-26 18:35:02.090
16.0, 549.0266632451676, 60.85752202896401, 807.7398525299504, 390.5745819224976, 0.01600000075995922, 0.4640000220388174, 0.9280000440776348, 0.0, 0.0, 0.0, 0.0, 0.0, 1.648337702090861E9, 0.0, 2022-03-26 18:35:02.090
16.0, 552.7927425005473, 62.98552510375157, 813.618975260295, 396.21809095563367, 0.01600000075995922, 0.4640000220388174, 0.9280000440776348, 0.0, 0.0, 0.0, 0.0, 0.0, 1.648337702090861E9, 0.0, 2022-03-26 18:35:02.090
17.0, 547.9346124581061, 65.0499498792924, 818.5369437020272, 382.8292491142638, 0.01600000075995922, 0.4640000220388174, 0.9280000440776348, 0.0, 0.0, 0.0, 0.0, 0.0, 1.6483377021044269E9, 0.0, 2022-03-26 18:35:02.104
17.0, 550.2982292301022, 64.05887639103457, 816.7380518233404, 384.33642879640684, 0.01600000075995922, 0.4640000220388174, 0.9280000440776348, 0.0, 0.0, 0.0, 0.0, 0.0, 1.6483377021044269E9, 0.0, 2022-03-26 18:35:02.104
18.0, 547.3362284651957, 65.77175057074055, 804.0822303732857, 379.3025234560482, 0.01600000075995922, 0.4640000220388174, 0.9280000440776348, 0.0, 0.0, 0.0, 0.0, 0.0, 1.6483377021201465E9, 0.0, 2022-03-26 18:35:02.120
18.0, 546.1282407795079, 69.54156972607598, 810.036151102744, 385.66035338072106, 0.01600000075995922, 0.4640000220388174, 0.9280000440776348, 0.0, 0.0, 0.0, 0.0, 0.0, 1.6483377021201465E9, 0.0, 2022-03-26 18:35:02.120
19.0, 546.1768594789319, 58.63602145528421, 807.9231076277792, 379.751311450731, 0.01600000075995922, 0.4640000220388174, 0.9280000440776348, 0.0, 0.0, 0.0, 0.0, 0.0, 1.648337702120859E9, 0.0, 2022-03-26 18:35:02.120
19.0, 552.3850934053771, 67.29762975266203, 809.2507721120492, 396.03483585780486, 0.01600000075995922, 0.4640000220388174, 0.9280000440776348, 0.0, 0.0, 0.0, 0.0, 0.0, 1.648337702120859E9, 0.0, 2022-03-26 18:35:02.120
20.0, 544.8155358950607, 69.9791380208917, 806.3860087459907, 388.0501494524069, 0.01600000075995922, 0.4640000220388174, 0.9280000440776348, 0.0, 0.0, 0.0, 0.0, 0.0, 1.648337702134455E9, 0.0, 2022-03-26 18:35:02.134
20.0, 550.975151122082, 72.99349738517776, 824.3824073327705, 394.4229389769025, 0.01600000075995922, 0.4640000220388174, 0.9280000440776348, 0.0, 0.0, 0.0, 0.0, 0.0, 1.648337702134455E9, 0.0, 2022-03-26 18:35:02.134
21.0, 549.6886255373247, 67.5332434498705, 821.2034923704341, 390.2043318268843, 0.01600000075995922, 0.4640000220388174, 0.9280000440776348, 0.0, 0.0, 0.0, 0.0, 0.0, 1.6483377021501234E9, 0.0, 2022-03-26 18:35:02.150
21.0, 551.0162900215946, 75.28605605801567, 819.9319263854995, 387.9828312532045, 0.01600000075995922, 0.4640000220388174, 0.9280000440776348, 0.0, 0.0, 0.0, 0.0, 0.0, 1.6483377021501234E9, 0.0, 2022-03-26 18:35:02.150
22.0, 551.1135274204426, 74.8297882634215, 811.109502390027, 384.2391913975589, 0.01600000075995922, 0.4640000220388174, 0.9280000440776348, 0.0, 0.0, 0.0, 0.0, 0.0, 1.6483377021508634E9, 0.0, 2022-03-26 18:35:02.150
22.0, 552.688025301788, 74.97190446173772, 815.933973332867, 388.8430082430132, 0.01600000075995922, 0.4640000220388174, 0.9280000440776348, 0.0, 0.0, 0.0, 0.0, 0.0, 1.6483377021508634E9, 0.0, 2022-03-26 18:35:02.150
23.0, 551.8876867112704, 73.41610608017072, 813.4544196622446, 396.4013460534625, 0.01600000075995922, 0.4640000220388174, 0.9280000440776348, 0.0, 0.0, 0.0, 0.0, 0.0, 1.6483377021644251E9, 0.0, 2022-03-26 18:35:02.164
23.0, 558.634466231335, 82.86683326819912, 819.2400448936969, 400.399299106095, 0.01600000075995922, 0.4640000220388174, 0.9280000440776348, 0.0, 0.0, 0.0, 0.0, 0.0, 1.6483377021644251E9, 0.0, 2022-03-26 18:35:02.164
24.0, 551.6371134142391, 78.4612311203964, 814.6025689486414, 370.5212383600883, 0.01600000075995922, 0.4640000220388174, 0.9280000440776348, 0.0, 0.0, 0.0, 0.0, 0.0, 1.6483377021800833E9, 0.0, 2022-03-26 18:35:02.180
24.0, 553.6117805908434, 72.4250325919129, 812.556843672879, 379.1155284582637, 0.01600000075995922, 0.4640000220388174, 0.9280000440776348, 0.0, 0.0, 0.0, 0.0, 0.0, 1.6483377021800833E9, 0.0, 2022-03-26 18:35:02.180
25.0, 548.1440468556248, 72.3502345927991, 815.1672938419506, 392.63152689812705, 0.01600000075995922, 0.4640000220388174, 0.9280000440776348, 0.0, 0.0, 0.0, 0.0, 0.0, 1.6483377021808524E9, 0.0, 2022-03-26 18:35:02.180
25.0, 550.0813150326721, 75.93679865030572, 809.8790753046051, 388.06884895218536, 0.01600000075995922, 0.4640000220388174, 0.9280000440776348, 0.0, 0.0, 0.0, 0.0, 0.0, 1.6483377021808524E9, 0.0, 2022-03-26 18:35:02.180
26.0, 541.7637775312178, 69.26855702931061, 791.9911338165402, 354.1442164541222, 0.01600000075995922, 0.4640000220388174, 0.9280000440776348, 0.0, 0.0, 0.0, 0.0, 0.0, 1.64833770219443E9, 0.0, 2022-03-26 18:35:02.194
26.0, 539.4562592585571, 68.15406684251502, 793.0532654039562, 373.0830698297359, 0.01600000075995922, 0.4640000220388174, 0.9280000440776348, 0.0, 0.0, 0.0, 0.0, 0.0, 1.64833770219443E9, 0.0, 2022-03-26 18:35:02.194
27.0, 531.389295054134, 64.10749509045854, 782.7386213261634, 366.47840650798753, 0.01600000075995922, 0.4640000220388174, 0.9280000440776348, 0.0, 0.0, 0.0, 0.0, 0.0, 1.6483377022100968E9, 0.0, 2022-03-26 18:35:02.210
27.0, 539.1608071620576, 80.12174670072272, 784.6310107037425, 355.183908641804, 0.01600000075995922, 0.4640000220388174, 0.9280000440776348, 0.0, 0.0, 0.0, 0.0, 0.0, 1.6483377022100968E9, 0.0, 2022-03-26 18:35:02.210
28.0, 544.2171519021504, 68.50561743834987, 764.8731192378327, 357.3680102159269, 0.01600000075995922, 0.4640000220388174, 0.9280000440776348, 0.0, 0.0, 0.0, 0.0, 0.0, 1.648337702210815E9, 0.0, 2022-03-26 18:35:02.210
28.0, 540.1481407503597, 75.44313185615465, 761.2005374813452, 348.97941461531445, 0.01600000075995922, 0.4640000220388174, 0.9280000440776348, 0.0, 0.0, 0.0, 0.0, 0.0, 1.648337702210815E9, 0.0, 2022-03-26 18:35:02.210
29.0, 543.6000684094615, 74.9419852620922, 754.4836771609262, 337.9953284454532, 0.01600000075995922, 0.4640000220388174, 0.9280000440776348, 0.0, 0.0, 0.0, 0.0, 0.0, 1.6483377022244656E9, 0.0, 2022-03-26 18:35:02.224
29.0, 541.1205147388391, 75.70492485305294, 757.5204759249464, 344.1175446729176, 0.01600000075995922, 0.4640000220388174, 0.9280000440776348, 0.0, 0.0, 0.0, 0.0, 0.0, 1.6483377022244656E9, 0.0, 2022-03-26 18:35:02.224
30.0, 547.7625770601444, 78.54724881937727, 763.676351252012, 356.4517347267829, 0.01600000075995922, 0.4640000220388174, 0.9280000440776348, 0.0, 0.0, 0.0, 0.0, 0.0, 1.6483377022401547E9, 0.0, 2022-03-26 18:35:02.240
30.0, 540.4136736472137, 64.88539428124204, 759.3305875035003, 357.39418951561674, 0.01600000075995922, 0.4640000220388174, 0.9280000440776348, 0.0, 0.0, 0.0, 0.0, 0.0, 1.6483377022401547E9, 0.0, 2022-03-26 18:35:02.240
31.0, 544.0937352036126, 68.92074633343145, 759.7157971989363, 350.3706573988311, 0.01600000075995922, 0.4640000220388174, 0.9280000440776348, 0.0, 0.0, 0.0, 0.0, 0.0, 1.648337702240861E9, 0.0, 2022-03-26 18:35:02.240
31.0, 537.4479329823516, 69.73230462381616, 760.0523881949484, 359.95228108530864, 0.01600000075995922, 0.4640000220388174, 0.9280000440776348, 0.0, 0.0, 0.0, 0.0, 0.0, 1.648337702240861E9, 0.0, 2022-03-26 18:35:02.240
32.0, 538.2594912727363, 71.9762445972301, 764.966616736725, 355.5504188374616, 0.03200000151991844, 0.4640000220388174, 0.9280000440776348, 0.0, 0.0, 0.0, 0.0, 0.0, 1.648337702254414E9, 0.0, 2022-03-26 18:35:02.254
32.0, 536.3521422953345, 71.43769900361076, 761.649325476028, 353.4373753624968, 0.03200000151991844, 0.4640000220388174, 0.9280000440776348, 0.0, 0.0, 0.0, 0.0, 0.0, 1.648337702254414E9, 0.0, 2022-03-26 18:35:02.254
33.0, 544.2882100013085, 72.3838936924003, 769.910764478147, 369.94903366686776, 0.03200000151991844, 0.4640000220388174, 0.9280000440776348, 0.0, 0.0, 0.0, 0.0, 0.0, 1.6483377022701154E9, 0.0, 2022-03-26 18:35:02.270
33.0, 535.4695259057917, 65.9400460687466, 770.9354970660061, 352.76793327042833, 0.03200000151991844, 0.4640000220388174, 0.9280000440776348, 0.0, 0.0, 0.0, 0.0, 0.0, 1.6483377022701154E9, 0.0, 2022-03-26 18:35:02.270
34.0, 541.1392142386176, 72.56340889027342, 777.3756047897041, 356.3806766276248, 0.03200000151991844, 0.4640000220388174, 0.9280000440776348, 0.0, 0.0, 0.0, 0.0, 0.0, 1.6483377022708886E9, 0.0, 2022-03-26 18:35:02.270
34.0, 543.7721038074233, 76.34070784552023, 775.6141119105741, 337.83077284740284, 0.03200000151991844, 0.4640000220388174, 0.9280000440776348, 0.0, 0.0, 0.0, 0.0, 0.0, 1.6483377022708886E9, 0.0, 2022-03-26 18:35:02.270
35.0, 543.2784370132722, 73.17675248300657, 774.0695332288742, 351.50384708540514, 0.03200000151991844, 0.4640000220388174, 0.9280000440776348, 0.0, 0.0, 0.0, 0.0, 0.0, 1.648337702284406E9, 0.0, 2022-03-26 18:35:02.284
35.0, 542.9717652169056, 74.5380760668777, 772.6408914458007, 366.4148282087408, 0.03200000151991844, 0.4640000220388174, 0.9280000440776348, 0.0, 0.0, 0.0, 0.0, 0.0, 1.648337702284406E9, 0.0, 2022-03-26 18:35:02.284
36.0, 527.7615920971148, 68.13536734273657, 765.3368668323383, 360.02333918446675, 0.03200000151991844, 0.4640000220388174, 0.9280000440776348, 0.0, 0.0, 0.0, 0.0, 0.0, 1.6483377023000567E9, 0.0, 2022-03-26 18:35:02.300
36.0, 539.5946355569176, 73.32634848123416, 773.7441619327292, 364.32422413351014, 0.03200000151991844, 0.4640000220388174, 0.9280000440776348, 0.0, 0.0, 0.0, 0.0, 0.0, 1.6483377023000567E9, 0.0, 2022-03-26 18:35:02.300
37.0, 542.6426540208049, 68.94692563312128, 770.9504566658288, 362.046625060495, 0.03200000151991844, 0.4640000220388174, 0.9280000440776348, 0.0, 0.0, 0.0, 0.0, 0.0, 1.6483377023008568E9, 0.0, 2022-03-26 18:35:02.300
37.0, 541.4122269353829, 75.19629845907912, 780.2291484558955, 373.7525119218044, 0.03200000151991844, 0.4640000220388174, 0.9280000440776348, 0.0, 0.0, 0.0, 0.0, 0.0, 1.6483377023008568E9, 0.0, 2022-03-26 18:35:02.300
38.0, 546.8051626714878, 67.82121574645862, 781.9495024355128, 372.7876177332364, 0.03200000151991844, 0.4640000220388174, 0.9280000440776348, 0.0, 0.0, 0.0, 0.0, 0.0, 1.648337702330818E9, 0.0, 2022-03-26 18:35:02.330
38.0, 541.4945047344081, 67.83991524623707, 779.7579210614786, 366.80003790417686, 0.03200000151991844, 0.4640000220388174, 0.9280000440776348, 0.0, 0.0, 0.0, 0.0, 0.0, 1.648337702330818E9, 0.0, 2022-03-26 18:35:02.330
39.0, 537.7321653789841, 60.94727962790057, 768.7439156919718, 361.09669047174975, 0.03200000151991844, 0.4640000220388174, 0.9280000440776348, 0.0, 0.0, 0.0, 0.0, 0.0, 1.648337702331586E9, 0.0, 2022-03-26 18:35:02.331
39.0, 554.8272480764426, 64.95271248044446, 778.1048852810636, 373.8647089204751, 0.03200000151991844, 0.4640000220388174, 0.9280000440776348, 0.0, 0.0, 0.0, 0.0, 0.0, 1.648337702331586E9, 0.0, 2022-03-26 18:35:02.331
40.0, 552.736644001212, 67.66413994831964, 784.5262935049832, 362.47297365544364, 0.03200000151991844, 0.4640000220388174, 0.9760000463575125, 0.0, 0.0, 0.0, 0.0, 0.0, 1.6483377023323424E9, 0.0, 2022-03-26 18:35:02.332
40.0, 557.4788371450268, 71.67705260077491, 778.811726372689, 381.3893876313232, 0.03200000151991844, 0.4640000220388174, 0.9760000463575125, 0.0, 0.0, 0.0, 0.0, 0.0, 1.6483377023323424E9, 0.0, 2022-03-26 18:35:02.332
41.0, 548.8471480472945, 65.6782530718483, 772.8952046427876, 376.21336609264836, 0.03200000151991844, 0.41600001975893974, 0.9760000463575125, 0.0, 0.0, 0.0, 0.0, 0.0, 1.6483377023444452E9, 0.0, 2022-03-26 18:35:02.344
41.0, 551.1247471203096, 68.0904885432683, 779.9411761593074, 387.29842956131324, 0.03200000151991844, 0.41600001975893974, 0.9760000463575125, 0.0, 0.0, 0.0, 0.0, 0.0, 1.6483377023444452E9, 0.0, 2022-03-26 18:35:02.344
42.0, 552.7329041012563, 74.11920727184042, 787.5107336696237, 364.5897570303641, 0.0, 0.41600001975893974, 0.9760000463575125, 0.0, 0.0, 0.0, 0.0, 0.0, 1.648337702360175E9, 0.0, 2022-03-26 18:35:02.360
42.0, 552.7665632008575, 79.17555201193318, 791.1646159263328, 369.7807381688617, 0.0, 0.41600001975893974, 0.9760000463575125, 0.0, 0.0, 0.0, 0.0, 0.0, 1.648337702360175E9, 0.0, 2022-03-26 18:35:02.360
43.0, 554.0044700861908, 72.29787599341944, 783.6735963150859, 379.69147305143997, 0.0, 0.41600001975893974, 0.9760000463575125, 0.0, 0.0, 0.0, 0.0, 0.0, 1.6483377023608508E9, 0.0, 2022-03-26 18:35:02.360
43.0, 551.9550049104728, 74.10424767201766, 783.4454624177888, 371.32157695060596, 0.0, 0.41600001975893974, 0.9760000463575125, 0.0, 0.0, 0.0, 0.0, 0.0, 1.6483377023608508E9, 0.0, 2022-03-26 18:35:02.360
44.0, 550.4253858285956, 70.99265090888366, 784.286939907819, 371.25425875140354, 0.0, 0.41600001975893974, 0.9760000463575125, 0.0, 0.0, 0.0, 0.0, 0.0, 1.6483377023744383E9, 0.0, 2022-03-26 18:35:02.374
44.0, 556.7981753530912, 77.62349353032187, 781.2987598432228, 382.429079819005, 0.0, 0.41600001975893974, 0.9760000463575125, 0.0, 0.0, 0.0, 0.0, 0.0, 1.6483377023744383E9, 0.0, 2022-03-26 18:35:02.374
45.0, 553.8361745881848, 73.53204297879711, 781.9495024355128, 386.3784141722135, 0.0, 0.41600001975893974, 0.9760000463575125, 0.0, 0.0, 0.0, 0.0, 0.0, 1.6483377023901377E9, 0.0, 2022-03-26 18:35:02.390
45.0, 557.680791742634, 69.19001913024113, 779.2006759680808, 369.73585936939344, 0.0, 0.41600001975893974, 0.9760000463575125, 0.0, 0.0, 0.0, 0.0, 0.0, 1.6483377023901377E9, 0.0, 2022-03-26 18:35:02.390
46.0, 557.6882715425454, 73.93221227405593, 789.8706105416641, 366.3774292091839, 0.0, 0.41600001975893974, 0.9760000463575125, 0.0, 0.0, 0.0, 0.0, 0.0, 1.6483377023908477E9, 0.0, 2022-03-26 18:35:02.390
46.0, 558.3614535345696, 72.21185829443857, 777.798213484697, 371.2392991515808, 0.0, 0.41600001975893974, 0.9760000463575125, 0.0, 0.0, 0.0, 0.0, 0.0, 1.6483377023908477E9, 0.0, 2022-03-26 18:35:02.390
47.0, 561.6076866961084, 74.32116186944768, 780.2777671553195, 383.47999170655385, 0.0, 0.41600001975893974, 0.9760000463575125, 0.0, 0.0, 0.0, 0.0, 0.0, 1.6483377024045236E9, 0.0, 2022-03-26 18:35:02.404
47.0, 553.5669017913751, 75.5740283546038, 796.722107260488, 384.6468404927291, 0.0, 0.41600001975893974, 0.9760000463575125, 0.0, 0.0, 0.0, 0.0, 0.0, 1.6483377024045236E9, 0.0, 2022-03-26 18:35:02.404
48.0, 555.908079163637, 71.92388599785045, 794.1565358908847, 391.2776831141673, 0.0, 0.41600001975893974, 0.9760000463575125, 0.0, 0.0, 0.0, 0.0, 0.0, 1.6483377024201467E9, 0.0, 2022-03-26 18:35:02.420
48.0, 556.173612060491, 66.6057482608594, 790.2184212375432, 392.3996531008743, 0.0, 0.41600001975893974, 0.9760000463575125, 0.0, 0.0, 0.0, 0.0, 0.0, 1.6483377024201467E9, 0.0, 2022-03-26 18:35:02.420
49.0, 549.1239006440155, 59.959946039598435, 793.718967596069, 386.32979547278956, 0.0, 0.41600001975893974, 0.9760000463575125, 0.0, 0.0, 0.0, 0.0, 0.0, 1.6483377024208615E9, 0.0, 2022-03-26 18:35:02.420
49.0, 550.9340122225694, 58.64724115515128, 798.5808375384659, 393.6487796860747, 0.0, 0.41600001975893974, 0.9760000463575125, 0.0, 0.0, 0.0, 0.0, 0.0, 1.6483377024208615E9, 0.0, 2022-03-26 18:35:02.420
50.0, 555.4031926696189, 62.95186600415036, 809.8715955046937, 395.63840646250173, 0.0, 0.41600001975893974, 0.9920000471174717, 0.0, 0.0, 0.0, 0.0, 0.0, 1.6483377024344416E9, 0.0, 2022-03-26 18:35:02.434
50.0, 552.1494797081687, 53.64325501443818, 811.3825150867924, 396.7678562491201, 0.0, 0.41600001975893974, 0.9920000471174717, 0.0, 0.0, 0.0, 0.0, 0.0, 1.6483377024344416E9, 0.0, 2022-03-26 18:35:02.434
51.0, 548.779829848092, 51.63866863818839, 802.631149190478, 396.03483585780486, 0.0, 0.5120000243186951, 0.9920000471174717, 0.0, 0.0, 0.0, 0.0, 0.0, 1.6483377024501374E9, 0.0, 2022-03-26 18:35:02.450
51.0, 547.912173058372, 61.00337812723592, 807.721153030172, 395.86280045984313, 0.0, 0.5120000243186951, 0.9920000471174717, 0.0, 0.0, 0.0, 0.0, 0.0, 1.6483377024501374E9, 0.0, 2022-03-26 18:35:02.450
52.0, 552.1532196081243, 50.58775675063953, 810.1969668008387, 393.1364133921452, 0.01600000075995922, 0.5120000243186951, 0.9920000471174717, 0.0, 0.0, 0.0, 0.0, 0.0, 1.648337702450817E9, 0.0, 2022-03-26 18:35:02.450
52.0, 549.5390295390971, 49.27505186619237, 806.6365820430219, 388.652273345273, 0.01600000075995922, 0.5120000243186951, 0.9920000471174717, 0.0, 0.0, 0.0, 0.0, 0.0, 1.648337702450817E9, 0.0, 2022-03-26 18:35:02.450
53.0, 556.0539352619089, 54.60814920300618, 808.5401911204681, 395.3130351663567, 0.01600000075995922, 0.5120000243186951, 0.9920000471174717, 0.0, 0.0, 0.0, 0.0, 0.0, 1.6483377024644408E9, 0.0, 2022-03-26 18:35:02.464
53.0, 551.8502877117135, 60.50971133308485, 804.4337809691206, 382.1224080226384, 0.01600000075995922, 0.5120000243186951, 0.9920000471174717, 0.0, 0.0, 0.0, 0.0, 0.0, 1.6483377024644408E9, 0.0, 2022-03-26 18:35:02.464
54.0, 551.4052396169864, 57.577629767823964, 815.2869706405327, 388.1960055506788, 0.01600000075995922, 0.5120000243186951, 0.9920000471174717, 0.0, 0.0, 0.0, 0.0, 0.0, 1.6483377024800925E9, 0.0, 2022-03-26 18:35:02.480
54.0, 546.3114958773367, 55.65906109055504, 810.8140502935275, 395.26815636688843, 0.01600000075995922, 0.5120000243186951, 0.9920000471174717, 0.0, 0.0, 0.0, 0.0, 0.0, 1.6483377024800925E9, 0.0, 2022-03-26 18:35:02.480
55.0, 545.3503415887244, 51.35817614151165, 802.4179748930037, 393.29348919028416, 0.01600000075995922, 0.5120000243186951, 0.9920000471174717, 0.0, 0.0, 0.0, 0.0, 0.0, 1.6483377024808278E9, 0.0, 2022-03-26 18:35:02.480
55.0, 546.2217382784002, 53.02991142170504, 807.997905626893, 384.792696591001, 0.01600000075995922, 0.5120000243186951, 0.9920000471174717, 0.0, 0.0, 0.0, 0.0, 0.0, 1.6483377024808278E9, 0.0, 2022-03-26 18:35:02.480
56.0, 544.2171519021504, 52.97381292236969, 804.2019071718678, 380.8620617375709, 0.01600000075995922, 0.5120000243186951, 0.9920000471174717, 0.0, 0.0, 0.0, 0.0, 0.0, 1.6483377024944372E9, 0.0, 2022-03-26 18:35:02.494
56.0, 542.6089949212037, 48.280238477978855, 798.1956278430298, 366.43726760847494, 0.01600000075995922, 0.5120000243186951, 0.9920000471174717, 0.0, 0.0, 0.0, 0.0, 0.0, 1.6483377024944372E9, 0.0, 2022-03-26 18:35:02.494
57.0, 540.7128656436689, 47.70429388480261, 799.8972823228687, 369.4441471728496, 0.01600000075995922, 0.5120000243186951, 0.9920000471174717, 0.0, 0.0, 0.0, 0.0, 0.0, 1.6483377025101993E9, 0.0, 2022-03-26 18:35:02.510
57.0, 541.3860476356931, 52.46518652839586, 804.4562203688547, 385.0170905883424, 0.01600000075995922, 0.5120000243186951, 0.9920000471174717, 0.0, 0.0, 0.0, 0.0, 0.0, 1.6483377025101993E9, 0.0, 2022-03-26 18:35:02.510
58.0, 539.6320345564745, 47.28542508976534, 798.2592061422765, 376.0413306946866, 0.01600000075995922, 0.5120000243186951, 0.9920000471174717, 0.0, 0.0, 0.0, 0.0, 0.0, 1.648337702510845E9, 0.0, 2022-03-26 18:35:02.510
58.0, 544.2994297011755, 45.26587911369279, 797.8739964468405, 385.11058808723465, 0.01600000075995922, 0.5120000243186951, 0.9920000471174717, 0.0, 0.0, 0.0, 0.0, 0.0, 1.648337702510845E9, 0.0, 2022-03-26 18:35:02.510
59.0, 541.4795451345854, 48.14560207957402, 804.8414300642908, 379.2052860572003, 0.01600000075995922, 0.5120000243186951, 0.9920000471174717, 0.0, 0.0, 0.0, 0.0, 0.0, 1.6483377025407832E9, 0.0, 2022-03-26 18:35:02.540
59.0, 540.1257013506256, 40.31425157235935, 798.1918879430741, 375.33448960306123, 0.01600000075995922, 0.5120000243186951, 0.9920000471174717, 0.0, 0.0, 0.0, 0.0, 0.0, 1.6483377025407832E9, 0.0, 2022-03-26 18:35:02.540
60.0, 544.1909726024605, 41.873789853882045, 799.6093100262806, 379.29130375618115, 0.01600000075995922, 0.5120000243186951, 0.9280000440776348, 0.0, 0.0, 0.0, 0.0, 0.0, 1.6483377025415533E9, 0.0, 2022-03-26 18:35:02.541
60.0, 537.0515035870485, 40.04123887559399, 796.2321803662926, 376.69581318693236, 0.01600000075995922, 0.5120000243186951, 0.9280000440776348, 0.0, 0.0, 0.0, 0.0, 0.0, 1.6483377025415533E9, 0.0, 2022-03-26 18:35:02.541
61.0, 548.297382753808, 50.322223853785545, 801.0192523095757, 389.4974907352589, 0.01600000075995922, 0.4480000212788582, 0.9280000440776348, 0.0, 0.0, 0.0, 0.0, 0.0, 1.648337702542247E9, 0.0, 2022-03-26 18:35:02.542
61.0, 546.7154050725512, 49.31245086574927, 798.1320495437831, 388.22966465028003, 0.01600000075995922, 0.4480000212788582, 0.9280000440776348, 0.0, 0.0, 0.0, 0.0, 0.0, 1.648337702542247E9, 0.0, 2022-03-26 18:35:02.542
62.0, 542.9979445165955, 41.38760285964236, 801.0454316092655, 382.0476100235246, 0.01600000075995922, 0.4480000212788582, 0.9280000440776348, 0.0, 0.0, 0.0, 0.0, 0.0, 1.6483377025544095E9, 0.0, 2022-03-26 18:35:02.554
62.0, 533.7491719261743, 50.718653249088675, 798.2180672427639, 364.4812999316491, 0.01600000075995922, 0.4480000212788582, 0.9280000440776348, 0.0, 0.0, 0.0, 0.0, 0.0, 1.6483377025544095E9, 0.0, 2022-03-26 18:35:02.554
63.0, 531.6959668505006, 51.30581754213199, 788.0156201636419, 369.4927658722736, 0.01600000075995922, 0.4480000212788582, 0.9280000440776348, 0.0, 0.0, 0.0, 0.0, 0.0, 1.648337702570102E9, 0.0, 2022-03-26 18:35:02.570
63.0, 534.0408841227181, 43.19771443819627, 790.1810222379863, 368.7410459811799, 0.01600000075995922, 0.4480000212788582, 0.9280000440776348, 0.0, 0.0, 0.0, 0.0, 0.0, 1.648337702570102E9, 0.0, 2022-03-26 18:35:02.570
64.0, 534.3812150186859, 48.20170057890937, 795.7310337722301, 367.58915679482743, 0.01600000075995922, 0.4480000212788582, 0.9280000440776348, 0.0, 0.0, 0.0, 0.0, 0.0, 1.648337702570881E9, 0.0, 2022-03-26 18:35:02.570
64.0, 539.8339891540818, 57.69356666645035, 802.2870783945546, 394.4715576763265, 0.01600000075995922, 0.4480000212788582, 0.9280000440776348, 0.0, 0.0, 0.0, 0.0, 0.0, 1.648337702570881E9, 0.0, 2022-03-26 18:35:02.570
65.0, 534.0595836224966, 51.79200453637168, 805.3762357579544, 390.36514752497897, 0.01600000075995922, 0.4480000212788582, 0.9280000440776348, 0.0, 0.0, 0.0, 0.0, 0.0, 1.6483377025843923E9, 0.0, 2022-03-26 18:35:02.584
65.0, 547.055735968519, 61.91217381646857, 812.9532730681822, 389.5049705351703, 0.01600000075995922, 0.4480000212788582, 0.9280000440776348, 0.0, 0.0, 0.0, 0.0, 0.0, 1.6483377025843923E9, 0.0, 2022-03-26 18:35:02.584
66.0, 548.7125116488896, 67.09941505501047, 816.8427690220997, 392.0593222049065, 0.01600000075995922, 0.4480000212788582, 0.9280000440776348, 0.0, 0.0, 0.0, 0.0, 0.0, 1.6483377026001852E9, 0.0, 2022-03-26 18:35:02.600
66.0, 546.5209302748553, 62.8995074047707, 815.559983337298, 392.8035622960888, 0.01600000075995922, 0.4480000212788582, 0.9280000440776348, 0.0, 0.0, 0.0, 0.0, 0.0, 1.6483377026001852E9, 0.0, 2022-03-26 18:35:02.600
67.0, 543.8020230070688, 64.67221998376772, 814.4342734506354, 391.70777160907164, 0.01600000075995922, 0.4480000212788582, 0.9280000440776348, 0.0, 0.0, 0.0, 0.0, 0.0, 1.6483377026009564E9, 0.0, 2022-03-26 18:35:02.600
67.0, 547.4596451637335, 66.66184676019475, 810.8589290929958, 390.3127889255993, 0.01600000075995922, 0.4480000212788582, 0.9280000440776348, 0.0, 0.0, 0.0, 0.0, 0.0, 1.6483377026009564E9, 0.0, 2022-03-26 18:35:02.600
68.0, 550.7208379250951, 65.4575989744626, 806.5430845441297, 402.9873098754324, 0.01600000075995922, 0.4480000212788582, 0.9280000440776348, 0.0, 0.0, 0.0, 0.0, 0.0, 1.648337702614366E9, 0.0, 2022-03-26 18:35:02.614
68.0, 546.2666170778684, 66.33647546404973, 805.5333115560934, 380.46937224222347, 0.01600000075995922, 0.4480000212788582, 0.9280000440776348, 0.0, 0.0, 0.0, 0.0, 0.0, 1.648337702614366E9, 0.0, 2022-03-26 18:35:02.614
69.0, 550.6086409264244, 66.1980991656892, 816.0274708317593, 388.3493414488621, 0.01600000075995922, 0.4480000212788582, 0.9280000440776348, 0.0, 0.0, 0.0, 0.0, 0.0, 1.6483377026301527E9, 0.0, 2022-03-26 18:35:02.630
69.0, 552.362654005643, 65.53613687353209, 815.1037155427039, 394.33692127792165, 0.01600000075995922, 0.4480000212788582, 0.9280000440776348, 0.0, 0.0, 0.0, 0.0, 0.0, 1.6483377026301527E9, 0.0, 2022-03-26 18:35:02.630
70.0, 542.7324116197415, 55.41222769347951, 804.07849047333, 381.96533222449943, 0.01600000075995922, 0.4480000212788582, 0.9280000440776348, 0.0, 0.0, 0.0, 0.0, 0.0, 1.648337702630878E9, 0.0, 2022-03-26 18:35:02.630
70.0, 543.9590988052078, 56.98672557482496, 801.8158510001376, 391.3861402128823, 0.01600000075995922, 0.4480000212788582, 0.9280000440776348, 0.0, 0.0, 0.0, 0.0, 0.0, 1.648337702630878E9, 0.0, 2022-03-26 18:35:02.630
71.0, 556.9290718515404, 74.13416687166318, 826.9404989024624, 402.59836028004065, 0.01600000075995922, 0.4800000227987766, 0.9280000440776348, 0.0, 0.0, 0.0, 0.0, 0.0, 1.6483377026443934E9, 0.0, 2022-03-26 18:35:02.644
71.0, 548.6788525492884, 67.27893025288358, 815.1635539419949, 393.47674428811297, 0.01600000075995922, 0.4800000227987766, 0.9280000440776348, 0.0, 0.0, 0.0, 0.0, 0.0, 1.6483377026443934E9, 0.0, 2022-03-26 18:35:02.644
72.0, 548.7386909485795, 64.91157358093187, 807.8557894285768, 395.574828163255, -0.01600000075995922, 0.4800000227987766, 0.9280000440776348, 0.0, 0.0, 0.0, 0.0, 0.0, 1.6483377026602256E9, 0.0, 2022-03-26 18:35:02.660
72.0, 548.2225847546943, 60.46109263366088, 807.0741503378376, 387.0254168645479, -0.01600000075995922, 0.4800000227987766, 0.9280000440776348, 0.0, 0.0, 0.0, 0.0, 0.0, 1.6483377026602256E9, 0.0, 2022-03-26 18:35:02.660
73.0, 556.7495566536672, 64.54506338527426, 808.8805220164359, 395.1372598684393, -0.01600000075995922, 0.4800000227987766, 0.9280000440776348, 0.0, 0.0, 0.0, 0.0, 0.0, 1.6483377026608443E9, 0.0, 2022-03-26 18:35:02.660
73.0, 549.4642315399833, 65.22572517720982, 811.7228459827602, 396.1732121561654, -0.01600000075995922, 0.4800000227987766, 0.9280000440776348, 0.0, 0.0, 0.0, 0.0, 0.0, 1.6483377026608443E9, 0.0, 2022-03-26 18:35:02.660
74.0, 553.8174750884064, 73.4235858800821, 816.1621072301641, 387.8369751549326, -0.01600000075995922, 0.4800000227987766, 0.9280000440776348, 0.0, 0.0, 0.0, 0.0, 0.0, 1.6483377026743648E9, 0.0, 2022-03-26 18:35:02.674
74.0, 554.726270777639, 70.0913350195624, 814.5315108494833, 392.36973390122876, -0.01600000075995922, 0.4800000227987766, 0.9280000440776348, 0.0, 0.0, 0.0, 0.0, 0.0, 1.6483377026743648E9, 0.0, 2022-03-26 18:35:02.674
75.0, 552.5010303040035, 63.131381202023476, 812.919613968581, 385.14424718683586, -0.01600000075995922, 0.4800000227987766, 0.9280000440776348, 0.0, 0.0, 0.0, 0.0, 0.0, 1.648337702690182E9, 0.0, 2022-03-26 18:35:02.690
75.0, 546.7266247724183, 67.9408925450407, 808.7122265184298, 372.50338533660397, -0.01600000075995922, 0.4800000227987766, 0.9280000440776348, 0.0, 0.0, 0.0, 0.0, 0.0, 1.648337702690182E9, 0.0, 2022-03-26 18:35:02.690
76.0, 546.8350818711333, 61.564363120589405, 801.0229922095314, 385.51449728244916, -0.01600000075995922, 0.4800000227987766, 0.9280000440776348, 0.0, 0.0, 0.0, 0.0, 0.0, 1.6483377026908472E9, 0.0, 2022-03-26 18:35:02.690
76.0, 553.4995835921727, 69.50043082656339, 815.0289175435901, 397.6953514381312, -0.01600000075995922, 0.4800000227987766, 0.9280000440776348, 0.0, 0.0, 0.0, 0.0, 0.0, 1.6483377026908472E9, 0.0, 2022-03-26 18:35:02.690
77.0, 549.8307417356409, 62.08046931447461, 816.5921957250684, 387.7509574559517, -0.01600000075995922, 0.4800000227987766, 0.9280000440776348, 0.0, 0.0, 0.0, 0.0, 0.0, 1.6483377027044826E9, 0.0, 2022-03-26 18:35:02.704
77.0, 549.0042238454334, 62.24876481248066, 814.0303642554209, 386.77858346747234, -0.01600000075995922, 0.4800000227987766, 0.9280000440776348, 0.0, 0.0, 0.0, 0.0, 0.0, 1.6483377027044826E9, 0.0, 2022-03-26 18:35:02.704
78.0, 548.6377136497758, 65.03499027946964, 811.9472399801016, 399.9542510113679, -0.01600000075995922, 0.4800000227987766, 0.9280000440776348, 0.0, 0.0, 0.0, 0.0, 0.0, 1.648337702720158E9, 0.0, 2022-03-26 18:35:02.720
78.0, 546.7528040721081, 62.44323961017653, 801.4829999040812, 402.8302340772934, -0.01600000075995922, 0.4800000227987766, 0.9280000440776348, 0.0, 0.0, 0.0, 0.0, 0.0, 1.648337702720158E9, 0.0, 2022-03-26 18:35:02.720
79.0, 541.748817931395, 48.280238477978855, 796.1274631675333, 382.8741279137321, -0.01600000075995922, 0.4800000227987766, 0.9280000440776348, 0.0, 0.0, 0.0, 0.0, 0.0, 1.648337702720928E9, 0.0, 2022-03-26 18:35:02.720
79.0, 553.121853696648, 59.42888024589047, 807.1826074365526, 384.47854499472305, -0.01600000075995922, 0.4800000227987766, 0.9280000440776348, 0.0, 0.0, 0.0, 0.0, 0.0, 1.648337702720928E9, 0.0, 2022-03-26 18:35:02.720
80.0, 554.9282253752463, 57.0839629736729, 813.244985264726, 399.18757152045146, -0.01600000075995922, 0.4800000227987766, 0.944000044837594, 0.0, 0.0, 0.0, 0.0, 0.0, 1.6483377027343976E9, 0.0, 2022-03-26 18:35:02.734
80.0, 549.4904108396731, 52.00143893389031, 803.910194975324, 393.45056498842314, -0.01600000075995922, 0.4800000227987766, 0.944000044837594, 0.0, 0.0, 0.0, 0.0, 0.0, 1.6483377027343976E9, 0.0, 2022-03-26 18:35:02.734
81.0, 550.589941426646, 62.839669005479664, 817.8450622102246, 380.4880717420019, -0.01600000075995922, 0.4800000227987766, 0.944000044837594, 0.0, 0.0, 0.0, 0.0, 0.0, 1.6483377027502427E9, 0.0, 2022-03-26 18:35:02.750
81.0, 551.4201992168091, 61.934613216202706, 815.8703950336203, 393.5478023872711, -0.01600000075995922, 0.4800000227987766, 0.944000044837594, 0.0, 0.0, 0.0, 0.0, 0.0, 1.6483377027502427E9, 0.0, 2022-03-26 18:35:02.750
82.0, 554.4532580808736, 61.156714025419205, 817.912380409427, 397.5794145395048, 0.01600000075995922, 0.4800000227987766, 0.944000044837594, 0.0, 0.0, 0.0, 0.0, 0.0, 1.648337702750975E9, 0.0, 2022-03-26 18:35:02.750
82.0, 544.5874019977637, 63.05658320290968, 808.7197063183412, 389.6022079340182, 0.01600000075995922, 0.4800000227987766, 0.944000044837594, 0.0, 0.0, 0.0, 0.0, 0.0, 1.648337702750975E9, 0.0, 2022-03-26 18:35:02.750
83.0, 546.1955589787103, 61.06695642648265, 803.6895408779383, 386.73370466800407, 0.01600000075995922, 0.4800000227987766, 0.944000044837594, 0.0, 0.0, 0.0, 0.0, 0.0, 1.6483377027644036E9, 0.0, 2022-03-26 18:35:02.764
83.0, 552.1494797081687, 63.92423999262974, 804.2056470718235, 393.1999916913919, 0.01600000075995922, 0.4800000227987766, 0.944000044837594, 0.0, 0.0, 0.0, 0.0, 0.0, 1.6483377027644036E9, 0.0, 2022-03-26 18:35:02.764
84.0, 546.1319806794636, 67.64918034849688, 809.0375978145748, 393.6786988857202, 0.01600000075995922, 0.4800000227987766, 0.944000044837594, 0.0, 0.0, 0.0, 0.0, 0.0, 1.6483377027801447E9, 0.0, 2022-03-26 18:35:02.780
84.0, 534.8300030133687, 59.978645539376885, 795.6824150728062, 380.6040086406283, 0.01600000075995922, 0.4800000227987766, 0.944000044837594, 0.0, 0.0, 0.0, 0.0, 0.0, 1.6483377027801447E9, 0.0, 2022-03-26 18:35:02.780
85.0, 531.8343431488611, 49.71262016100809, 798.0497717447579, 392.77738299639896, 0.01600000075995922, 0.4800000227987766, 0.944000044837594, 0.0, 0.0, 0.0, 0.0, 0.0, 1.6483377027808633E9, 0.0, 2022-03-26 18:35:02.780
85.0, 540.1294412505813, 53.983585910405964, 810.0286713028327, 382.17476662201807, 0.01600000075995922, 0.4800000227987766, 0.944000044837594, 0.0, 0.0, 0.0, 0.0, 0.0, 1.6483377027808633E9, 0.0, 2022-03-26 18:35:02.780
86.0, 548.0879483562894, 63.65496719582006, 823.1258009476587, 394.29204247845337, 0.01600000075995922, 0.4800000227987766, 0.944000044837594, 0.0, 0.0, 0.0, 0.0, 0.0, 1.6483377027944496E9, 0.0, 2022-03-26 18:35:02.794
86.0, 538.1846932736225, 52.771858324762434, 802.3955354932696, 385.73889127979055, 0.01600000075995922, 0.4800000227987766, 0.944000044837594, 0.0, 0.0, 0.0, 0.0, 0.0, 1.6483377027944496E9, 0.0, 2022-03-26 18:35:02.794
87.0, 541.4122269353829, 56.10410918528214, 806.9544735392556, 389.18707903893664, 0.01600000075995922, 0.4800000227987766, 0.944000044837594, 0.0, 0.0, 0.0, 0.0, 0.0, 1.6483377028102329E9, 0.0, 2022-03-26 18:35:02.810
87.0, 545.4625385873951, 60.19181983685121, 810.4138809982687, 389.74806403229013, 0.01600000075995922, 0.4800000227987766, 0.944000044837594, 0.0, 0.0, 0.0, 0.0, 0.0, 1.6483377028102329E9, 0.0, 2022-03-26 18:35:02.810
88.0, 546.3488948768936, 61.24647162435576, 804.0859702732414, 392.7549435966648, 0.01600000075995922, 0.4800000227987766, 0.944000044837594, 0.0, 0.0, 0.0, 0.0, 0.0, 1.6483377028108988E9, 0.0, 2022-03-26 18:35:02.810
88.0, 544.909033393953, 55.88345508789644, 806.4047082457691, 377.387694678735, 0.01600000075995922, 0.4800000227987766, 0.944000044837594, 0.0, 0.0, 0.0, 0.0, 0.0, 1.6483377028108988E9, 0.0, 2022-03-26 18:35:02.810
89.0, 546.4947509751655, 61.994451615493745, 819.1689867945388, 384.06715599959716, 0.01600000075995922, 0.4800000227987766, 0.944000044837594, 0.0, 0.0, 0.0, 0.0, 0.0, 1.6483377028243992E9, 0.0, 2022-03-26 18:35:02.824
89.0, 552.471111104358, 64.3805077872239, 807.8258702289313, 391.74517060862854, 0.01600000075995922, 0.4800000227987766, 0.944000044837594, 0.0, 0.0, 0.0, 0.0, 0.0, 1.6483377028243992E9, 0.0, 2022-03-26 18:35:02.824
90.0, 552.1158206085674, 61.38484792271629, 802.462853692472, 389.2730967379175, 0.01600000075995922, 0.4800000227987766, 0.8640000410377979, 0.0, 0.0, 0.0, 0.0, 0.0, 1.6483377028401554E9, 0.0, 2022-03-26 18:35:02.840
90.0, 553.3350279941224, 61.81119651766494, 808.5177517207339, 368.6699878820218, 0.01600000075995922, 0.4800000227987766, 0.8640000410377979, 0.0, 0.0, 0.0, 0.0, 0.0, 1.6483377028401554E9, 0.0, 2022-03-26 18:35:02.840
91.0, 553.9109725872986, 64.07757589081302, 810.5709567964077, 384.0970751992427, 0.01600000075995922, 0.41600001975893974, 0.8640000410377979, 0.0, 0.0, 0.0, 0.0, 0.0, 1.6483377028408265E9, 0.0, 2022-03-26 18:35:02.840
91.0, 560.1229464136995, 70.48028461495414, 809.4078479101881, 392.29119600215927, 0.01600000075995922, 0.41600001975893974, 0.8640000410377979, 0.0, 0.0, 0.0, 0.0, 0.0, 1.6483377028408265E9, 0.0, 2022-03-26 18:35:02.840
92.0, 550.9863708219491, 71.08240850782022, 812.074396578595, 374.81090360926464, -0.01600000075995922, 0.41600001975893974, 0.8640000410377979, 0.0, 0.0, 0.0, 0.0, 0.0, 1.6483377028871758E9, 0.0, 2022-03-26 18:35:02.887
92.0, 549.1126809441485, 69.51539042638615, 813.2188059650362, 363.1536354473792, -0.01600000075995922, 0.41600001975893974, 0.8640000410377979, 0.0, 0.0, 0.0, 0.0, 0.0, 1.6483377028871758E9, 0.0, 2022-03-26 18:35:02.887
93.0, 555.3545739701949, 73.4983838791959, 807.6949737304822, 388.40543994819745, -0.01600000075995922, 0.41600001975893974, 0.8640000410377979, 0.0, 0.0, 0.0, 0.0, 0.0, 1.6483377028878543E9, 0.0, 2022-03-26 18:35:02.887
93.0, 559.4235851219855, 79.19051161175594, 825.5716955186799, 394.25464347889647, -0.01600000075995922, 0.41600001975893974, 0.8640000410377979, 0.0, 0.0, 0.0, 0.0, 0.0, 1.6483377028878543E9, 0.0, 2022-03-26 18:35:02.887
94.0, 556.9776905509643, 71.5349364024587, 816.3416224280372, 381.59134222893044, -0.01600000075995922, 0.41600001975893974, 0.8640000410377979, 0.0, 0.0, 0.0, 0.0, 0.0, 1.6483377028887503E9, 0.0, 2022-03-26 18:35:02.888
94.0, 562.3818459869362, 75.71614455292001, 823.918659738265, 389.6882256329991, -0.01600000075995922, 0.41600001975893974, 0.8640000410377979, 0.0, 0.0, 0.0, 0.0, 0.0, 1.6483377028887503E9, 0.0, 2022-03-26 18:35:02.888
95.0, 563.7805685703643, 77.41031923284754, 828.320521986112, 397.9945434345864, -0.01600000075995922, 0.41600001975893974, 0.8640000410377979, 0.0, 0.0, 0.0, 0.0, 0.0, 1.6483377028894012E9, 0.0, 2022-03-26 18:35:02.889
95.0, 559.1393527253531, 75.76850315229967, 825.3510414212942, 395.6458862624131, -0.01600000075995922, 0.41600001975893974, 0.8640000410377979, 0.0, 0.0, 0.0, 0.0, 0.0, 1.6483377028894012E9, 0.0, 2022-03-26 18:35:02.889
96.0, 556.6261399551295, 79.69539810577407, 823.5110106430948, 389.7630236321129, -0.01600000075995922, 0.41600001975893974, 0.8640000410377979, 0.0, 0.0, 0.0, 0.0, 0.0, 1.6483377029001887E9, 0.0, 2022-03-26 18:35:02.900
96.0, 560.8634466049261, 73.22163128247485, 827.2546504987404, 390.30156922573224, -0.01600000075995922, 0.41600001975893974, 0.8640000410377979, 0.0, 0.0, 0.0, 0.0, 0.0, 1.6483377029001887E9, 0.0, 2022-03-26 18:35:02.900
97.0, 553.7651164890267, 76.85307413944975, 824.2365512344986, 394.63611327437684, -0.01600000075995922, 0.41600001975893974, 0.8640000410377979, 0.0, 0.0, 0.0, 0.0, 0.0, 1.6483377029008856E9, 0.0, 2022-03-26 18:35:02.900
97.0, 553.7389371893369, 78.0535820252262, 823.4623919436708, 393.22991089103743, -0.01600000075995922, 0.41600001975893974, 0.8640000410377979, 0.0, 0.0, 0.0, 0.0, 0.0, 1.6483377029008856E9, 0.0, 2022-03-26 18:35:02.900
98.0, 553.376166893635, 72.6456866892986, 815.017697843723, 380.21879894519225, -0.01600000075995922, 0.41600001975893974, 0.8640000410377979, 0.0, 0.0, 0.0, 0.0, 0.0, 1.6483377029143891E9, 0.0, 2022-03-26 18:35:02.914
98.0, 551.3790603172965, 75.50671015540138, 810.941206892021, 379.2426850567572, -0.01600000075995922, 0.41600001975893974, 0.8640000410377979, 0.0, 0.0, 0.0, 0.0, 0.0, 1.6483377029143891E9, 0.0, 2022-03-26 18:35:02.914
99.0, 551.2631234186701, 82.01039617834613, 813.9331268565729, 380.7199455392547, -0.01600000075995922, 0.41600001975893974, 0.8640000410377979, 0.0, 0.0, 0.0, 0.0, 0.0, 1.6483377029301336E9, 0.0, 2022-03-26 18:35:02.930
99.0, 553.7763361888938, 76.0527355489321, 812.3361895754933, 392.0668020048179, -0.01600000075995922, 0.41600001975893974, 0.8640000410377979, 0.0, 0.0, 0.0, 0.0, 0.0, 1.6483377029301336E9, 0.0, 2022-03-26 18:35:02.930
100.0, 557.1646855487488, 74.5717351664789, 817.0746428193524, 394.37058037752286, -0.01600000075995922, 0.41600001975893974, 0.8480000402778387, 0.0, 0.0, 0.0, 0.0, 0.0, 1.6483377029308996E9, 0.0, 2022-03-26 18:35:02.930
100.0, 558.5596682322212, 76.19485174724832, 815.5412838375196, 383.50991090619937, -0.01600000075995922, 0.41600001975893974, 0.8480000402778387, 0.0, 0.0, 0.0, 0.0, 0.0, 1.6483377029308996E9, 0.0, 2022-03-26 18:35:02.930
0.0, 552.49542045407, 76.07143504871055, 817.0596832195297, 388.55877584638074, -0.01600000075995922, 0.41600001975893974, 0.8480000402778387, 0.0, 0.0, 0.0, 0.0, 0.0, 1.6483377029451349E9, 0.0, 2022-03-26 18:35:02.945
1.0, 561.1869479510933, 82.1712118764408, 817.0148044200614, 400.29084200738, -0.01600000075995922, 0.41600001975893974, 0.8480000402778387, 0.0, 0.0, 0.0, 0.0, 0.0, 1.648337702945896E9, 0.0, 2022-03-26 18:35:02.945
1.0, 553.6510495403782, 72.21185829443857, 812.0669167786837, 383.5323503059335, -0.01600000075995922, 0.41600001975893974, 0.8480000402778387, 0.0, 0.0, 0.0, 0.0, 0.0, 1.648337702945896E9, 0.0, 2022-03-26 18:35:02.945
2.0, 550.0383061831817, 74.88962666271254, 813.244985264726, 380.5030313418247, 0.0, 0.41600001975893974, 0.8480000402778387, 0.0, 0.0, 0.0, 0.0, 0.0, 1.64833770295941E9, 0.0, 2022-03-26 18:35:02.959
2.0, 554.8066786266863, 67.49210455035791, 816.307963328436, 380.99669813597575, 0.0, 0.41600001975893974, 0.8480000402778387, 0.0, 0.0, 0.0, 0.0, 0.0, 1.64833770295941E9, 0.0, 2022-03-26 18:35:02.959
3.0, 554.7431003274396, 67.92219304526225, 824.3337886333466, 404.6104264562018, 0.0, 0.41600001975893974, 0.8480000402778387, 0.0, 0.0, 0.0, 0.0, 0.0, 1.648337702975135E9, 0.0, 2022-03-26 18:35:02.975
3.0, 546.7471942221746, 63.36325499927625, 820.8818609742448, 392.1303803040646, 0.0, 0.41600001975893974, 0.8480000402778387, 0.0, 0.0, 0.0, 0.0, 0.0, 1.648337702975135E9, 0.0, 2022-03-26 18:35:02.975
4.0, 555.2180676218122, 64.33936888771132, 813.7087328592315, 400.9827234991826, 0.0, 0.41600001975893974, 0.8480000402778387, 0.0, 0.0, 0.0, 0.0, 0.0, 1.6483377029758394E9, 0.0, 2022-03-26 18:35:02.975
4.0, 551.1041776705533, 66.91242005722597, 814.7110260473564, 406.3943587350659, 0.0, 0.41600001975893974, 0.8480000402778387, 0.0, 0.0, 0.0, 0.0, 0.0, 1.6483377029758394E9, 0.0, 2022-03-26 18:35:02.975
5.0, 553.1835620459169, 61.67282021930441, 816.4201603271067, 404.71888355491683, 0.0, 0.41600001975893974, 0.8480000402778387, 0.0, 0.0, 0.0, 0.0, 0.0, 1.6483377029894888E9, 0.0, 2022-03-26 18:35:02.989
5.0, 550.5506724771112, 60.51719113299623, 815.7357586352155, 397.85242723627016, 0.0, 0.41600001975893974, 0.8480000402778387, 0.0, 0.0, 0.0, 0.0, 0.0, 1.6483377029894888E9, 0.0, 2022-03-26 18:35:02.989
6.0, 555.3938429197297, 63.65122729586437, 815.1411145422608, 403.78016866603866, 0.0, 0.41600001975893974, 0.8480000402778387, 0.0, 0.0, 0.0, 0.0, 0.0, 1.6483377030051544E9, 0.0, 2022-03-26 18:35:03.005
6.0, 547.513873713091, 59.84774904092774, 807.9605066273361, 401.55866809235886, 0.0, 0.41600001975893974, 0.8480000402778387, 0.0, 0.0, 0.0, 0.0, 0.0, 1.6483377030051544E9, 0.0, 2022-03-26 18:35:03.005
7.0, 559.6386293694377, 61.50826462125406, 807.661314630881, 404.04196166293696, 0.0, 0.41600001975893974, 0.8480000402778387, 0.0, 0.0, 0.0, 0.0, 0.0, 1.648337703005938E9, 0.0, 2022-03-26 18:35:03.005
7.0, 556.1343431109563, 64.3468486876227, 811.6330883838236, 395.55612866347656, 0.0, 0.41600001975893974, 0.8480000402778387, 0.0, 0.0, 0.0, 0.0, 0.0, 1.648337703005938E9, 0.0, 2022-03-26 18:35:03.005
8.0, 553.134943346493, 62.66763360751793, 807.1190291373059, 397.45599784096703, 0.0, 0.41600001975893974, 0.8480000402778387, 0.0, 0.0, 0.0, 0.0, 0.0, 1.648337703019425E9, 0.0, 2022-03-26 18:35:03.019
8.0, 553.4229156430811, 63.138861001934856, 807.298544335179, 397.6429928387515, 0.0, 0.41600001975893974, 0.8480000402778387, 0.0, 0.0, 0.0, 0.0, 0.0, 1.648337703019425E9, 0.0, 2022-03-26 18:35:03.019
9.0, 550.6479098759592, 62.90698720468208, 813.0318109672517, 400.48157690512016, 0.0, 0.41600001975893974, 0.8480000402778387, 0.0, 0.0, 0.0, 0.0, 0.0, 1.6483377030352397E9, 0.0, 2022-03-26 18:35:03.035
9.0, 551.6614227639511, 67.89975364552811, 809.1647544130683, 387.10395476361737, 0.0, 0.41600001975893974, 0.8480000402778387, 0.0, 0.0, 0.0, 0.0, 0.0, 1.6483377030352397E9, 0.0, 2022-03-26 18:35:03.035
10.0, 551.6651626639068, 64.72831848310307, 806.9282942395657, 391.7302110088058, 0.0, 0.41600001975893974, 0.9120000433176756, 0.0, 0.0, 0.0, 0.0, 0.0, 1.6483377030359445E9, 0.0, 2022-03-26 18:35:03.035
10.0, 560.7232003565878, 68.59911493724212, 813.4245004625991, 403.1743048732169, 0.0, 0.41600001975893974, 0.9120000433176756, 0.0, 0.0, 0.0, 0.0, 0.0, 1.6483377030359445E9, 0.0, 2022-03-26 18:35:03.035
11.0, 553.5425924416631, 70.76451701158658, 812.7587982704863, 404.0943202623166, 0.0, 0.4640000220388174, 0.9120000433176756, 0.0, 0.0, 0.0, 0.0, 0.0, 1.6483377030494893E9, 0.0, 2022-03-26 18:35:03.049
11.0, 556.089464311488, 78.15081942407414, 809.5200449088588, 402.9536507758312, 0.0, 0.4640000220388174, 0.9120000433176756, 0.0, 0.0, 0.0, 0.0, 0.0, 1.6483377030494893E9, 0.0, 2022-03-26 18:35:03.049
12.0, 556.2315805098042, 69.21245852997527, 802.6274092905223, 390.582061722409, 0.01600000075995922, 0.4640000220388174, 0.9120000433176756, 0.0, 0.0, 0.0, 0.0, 0.0, 1.648337703065297E9, 0.0, 2022-03-26 18:35:03.065
12.0, 560.8428771551698, 69.56400912581012, 810.4251006981358, 404.30001475987956, 0.01600000075995922, 0.4640000220388174, 0.9120000433176756, 0.0, 0.0, 0.0, 0.0, 0.0, 1.648337703065297E9, 0.0, 2022-03-26 18:35:03.065
13.0, 562.1630618395284, 81.71494408184662, 824.6255008298904, 408.5784603091888, 0.01600000075995922, 0.4640000220388174, 0.9120000433176756, 0.0, 0.0, 0.0, 0.0, 0.0, 1.64833770306592E9, 0.0, 2022-03-26 18:35:03.065
13.0, 555.9062092136592, 70.61866091331467, 800.0917571205646, 389.71066503273323, 0.01600000075995922, 0.4640000220388174, 0.9120000433176756, 0.0, 0.0, 0.0, 0.0, 0.0, 1.64833770306592E9, 0.0, 2022-03-26 18:35:03.065
14.0, 551.9793142601848, 69.85946122230962, 794.7661395836622, 398.7537431255914, 0.01600000075995922, 0.4640000220388174, 0.9120000433176756, 0.0, 0.0, 0.0, 0.0, 0.0, 1.6483377030958958E9, 0.0, 2022-03-26 18:35:03.095
14.0, 559.9789602654055, 77.69455162947997, 803.7418994773179, 404.0232621631585, 0.01600000075995922, 0.4640000220388174, 0.9120000433176756, 0.0, 0.0, 0.0, 0.0, 0.0, 1.6483377030958958E9, 0.0, 2022-03-26 18:35:03.095
15.0, 549.058452394791, 77.055028737057, 794.949394681491, 398.18153843237087, 0.01600000075995922, 0.4640000220388174, 0.9120000433176756, 0.0, 0.0, 0.0, 0.0, 0.0, 1.6483377030965383E9, 0.0, 2022-03-26 18:35:03.096
15.0, 560.2931118616834, 87.81098100962117, 796.6061703618616, 396.6145203509368, 0.01600000075995922, 0.4640000220388174, 0.9120000433176756, 0.0, 0.0, 0.0, 0.0, 0.0, 1.6483377030965383E9, 0.0, 2022-03-26 18:35:03.096
16.0, 555.3115651207045, 85.05467474227771, 794.7997986832634, 380.8620617375709, 0.01600000075995922, 0.4640000220388174, 0.9120000433176756, 0.0, 0.0, 0.0, 0.0, 0.0, 1.6483377030972614E9, 0.0, 2022-03-26 18:35:03.097
16.0, 552.7198144514114, 87.94561740802601, 776.833319296129, 370.7194530577399, 0.01600000075995922, 0.4640000220388174, 0.9120000433176756, 0.0, 0.0, 0.0, 0.0, 0.0, 1.6483377030972614E9, 0.0, 2022-03-26 18:35:03.097
17.0, 552.289725956507, 82.69853777019307, 770.11645897571, 383.3528351080604, 0.01600000075995922, 0.4640000220388174, 0.9120000433176756, 0.0, 0.0, 0.0, 0.0, 0.0, 1.648337703109465E9, 0.0, 2022-03-26 18:35:03.109
17.0, 546.2348279282451, 87.38463241467252, 765.4715032307431, 384.8600147902034, 0.01600000075995922, 0.4640000220388174, 0.9120000433176756, 0.0, 0.0, 0.0, 0.0, 0.0, 1.648337703109465E9, 0.0, 2022-03-26 18:35:03.109
18.0, 548.2506340043619, 81.55786828370765, 765.8080942267552, 372.3089105389081, 0.01600000075995922, 0.4640000220388174, 0.9120000433176756, 0.0, 0.0, 0.0, 0.0, 0.0, 1.6483377031252046E9, 0.0, 2022-03-26 18:35:03.125
18.0, 551.6838621636853, 86.45713722566143, 771.3057471616194, 372.87737533217296, 0.01600000075995922, 0.4640000220388174, 0.9120000433176756, 0.0, 0.0, 0.0, 0.0, 0.0, 1.6483377031252046E9, 0.0, 2022-03-26 18:35:03.125
19.0, 549.3651241911575, 80.06190830143169, 761.7203835751861, 362.40191555628553, 0.01600000075995922, 0.4640000220388174, 0.9120000433176756, 0.0, 0.0, 0.0, 0.0, 0.0, 1.6483377031258628E9, 0.0, 2022-03-26 18:35:03.125
19.0, 549.4174827905372, 78.48741042008623, 769.2450622860342, 368.8981217793189, 0.01600000075995922, 0.4640000220388174, 0.9120000433176756, 0.0, 0.0, 0.0, 0.0, 0.0, 1.6483377031258628E9, 0.0, 2022-03-26 18:35:03.125
20.0, 548.6620229994878, 72.25673709390685, 764.8245005384088, 378.47226566588506, 0.01600000075995922, 0.4640000220388174, 0.944000044837594, 0.0, 0.0, 0.0, 0.0, 0.0, 1.6483377031394248E9, 0.0, 2022-03-26 18:35:03.139
20.0, 550.3711572792381, 79.95719110267237, 773.5422073351219, 369.4254476730712, 0.01600000075995922, 0.4640000220388174, 0.944000044837594, 0.0, 0.0, 0.0, 0.0, 0.0, 1.6483377031394248E9, 0.0, 2022-03-26 18:35:03.139
21.0, 549.058452394791, 77.39161973306909, 775.7412685090676, 372.8960748319514, 0.01600000075995922, 0.4800000227987766, 0.944000044837594, 0.0, 0.0, 0.0, 0.0, 0.0, 1.6483377031551266E9, 0.0, 2022-03-26 18:35:03.155
21.0, 541.7581676812842, 73.26651008194312, 766.5710338177159, 365.79774471605197, 0.01600000075995922, 0.4800000227987766, 0.944000044837594, 0.0, 0.0, 0.0, 0.0, 0.0, 1.6483377031551266E9, 0.0, 2022-03-26 18:35:03.155
22.0, 547.7233081106097, 75.6450864537619, 770.1538579752669, 363.4565673437901, 0.04800000227987766, 0.4800000227987766, 0.944000044837594, 0.0, 0.0, 0.0, 0.0, 0.0, 1.648337703155841E9, 0.0, 2022-03-26 18:35:03.155
22.0, 551.6464631641284, 80.31248159846291, 772.0836463524029, 375.31953000323847, 0.04800000227987766, 0.4800000227987766, 0.944000044837594, 0.0, 0.0, 0.0, 0.0, 0.0, 1.648337703155841E9, 0.0, 2022-03-26 18:35:03.155
23.0, 551.4968671659008, 81.66258548246697, 780.8387521486729, 377.2006996809505, 0.04800000227987766, 0.4800000227987766, 0.944000044837594, 0.0, 0.0, 0.0, 0.0, 0.0, 1.6483377031694305E9, 0.0, 2022-03-26 18:35:03.169
23.0, 548.0972981061786, 82.30958817480132, 782.2449545320123, 375.2297724043019, 0.04800000227987766, 0.4800000227987766, 0.944000044837594, 0.0, 0.0, 0.0, 0.0, 0.0, 1.6483377031694305E9, 0.0, 2022-03-26 18:35:03.169
24.0, 547.9776213075966, 78.68936501769349, 777.9889483824372, 363.13867584755644, 0.04800000227987766, 0.4800000227987766, 0.944000044837594, 0.0, 0.0, 0.0, 0.0, 0.0, 1.6483377031851263E9, 0.0, 2022-03-26 18:35:03.185
24.0, 551.3435312677175, 75.43939195619896, 779.2380749676377, 368.8270636801608, 0.04800000227987766, 0.4800000227987766, 0.944000044837594, 0.0, 0.0, 0.0, 0.0, 0.0, 1.6483377031851263E9, 0.0, 2022-03-26 18:35:03.185
25.0, 544.7426078459248, 75.56280865473673, 778.3517186781392, 370.25196556327865, 0.04800000227987766, 0.4800000227987766, 0.944000044837594, 0.0, 0.0, 0.0, 0.0, 0.0, 1.6483377031858594E9, 0.0, 2022-03-26 18:35:03.185
25.0, 548.8228386975825, 67.51454395009205, 778.4339964771643, 367.4208612968214, 0.04800000227987766, 0.4800000227987766, 0.944000044837594, 0.0, 0.0, 0.0, 0.0, 0.0, 1.6483377031858594E9, 0.0, 2022-03-26 18:35:03.185
26.0, 553.2247009454295, 70.80191601114348, 783.5090407170355, 371.81150384480134, 0.04800000227987766, 0.4800000227987766, 0.944000044837594, 0.0, 0.0, 0.0, 0.0, 0.0, 1.6483377031994712E9, 0.0, 2022-03-26 18:35:03.199
26.0, 549.7017151871696, 72.2754365936853, 786.796412778087, 370.83538995636627, 0.04800000227987766, 0.4800000227987766, 0.944000044837594, 0.0, 0.0, 0.0, 0.0, 0.0, 1.6483377031994712E9, 0.0, 2022-03-26 18:35:03.199
27.0, 548.7704800982028, 66.67306646006182, 776.6126651987433, 370.8578293561004, 0.04800000227987766, 0.4800000227987766, 0.944000044837594, 0.0, 0.0, 0.0, 0.0, 0.0, 1.648337703215223E9, 0.0, 2022-03-26 18:35:03.215
27.0, 551.3846701672301, 68.21764514176175, 784.7020688029006, 385.18538608634844, 0.04800000227987766, 0.4800000227987766, 0.944000044837594, 0.0, 0.0, 0.0, 0.0, 0.0, 1.648337703215223E9, 0.0, 2022-03-26 18:35:03.215
28.0, 544.8174058450386, 59.144647849258035, 769.634011881426, 372.80631723301485, 0.04800000227987766, 0.4800000227987766, 0.944000044837594, 0.0, 0.0, 0.0, 0.0, 0.0, 1.648337703215855E9, 0.0, 2022-03-26 18:35:03.215
28.0, 542.4425693731755, 55.988172286655754, 775.5206144116819, 355.4831006382592, 0.04800000227987766, 0.4800000227987766, 0.944000044837594, 0.0, 0.0, 0.0, 0.0, 0.0, 1.648337703215855E9, 0.0, 2022-03-26 18:35:03.215
29.0, 546.9491488197818, 61.00711802719161, 780.7938733492047, 382.8329890142195, 0.04800000227987766, 0.4800000227987766, 0.944000044837594, 0.0, 0.0, 0.0, 0.0, 0.0, 1.648337703229422E9, 0.0, 2022-03-26 18:35:03.229
29.0, 541.2196220876649, 54.376275405753404, 772.7194293448702, 386.92443956574425, 0.04800000227987766, 0.4800000227987766, 0.944000044837594, 0.0, 0.0, 0.0, 0.0, 0.0, 1.648337703229422E9, 0.0, 2022-03-26 18:35:03.229
30.0, 540.0714728012681, 47.35648318892345, 765.2209299337119, 366.28767161024734, 0.04800000227987766, 0.4800000227987766, 0.9280000440776348, 0.0, 0.0, 0.0, 0.0, 0.0, 1.6483377032451208E9, 0.0, 2022-03-26 18:35:03.245
30.0, 552.8394912499934, 63.550249997060746, 779.6270245630294, 375.4878255012445, 0.04800000227987766, 0.4800000227987766, 0.9280000440776348, 0.0, 0.0, 0.0, 0.0, 0.0, 1.6483377032451208E9, 0.0, 2022-03-26 18:35:03.245
31.0, 557.53680559434, 64.98263168008998, 784.5973516041413, 391.84614790743217, 0.04800000227987766, 0.4800000227987766, 0.9280000440776348, 0.0, 0.0, 0.0, 0.0, 0.0, 1.6483377032458093E9, 0.0, 2022-03-26 18:35:03.245
31.0, 559.694727868773, 62.03933041496202, 774.7202758211643, 384.54586319392547, 0.04800000227987766, 0.4800000227987766, 0.9280000440776348, 0.0, 0.0, 0.0, 0.0, 0.0, 1.6483377032458093E9, 0.0, 2022-03-26 18:35:03.245
32.0, 564.2686255145818, 69.54530962603167, 781.6540503390133, 384.62066119303927, 0.04800000227987766, 0.4800000227987766, 0.9280000440776348, 0.0, 0.0, 0.0, 0.0, 0.0, 1.6483377032594643E9, 0.0, 2022-03-26 18:35:03.259
32.0, 562.7053473331034, 75.18133885925636, 787.7201680671424, 400.0963672096841, 0.04800000227987766, 0.4800000227987766, 0.9280000440776348, 0.0, 0.0, 0.0, 0.0, 0.0, 1.6483377032594643E9, 0.0, 2022-03-26 18:35:03.259
33.0, 556.3774366080761, 71.91266629798338, 789.7060549436137, 391.41605941252783, 0.04800000227987766, 0.4800000227987766, 0.9280000440776348, 0.0, 0.0, 0.0, 0.0, 0.0, 1.6483377032750947E9, 0.0, 2022-03-26 18:35:03.275
33.0, 554.5673250295222, 71.1646863068454, 787.0395062752068, 374.5304111125879, 0.04800000227987766, 0.4800000227987766, 0.9280000440776348, 0.0, 0.0, 0.0, 0.0, 0.0, 1.6483377032750947E9, 0.0, 2022-03-26 18:35:03.275
34.0, 565.4317344008014, 76.06769514875486, 795.7011145725846, 400.0215692105703, 0.04800000227987766, 0.4800000227987766, 0.9280000440776348, 0.0, 0.0, 0.0, 0.0, 0.0, 1.6483377032758195E9, 0.0, 2022-03-26 18:35:03.275
34.0, 560.7232003565878, 70.72337811207399, 789.3619841476902, 393.59268118673936, 0.04800000227987766, 0.4800000227987766, 0.9280000440776348, 0.0, 0.0, 0.0, 0.0, 0.0, 1.6483377032758195E9, 0.0, 2022-03-26 18:35:03.275
35.0, 557.4732272950932, 80.26760279899463, 800.1628152197227, 392.59786779852584, 0.04800000227987766, 0.4800000227987766, 0.9280000440776348, 0.0, 0.0, 0.0, 0.0, 0.0, 1.6483377032894614E9, 0.0, 2022-03-26 18:35:03.289
35.0, 553.6622692402452, 74.18278557108715, 787.7239079670981, 392.0630621048622, 0.04800000227987766, 0.4800000227987766, 0.9280000440776348, 0.0, 0.0, 0.0, 0.0, 0.0, 1.6483377032894614E9, 0.0, 2022-03-26 18:35:03.289
36.0, 558.1838082866743, 70.50646391464397, 804.9237078633159, 401.8840393885039, 0.04800000227987766, 0.4800000227987766, 0.9280000440776348, 0.0, 0.0, 0.0, 0.0, 0.0, 1.6483377033052251E9, 0.0, 2022-03-26 18:35:03.305
36.0, 561.6993142450228, 92.33252005605027, 812.2015531770885, 400.38059960631654, 0.04800000227987766, 0.4800000227987766, 0.9280000440776348, 0.0, 0.0, 0.0, 0.0, 0.0, 1.6483377033052251E9, 0.0, 2022-03-26 18:35:03.305
37.0, 551.7175212632865, 77.47015763213858, 803.8428767761216, 386.99175776494667, 0.04800000227987766, 0.4800000227987766, 0.9280000440776348, 0.0, 0.0, 0.0, 0.0, 0.0, 1.6483377033058271E9, 0.0, 2022-03-26 18:35:03.305
37.0, 563.6216228222474, 99.15783747518435, 823.544669742696, 410.19409709004685, 0.04800000227987766, 0.4800000227987766, 0.9280000440776348, 0.0, 0.0, 0.0, 0.0, 0.0, 1.6483377033058271E9, 0.0, 2022-03-26 18:35:03.305
38.0, 559.851803666912, 110.78892633737996, 835.1121803056449, 405.05173465097323, 0.04800000227987766, 0.4800000227987766, 0.9280000440776348, 0.0, 0.0, 0.0, 0.0, 0.0, 1.6483377033194373E9, 0.0, 2022-03-26 18:35:03.319
38.0, 563.819837519899, 124.14036917919293, 847.4089713599533, 415.15320443129167, 0.04800000227987766, 0.4800000227987766, 0.9280000440776348, 0.0, 0.0, 0.0, 0.0, 0.0, 1.6483377033194373E9, 0.0, 2022-03-26 18:35:03.319
39.0, 569.0108186583966, 138.72971890633926, 866.9312491286546, 418.6313113900833, 0.04800000227987766, 0.4800000227987766, 0.9280000440776348, 0.0, 0.0, 0.0, 0.0, 0.0, 1.6483377033351638E9, 0.0, 2022-03-26 18:35:03.335
39.0, 571.8568825246766, 157.67979198182002, 880.1293560722843, 423.20146913593635, 0.04800000227987766, 0.4800000227987766, 0.9280000440776348, 0.0, 0.0, 0.0, 0.0, 0.0, 1.6483377033351638E9, 0.0, 2022-03-26 18:35:03.335
40.0, 574.3439159952104, 171.7343360153027, 884.1647081244737, 419.34937218157575, 0.04800000227987766, 0.4800000227987766, 0.9120000433176756, 0.0, 0.0, 0.0, 0.0, 0.0, 1.6483377033358712E9, 0.0, 2022-03-26 18:35:03.335
40.0, 575.6491410797462, 181.77970729628578, 906.413372960873, 432.60731752449647, 0.04800000227987766, 0.4800000227987766, 0.9120000433176756, 0.0, 0.0, 0.0, 0.0, 0.0, 1.6483377033358712E9, 0.0, 2022-03-26 18:35:03.335
41.0, 581.0495566157624, 187.83834522450343, 914.2821224676445, 437.5589450658299, 0.04800000227987766, 0.4640000220388174, 0.9120000433176756, 0.0, 0.0, 0.0, 0.0, 0.0, 1.6483377033494625E9, 0.0, 2022-03-26 18:35:03.349
41.0, 579.9986447282135, 192.53191966889426, 911.6679323986173, 415.16442413115874, 0.04800000227987766, 0.4640000220388174, 0.9120000433176756, 0.0, 0.0, 0.0, 0.0, 0.0, 1.6483377033494625E9, 0.0, 2022-03-26 18:35:03.349
42.0, 581.4796451106668, 199.28243908891454, 908.0364895416424, 422.86113823996857, 0.04800000227987766, 0.4640000220388174, 0.9120000433176756, 0.0, 0.0, 0.0, 0.0, 0.0, 1.648337703365168E9, 0.0, 2022-03-26 18:35:03.365
42.0, 592.3964130813256, 204.6753748250194, 921.6235460806638, 449.99037251854315, 0.04800000227987766, 0.4640000220388174, 0.9120000433176756, 0.0, 0.0, 0.0, 0.0, 0.0, 1.648337703365168E9, 0.0, 2022-03-26 18:35:03.365
43.0, 582.695112596266, 206.27979190601036, 909.2743964269757, 437.0054398723878, 0.04800000227987766, 0.4640000220388174, 0.9120000433176756, 0.0, 0.0, 0.0, 0.0, 0.0, 1.6483377033659236E9, 0.0, 2022-03-26 18:35:03.365
43.0, 586.7117651486769, 193.4407153581269, 904.5509027829394, 404.74506285460666, 0.04800000227987766, 0.4640000220388174, 0.9120000433176756, 0.0, 0.0, 0.0, 0.0, 0.0, 1.6483377033659236E9, 0.0, 2022-03-26 18:35:03.365
44.0, 583.5702491858974, 187.2586607313715, 891.0012452434748, 421.4025772572495, 0.04800000227987766, 0.4640000220388174, 0.9120000433176756, 0.0, 0.0, 0.0, 0.0, 0.0, 1.6483377033794832E9, 0.0, 2022-03-26 18:35:03.379
44.0, 582.8970671938732, 176.27083466155455, 896.1623071823269, 430.225001252722, 0.04800000227987766, 0.4640000220388174, 0.9120000433176756, 0.0, 0.0, 0.0, 0.0, 0.0, 1.6483377033794832E9, 0.0, 2022-03-26 18:35:03.379
45.0, 576.1278482740745, 162.9119120198302, 891.1284018419683, 417.94316979823634, 0.04800000227987766, 0.4640000220388174, 0.9120000433176756, 0.0, 0.0, 0.0, 0.0, 0.0, 1.648337703395121E9, 0.0, 2022-03-26 18:35:03.395
45.0, 582.96064549312, 166.24042298039421, 883.5438847318292, 412.954143257346, 0.04800000227987766, 0.4640000220388174, 0.9120000433176756, 0.0, 0.0, 0.0, 0.0, 0.0, 1.648337703395121E9, 0.0, 2022-03-26 18:35:03.395
46.0, 584.5089640747756, 165.0997534939088, 883.5064857322723, 422.6217846428044, 0.04800000227987766, 0.4640000220388174, 0.9120000433176756, 0.0, 0.0, 0.0, 0.0, 0.0, 1.6483377033958693E9, 0.0, 2022-03-26 18:35:03.395
46.0, 579.4002607353032, 150.1251940713264, 874.8149582352489, 416.89973771059886, 0.04800000227987766, 0.4640000220388174, 0.9120000433176756, 0.0, 0.0, 0.0, 0.0, 0.0, 1.6483377033958693E9, 0.0, 2022-03-26 18:35:03.395
47.0, 565.5102722998708, 136.2651248355396, 853.5685865869746, 406.2036238373257, 0.04800000227987766, 0.4640000220388174, 0.9120000433176756, 0.0, 0.0, 0.0, 0.0, 0.0, 1.6483377034094052E9, 0.0, 2022-03-26 18:35:03.409
47.0, 567.8103107726201, 126.21227375464514, 848.2055700505152, 414.00505514489487, 0.04800000227987766, 0.4640000220388174, 0.9120000433176756, 0.0, 0.0, 0.0, 0.0, 0.0, 1.6483377034094052E9, 0.0, 2022-03-26 18:35:03.409
48.0, 563.5131657235324, 119.60387053294107, 846.8405065666884, 403.59691356820986, 0.04800000227987766, 0.4640000220388174, 0.9120000433176756, 0.0, 0.0, 0.0, 0.0, 0.0, 1.6483377034251637E9, 0.0, 2022-03-26 18:35:03.425
48.0, 558.8046316793188, 104.73776820907369, 834.8877863083035, 392.3846935010515, 0.04800000227987766, 0.4640000220388174, 0.9120000433176756, 0.0, 0.0, 0.0, 0.0, 0.0, 1.6483377034251637E9, 0.0, 2022-03-26 18:35:03.425
49.0, 568.6106493631378, 103.97108871815726, 826.8470014035702, 388.69715214474127, 0.04800000227987766, 0.4640000220388174, 0.9120000433176756, 0.0, 0.0, 0.0, 0.0, 0.0, 1.648337703425861E9, 0.0, 2022-03-26 18:35:03.425
49.0, 564.470580112189, 101.28210065001622, 822.5835154540837, 387.62754075741395, 0.04800000227987766, 0.4640000220388174, 0.9120000433176756, 0.0, 0.0, 0.0, 0.0, 0.0, 1.648337703425861E9, 0.0, 2022-03-26 18:35:03.425
50.0, 563.6814612215385, 95.38427841989323, 816.3266628282145, 393.18503209156916, 0.04800000227987766, 0.4640000220388174, 0.9120000433176756, 0.0, 0.0, 0.0, 0.0, 0.0, 1.6483377034393911E9, 0.0, 2022-03-26 18:35:03.439
50.0, 560.5324654588476, 86.31128112738952, 806.539344644174, 375.4466866017319, 0.04800000227987766, 0.4640000220388174, 0.9120000433176756, 0.0, 0.0, 0.0, 0.0, 0.0, 1.6483377034393911E9, 0.0, 2022-03-26 18:35:03.439
51.0, 555.8463708143681, 83.31188136292621, 804.9237078633159, 386.00068427668884, 0.04800000227987766, 0.4640000220388174, 0.9120000433176756, 0.0, 0.0, 0.0, 0.0, 0.0, 1.6483377034551845E9, 0.0, 2022-03-26 18:35:03.455
51.0, 559.2421999741346, 68.41211993945763, 796.250879866071, 380.824662738014, 0.04800000227987766, 0.4640000220388174, 0.9120000433176756, 0.0, 0.0, 0.0, 0.0, 0.0, 1.6483377034551845E9, 0.0, 2022-03-26 18:35:03.455
52.0, 557.7425000919029, 65.86150816967711, 793.8723034942523, 391.29638261394575, 0.04800000227987766, 0.4640000220388174, 0.9120000433176756, 0.0, 0.0, 0.0, 0.0, 0.0, 1.6483377034558945E9, 0.0, 2022-03-26 18:35:03.455
52.0, 555.9473481131718, 60.07214303826913, 790.8953431295231, 386.22133837407455, 0.04800000227987766, 0.4640000220388174, 0.9120000433176756, 0.0, 0.0, 0.0, 0.0, 0.0, 1.6483377034558945E9, 0.0, 2022-03-26 18:35:03.455
53.0, 559.9864400653169, 61.82989601744339, 789.2497871490195, 389.51619023503736, 0.04800000227987766, 0.4640000220388174, 0.9120000433176756, 0.0, 0.0, 0.0, 0.0, 0.0, 1.648337703469407E9, 0.0, 2022-03-26 18:35:03.469
53.0, 556.7738660033792, 59.00253165094182, 787.5892715686932, 371.80402404488996, 0.04800000227987766, 0.4640000220388174, 0.9120000433176756, 0.0, 0.0, 0.0, 0.0, 0.0, 1.648337703469407E9, 0.0, 2022-03-26 18:35:03.469
54.0, 560.4801068594679, 58.68090025475249, 785.5435462929308, 382.272004020866, 0.04800000227987766, 0.4640000220388174, 0.9120000433176756, 0.0, 0.0, 0.0, 0.0, 0.0, 1.6483377034851055E9, 0.0, 2022-03-26 18:35:03.485
54.0, 566.6958205858245, 58.85667555266991, 792.9036694057286, 401.8316807891242, 0.04800000227987766, 0.4640000220388174, 0.9120000433176756, 0.0, 0.0, 0.0, 0.0, 0.0, 1.6483377034851055E9, 0.0, 2022-03-26 18:35:03.485
55.0, 565.0091257058084, 58.59114265581593, 790.655989532359, 396.37890665372834, 0.04800000227987766, 0.4640000220388174, 0.9120000433176756, 0.0, 0.0, 0.0, 0.0, 0.0, 1.6483377034858532E9, 0.0, 2022-03-26 18:35:03.485
55.0, 562.2004608390853, 62.24502491252497, 789.1039310507476, 391.498337211553, 0.04800000227987766, 0.4640000220388174, 0.9120000433176756, 0.0, 0.0, 0.0, 0.0, 0.0, 1.6483377034858532E9, 0.0, 2022-03-26 18:35:03.485
56.0, 561.0036928532645, 59.32790294708684, 785.5846851924434, 403.3874791706912, 0.04800000227987766, 0.4640000220388174, 0.9120000433176756, 0.0, 0.0, 0.0, 0.0, 0.0, 1.6483377034995196E9, 0.0, 2022-03-26 18:35:03.499
56.0, 564.8071711082011, 62.31608301168308, 785.2106951968744, 400.62743300339207, 0.04800000227987766, 0.4640000220388174, 0.9120000433176756, 0.0, 0.0, 0.0, 0.0, 0.0, 1.6483377034995196E9, 0.0, 2022-03-26 18:35:03.499
57.0, 560.4165285602212, 55.958253087010235, 778.3217994784936, 383.8951206016354, 0.04800000227987766, 0.4640000220388174, 0.9120000433176756, 0.0, 0.0, 0.0, 0.0, 0.0, 1.6483377035151315E9, 0.0, 2022-03-26 18:35:03.515
57.0, 570.5516574401408, 62.357221911195666, 786.3925035828725, 402.6469789794646, 0.04800000227987766, 0.4640000220388174, 0.9120000433176756, 0.0, 0.0, 0.0, 0.0, 0.0, 1.6483377035151315E9, 0.0, 2022-03-26 18:35:03.515
58.0, 564.4257013127208, 58.96513265138492, 783.8493716130033, 397.6168135390617, 0.04800000227987766, 0.4640000220388174, 0.9120000433176756, 0.0, 0.0, 0.0, 0.0, 0.0, 1.648337703515841E9, 0.0, 2022-03-26 18:35:03.515
58.0, 560.2669325619936, 61.538183820899576, 778.5387136759236, 397.3512806422077, 0.04800000227987766, 0.4640000220388174, 0.9120000433176756, 0.0, 0.0, 0.0, 0.0, 0.0, 1.648337703515841E9, 0.0, 2022-03-26 18:35:03.515
59.0, 557.6377828931436, 49.61912266211584, 778.1011453811079, 387.7210382563062, 0.04800000227987766, 0.4640000220388174, 0.9120000433176756, 0.0, 0.0, 0.0, 0.0, 0.0, 1.6483377035294461E9, 0.0, 2022-03-26 18:35:03.529
59.0, 558.767232679762, 53.72179291350767, 784.4066167064011, 401.3941124943085, 0.04800000227987766, 0.4640000220388174, 0.9120000433176756, 0.0, 0.0, 0.0, 0.0, 0.0, 1.6483377035294461E9, 0.0, 2022-03-26 18:35:03.529
60.0, 557.862176890485, 61.50826462125406, 788.6813223557547, 398.9444780233316, 0.04800000227987766, 0.4640000220388174, 0.9120000433176756, 0.0, 0.0, 0.0, 0.0, 0.0, 1.6483377035451355E9, 0.0, 2022-03-26 18:35:03.545
60.0, 553.3331580441445, 58.789357353467494, 792.3052854128182, 401.0575214982964, 0.04800000227987766, 0.4640000220388174, 0.9120000433176756, 0.0, 0.0, 0.0, 0.0, 0.0, 1.6483377035451355E9, 0.0, 2022-03-26 18:35:03.545
61.0, 555.7453935155645, 50.24368595471606, 787.8548044655472, 401.5511882924475, 0.04800000227987766, 0.4800000227987766, 0.9120000433176756, 0.0, 0.0, 0.0, 0.0, 0.0, 1.6483377035458827E9, 0.0, 2022-03-26 18:35:03.545
61.0, 548.8116189977154, 45.66230850899592, 780.5208606524393, 392.22761770291254, 0.04800000227987766, 0.4800000227987766, 0.9120000433176756, 0.0, 0.0, 0.0, 0.0, 0.0, 1.6483377035458827E9, 0.0, 2022-03-26 18:35:03.545
62.0, 553.0788448471576, 48.78886487195268, 786.1980287851766, 396.93615174712613, -0.01600000075995922, 0.4800000227987766, 0.9120000433176756, 0.0, 0.0, 0.0, 0.0, 0.0, 1.6483377035594435E9, 0.0, 2022-03-26 18:35:03.559
62.0, 552.2822461565956, 42.35249704821035, 782.0280403345823, 398.4582910290919, -0.01600000075995922, 0.4800000227987766, 0.9120000433176756, 0.0, 0.0, 0.0, 0.0, 0.0, 1.6483377035594435E9, 0.0, 2022-03-26 18:35:03.559
63.0, 548.4451088020578, 38.89682948915288, 773.5571669349447, 383.40145380748436, -0.01600000075995922, 0.4800000227987766, 0.9120000433176756, 0.0, 0.0, 0.0, 0.0, 0.0, 1.6483377035751088E9, 0.0, 2022-03-26 18:35:03.575
63.0, 552.2448471570387, 47.838930283207446, 785.408909894526, 397.9795838347636, -0.01600000075995922, 0.4800000227987766, 0.9120000433176756, 0.0, 0.0, 0.0, 0.0, 0.0, 1.6483377035751088E9, 0.0, 2022-03-26 18:35:03.575
64.0, 556.3475174084306, 44.83953051874414, 788.3073323601857, 405.45564384618774, -0.01600000075995922, 0.4800000227987766, 0.9120000433176756, 0.0, 0.0, 0.0, 0.0, 0.0, 1.6483377035758276E9, 0.0, 2022-03-26 18:35:03.575
64.0, 552.4505416546017, 41.484840258490294, 785.7791599901393, 404.00082276342437, -0.01600000075995922, 0.4800000227987766, 0.9120000433176756, 0.0, 0.0, 0.0, 0.0, 0.0, 1.6483377035758276E9, 0.0, 2022-03-26 18:35:03.575
65.0, 551.6427232641727, 44.244886425789446, 782.3833308303729, 390.92987241828814, -0.01600000075995922, 0.4800000227987766, 0.9120000433176756, 0.0, 0.0, 0.0, 0.0, 0.0, 1.6483377035894568E9, 0.0, 2022-03-26 18:35:03.589
65.0, 551.0256397714838, 44.48797992290929, 781.8447852367535, 373.5019386247732, -0.01600000075995922, 0.4800000227987766, 0.9120000433176756, 0.0, 0.0, 0.0, 0.0, 0.0, 1.6483377035894568E9, 0.0, 2022-03-26 18:35:03.589
66.0, 554.6122038289905, 47.506079187151045, 778.3105797786266, 391.0607689167373, -0.01600000075995922, 0.4800000227987766, 0.9120000433176756, 0.0, 0.0, 0.0, 0.0, 0.0, 1.648337703605104E9, 0.0, 2022-03-26 18:35:03.605
66.0, 548.0524193067104, 43.006979540456086, 780.3413454545662, 387.5714422580786, -0.01600000075995922, 0.4800000227987766, 0.9120000433176756, 0.0, 0.0, 0.0, 0.0, 0.0, 1.648337703605104E9, 0.0, 2022-03-26 18:35:03.605
67.0, 550.6516497759148, 44.263585925567895, 783.3557048188522, 387.85567465471104, -0.01600000075995922, 0.4800000227987766, 0.9120000433176756, 0.0, 0.0, 0.0, 0.0, 0.0, 1.6483377036057937E9, 0.0, 2022-03-26 18:35:03.605
67.0, 550.9620614722371, 46.241993002127856, 781.0033077467233, 399.9430313115008, -0.01600000075995922, 0.4800000227987766, 0.9120000433176756, 0.0, 0.0, 0.0, 0.0, 0.0, 1.6483377036057937E9, 0.0, 2022-03-26 18:35:03.605
68.0, 558.247386585921, 51.19736044341698, 786.1269706860185, 389.3927735364996, -0.01600000075995922, 0.4800000227987766, 0.9120000433176756, 0.0, 0.0, 0.0, 0.0, 0.0, 1.6483377036194656E9, 0.0, 2022-03-26 18:35:03.619
68.0, 552.8768902495503, 43.6689418326132, 783.1799295209348, 390.0622156285681, -0.01600000075995922, 0.4800000227987766, 0.9120000433176756, 0.0, 0.0, 0.0, 0.0, 0.0, 1.6483377036194656E9, 0.0, 2022-03-26 18:35:03.619
69.0, 557.9668940892443, 45.20230081444606, 778.3629383780062, 391.41605941252783, -0.01600000075995922, 0.4800000227987766, 0.9120000433176756, 0.0, 0.0, 0.0, 0.0, 0.0, 1.6483377036514578E9, 0.0, 2022-03-26 18:35:03.651
69.0, 563.9245547186583, 49.465786763932556, 783.6100180158392, 399.8345742127858, -0.01600000075995922, 0.4800000227987766, 0.9120000433176756, 0.0, 0.0, 0.0, 0.0, 0.0, 1.6483377036514578E9, 0.0, 2022-03-26 18:35:03.651
70.0, 553.8118652384728, 46.713220396544784, 785.831518589519, 392.7699031964876, -0.01600000075995922, 0.4800000227987766, 0.944000044837594, 0.0, 0.0, 0.0, 0.0, 0.0, 1.6483377036521685E9, 0.0, 2022-03-26 18:35:03.652
70.0, 546.4255628259853, 53.897568211425096, 788.0604989631101, 394.78570927260444, -0.01600000075995922, 0.4800000227987766, 0.944000044837594, 0.0, 0.0, 0.0, 0.0, 0.0, 1.6483377036521685E9, 0.0, 2022-03-26 18:35:03.652
71.0, 552.4243623549119, 43.53430543420836, 785.0872784983367, 403.2154437727295, -0.01600000075995922, 0.43200002051889896, 0.944000044837594, 0.0, 0.0, 0.0, 0.0, 0.0, 1.648337703652953E9, 0.0, 2022-03-26 18:35:03.652
71.0, 547.1660630172119, 42.88356284191832, 784.8067860016599, 387.8743741544895, -0.01600000075995922, 0.43200002051889896, 0.944000044837594, 0.0, 0.0, 0.0, 0.0, 0.0, 1.648337703652953E9, 0.0, 2022-03-26 18:35:03.652
72.0, 544.3012996511534, 37.28119270829484, 783.3407452190295, 386.56166927004233, -0.03200000151991844, 0.43200002051889896, 0.944000044837594, 0.0, 0.0, 0.0, 0.0, 0.0, 1.6483377036537292E9, 0.0, 2022-03-26 18:35:03.653
72.0, 552.6487563522533, 50.99166594585404, 795.3196447771043, 406.34574003564194, -0.03200000151991844, 0.43200002051889896, 0.944000044837594, 0.0, 0.0, 0.0, 0.0, 0.0, 1.6483377036537292E9, 0.0, 2022-03-26 18:35:03.653
73.0, 550.9583215722814, 48.687887573149055, 792.4324420113117, 403.93724446417764, -0.03200000151991844, 0.43200002051889896, 0.944000044837594, 0.0, 0.0, 0.0, 0.0, 0.0, 1.6483377036643655E9, 0.0, 2022-03-26 18:35:03.664
