%OpenBCI Raw EEG Data
%Number of channels = 4
%Sample Rate = 200 Hz
%Board = OpenBCI_GUI$BoardGanglionBLE
Sample Index, EXG Channel 0, EXG Channel 1, EXG Channel 2, EXG Channel 3, Accel Channel 0, Accel Channel 1, Accel Channel 2, Other, Other, Other, Other, Other, Timestamp, Other, Timestamp (Formatted)
0.0, 1173.8610985921696, 986.4921108121052, 781.7812069375068, 1710.1721019879915, 0.0, 0.0, 0.0, 0.0, 0.0, 0.0, 0.0, 0.0, 1.6450616009478233E9, 0.0, 2022-02-16 19:33:20.947
1.0, 1133.6272548688576, 997.0199291873723, 782.2075555324554, 1554.7007209300064, 0.0, 0.06400000303983688, 0.0, 0.0, 0.0, 0.0, 0.0, 0.0, 1.6450616009610567E9, 0.0, 2022-02-16 19:33:20.961
1.0, 1167.6042459663004, 1018.576712531969, 793.3075786009431, 1479.8765425165184, 0.0, 0.06400000303983688, 0.0, 0.0, 0.0, 0.0, 0.0, 0.0, 1.6450616009610567E9, 0.0, 2022-02-16 19:33:20.961
2.0, 1148.8636072883382, 998.6729649677873, 782.3683712305501, 1562.9920791317709, 0.09600000455975533, 0.06400000303983688, 0.0, 0.0, 0.0, 0.0, 0.0, 0.0, 1.6450616009778852E9, 0.0, 2022-02-16 19:33:20.977
2.0, 997.506116181612, 993.0780746340752, 787.5855316687375, 1553.0626447494142, 0.09600000455975533, 0.06400000303983688, 0.0, 0.0, 0.0, 0.0, 0.0, 0.0, 1.6450616009778852E9, 0.0, 2022-02-16 19:33:20.977
3.0, 1080.7787285950035, 1023.4909410737455, 799.0445851329714, 1567.2219059816562, 0.09600000455975533, 0.06400000303983688, 0.0, 0.0, 0.0, 0.0, 0.0, 0.0, 1.645061600978608E9, 0.0, 2022-02-16 19:33:20.978
3.0, 1125.3620759667829, 1006.8184670712799, 789.4293023468927, 1606.9620829108171, 0.09600000455975533, 0.06400000303983688, 0.0, 0.0, 0.0, 0.0, 0.0, 0.0, 1.645061600978608E9, 0.0, 2022-02-16 19:33:20.978
4.0, 1156.02925560344, 997.6931111793965, 774.4958818238229, 1584.9602514714934, 0.09600000455975533, 0.06400000303983688, 0.0, 0.0, 0.0, 0.0, 0.0, 0.0, 1.6450616009910235E9, 0.0, 2022-02-16 19:33:20.991
4.0, 1217.4571123756468, 1016.0298406621441, 776.2985136024654, 1512.8475005258806, 0.09600000455975533, 0.06400000303983688, 0.0, 0.0, 0.0, 0.0, 0.0, 0.0, 1.6450616009910235E9, 0.0, 2022-02-16 19:33:20.991
5.0, 1086.8897251226008, 1004.6568048968911, 789.2572669489309, 1436.4413444311358, 0.09600000455975533, 0.06400000303983688, 0.0, 0.0, 0.0, 0.0, 0.0, 0.0, 1.6450616010066657E9, 0.0, 2022-02-16 19:33:21.006
5.0, 1105.1179975066334, 992.1206602454185, 788.6626228559762, 1510.4726640540175, 0.09600000455975533, 0.06400000303983688, 0.0, 0.0, 0.0, 0.0, 0.0, 0.0, 1.6450616010066657E9, 0.0, 2022-02-16 19:33:21.006
6.0, 1089.709609689191, 1019.4406294217333, 795.4842003751546, 1457.6503170798533, 0.09600000455975533, 0.06400000303983688, 0.0, 0.0, 0.0, 0.0, 0.0, 0.0, 1.6450616010073104E9, 0.0, 2022-02-16 19:33:21.007
6.0, 1169.706069741398, 1006.0031688809395, 789.0665320511907, 1486.9337337329052, 0.09600000455975533, 0.06400000303983688, 0.0, 0.0, 0.0, 0.0, 0.0, 0.0, 1.6450616010073104E9, 0.0, 2022-02-16 19:33:21.007
7.0, 1128.5821298286319, 992.0608218461275, 783.961568611674, 1593.1768116741441, 0.09600000455975533, 0.06400000303983688, 0.0, 0.0, 0.0, 0.0, 0.0, 0.0, 1.6450616010208433E9, 0.0, 2022-02-16 19:33:21.020
7.0, 1134.5958889573812, 1006.57537357416, 777.098852192983, 1676.6177195855416, 0.09600000455975533, 0.06400000303983688, 0.0, 0.0, 0.0, 0.0, 0.0, 0.0, 1.6450616010208433E9, 0.0, 2022-02-16 19:33:21.020
8.0, 1065.1833457797766, 1013.4231303930283, 791.089817927219, 1457.459582182113, 0.09600000455975533, 0.06400000303983688, 0.0, 0.0, 0.0, 0.0, 0.0, 0.0, 1.6450616010368092E9, 0.0, 2022-02-16 19:33:21.036
8.0, 1110.0845846477896, 999.3536267597228, 781.115504745394, 1412.2741109174676, 0.09600000455975533, 0.06400000303983688, 0.0, 0.0, 0.0, 0.0, 0.0, 0.0, 1.6450616010368092E9, 0.0, 2022-02-16 19:33:21.036
9.0, 1122.6282090991735, 1008.8529726471752, 777.1250314926729, 1571.7434450280853, 0.09600000455975533, 0.06400000303983688, 0.0, 0.0, 0.0, 0.0, 0.0, 0.0, 1.645061601037294E9, 0.0, 2022-02-16 19:33:21.037
9.0, 1278.6680549504235, 1015.7979668648914, 789.2647467488423, 1500.0533027774654, 0.09600000455975533, 0.06400000303983688, 0.0, 0.0, 0.0, 0.0, 0.0, 0.0, 1.645061601037294E9, 0.0, 2022-02-16 19:33:21.037
10.0, 1191.958474477753, 1009.2007833430544, 781.0220072465017, 1489.518004602287, 0.09600000455975533, 0.06400000303983688, 1.008000047877431, 0.0, 0.0, 0.0, 0.0, 0.0, 1.645061601050835E9, 0.0, 2022-02-16 19:33:21.050
10.0, 1046.461406601593, 990.9500715592876, 770.0977594759315, 1478.5488780322485, 0.09600000455975533, 0.06400000303983688, 1.008000047877431, 0.0, 0.0, 0.0, 0.0, 0.0, 1.645061601050835E9, 0.0, 2022-02-16 19:33:21.050
11.0, 1071.7655697017908, 1002.0313951279968, 778.8678248720244, 1555.549678219948, 0.09600000455975533, 0.03200000151991844, 1.008000047877431, 0.0, 0.0, 0.0, 0.0, 0.0, 1.6450616010663493E9, 0.0, 2022-02-16 19:33:21.066
11.0, 1134.1844999622554, 1007.0166817689314, 781.6690099388361, 1472.669755301904, 0.09600000455975533, 0.03200000151991844, 1.008000047877431, 0.0, 0.0, 0.0, 0.0, 0.0, 1.6450616010663493E9, 0.0, 2022-02-16 19:33:21.066
12.0, 1076.1375127499923, 990.3367279665545, 765.2658087331802, 1594.9570040530525, 0.04800000227987766, 0.03200000151991844, 1.008000047877431, 0.0, 0.0, 0.0, 0.0, 0.0, 1.6450616010825922E9, 0.0, 2022-02-16 19:33:21.082
12.0, 1128.4774126298726, 1005.756335483864, 777.6261780867353, 1645.9131409493275, 0.04800000227987766, 0.03200000151991844, 1.008000047877431, 0.0, 0.0, 0.0, 0.0, 0.0, 1.6450616010825922E9, 0.0, 2022-02-16 19:33:21.082
13.0, 1191.3376510851085, 1006.3023608773947, 777.9216301832348, 1767.3551723104902, 0.04800000227987766, 0.03200000151991844, 1.008000047877431, 0.0, 0.0, 0.0, 0.0, 0.0, 1.645061601082653E9, 0.0, 2022-02-16 19:33:21.082
13.0, 1225.7260311776772, 976.1961662340909, 755.366293550469, 1884.960066317115, 0.04800000227987766, 0.03200000151991844, 1.008000047877431, 0.0, 0.0, 0.0, 0.0, 0.0, 1.645061601082653E9, 0.0, 2022-02-16 19:33:21.082
14.0, 1306.2984358230606, 972.5796829769388, 756.5256625367329, 2003.2643216154538, 0.04800000227987766, 0.03200000151991844, 1.008000047877431, 0.0, 0.0, 0.0, 0.0, 0.0, 1.6450616010966153E9, 0.0, 2022-02-16 19:33:21.096
14.0, 1307.3007290111855, 990.2020915681496, 768.8785520903766, 1944.6339100101031, 0.04800000227987766, 0.03200000151991844, 1.008000047877431, 0.0, 0.0, 0.0, 0.0, 0.0, 1.6450616010966153E9, 0.0, 2022-02-16 19:33:21.096
15.0, 1367.5654768971726, 1007.2448156662285, 761.6156663764268, 1896.6135945790447, 0.04800000227987766, 0.03200000151991844, 1.008000047877431, 0.0, 0.0, 0.0, 0.0, 0.0, 1.645061601097272E9, 0.0, 2022-02-16 19:33:21.097
15.0, 1347.456034835428, 986.9595983065665, 755.1568591529503, 1798.6244758400135, 0.04800000227987766, 0.03200000151991844, 1.008000047877431, 0.0, 0.0, 0.0, 0.0, 0.0, 1.645061601097272E9, 0.0, 2022-02-16 19:33:21.097
16.0, 1348.1254769274965, 992.1430996451527, 757.464377425611, 1602.1712710675783, 0.04800000227987766, 0.03200000151991844, 1.008000047877431, 0.0, 0.0, 0.0, 0.0, 0.0, 1.6450616011109185E9, 0.0, 2022-02-16 19:33:21.110
16.0, 1264.3517179200426, 1010.1768972314894, 757.3970592264086, 1665.1941951708868, 0.04800000227987766, 0.03200000151991844, 1.008000047877431, 0.0, 0.0, 0.0, 0.0, 0.0, 1.6450616011109185E9, 0.0, 2022-02-16 19:33:21.110
17.0, 1287.7223527431488, 1008.9801292456686, 755.5158895486966, 1630.5515018813312, 0.04800000227987766, 0.03200000151991844, 1.008000047877431, 0.0, 0.0, 0.0, 0.0, 0.0, 1.645061601126665E9, 0.0, 2022-02-16 19:33:21.126
17.0, 1255.0879857297987, 991.0809680577368, 749.4535117205232, 1714.1158264912665, 0.04800000227987766, 0.03200000151991844, 1.008000047877431, 0.0, 0.0, 0.0, 0.0, 0.0, 1.645061601126665E9, 0.0, 2022-02-16 19:33:21.126
18.0, 1191.31895158533, 1006.092926479876, 762.9021919611841, 1774.9340795706958, 0.04800000227987766, 0.03200000151991844, 1.008000047877431, 0.0, 0.0, 0.0, 0.0, 0.0, 1.6450616011273143E9, 0.0, 2022-02-16 19:33:21.127
18.0, 1139.7681705961004, 995.5052697053179, 745.6724728653207, 1665.4784275675192, 0.04800000227987766, 0.03200000151991844, 1.008000047877431, 0.0, 0.0, 0.0, 0.0, 0.0, 1.6450616011273143E9, 0.0, 2022-02-16 19:33:21.127
19.0, 1152.6857850430533, 1002.813034218736, 771.5600603586063, 1768.961459341459, 0.04800000227987766, 0.03200000151991844, 1.008000047877431, 0.0, 0.0, 0.0, 0.0, 0.0, 1.645061601140957E9, 0.0, 2022-02-16 19:33:21.140
19.0, 1191.8238380793482, 1031.3896097801626, 785.6445235917345, 1865.6303933961317, 0.04800000227987766, 0.03200000151991844, 1.008000047877431, 0.0, 0.0, 0.0, 0.0, 0.0, 1.645061601140957E9, 0.0, 2022-02-16 19:33:21.140
20.0, 1125.975419559516, 1029.1494097067043, 784.4739349056035, 1865.3648604992777, 0.04800000227987766, 0.03200000151991844, 0.5120000243186951, 0.0, 0.0, 0.0, 0.0, 0.0, 1.64506160115673E9, 0.0, 2022-02-16 19:33:21.156
20.0, 1095.715889018029, 1021.8603446930647, 776.616405098699, 1892.3669381793588, 0.04800000227987766, 0.03200000151991844, 0.5120000243186951, 0.0, 0.0, 0.0, 0.0, 0.0, 1.64506160115673E9, 0.0, 2022-02-16 19:33:21.156
21.0, 1142.5394364632666, 995.0789211103693, 776.1638772040606, 2062.936295358464, 0.04800000227987766, 0.04800000227987766, 0.5120000243186951, 0.0, 0.0, 0.0, 0.0, 0.0, 1.6450616011572924E9, 0.0, 2022-02-16 19:33:21.157
21.0, 1184.564692265354, 1005.3786055883393, 767.6331654051319, 1962.8004740448669, 0.04800000227987766, 0.04800000227987766, 0.5120000243186951, 0.0, 0.0, 0.0, 0.0, 0.0, 1.6450616011572924E9, 0.0, 2022-02-16 19:33:21.157
22.0, 1198.8847691956908, 1013.7447617892176, 765.3742658318952, 1935.6899392660707, 0.0800000037997961, 0.04800000227987766, 0.5120000243186951, 0.0, 0.0, 0.0, 0.0, 0.0, 1.645061601170928E9, 0.0, 2022-02-16 19:33:21.170
22.0, 999.5593212572858, 1009.8777052350342, 774.084492828697, 1964.0757799297571, 0.0800000037997961, 0.04800000227987766, 0.5120000243186951, 0.0, 0.0, 0.0, 0.0, 0.0, 1.645061601170928E9, 0.0, 2022-02-16 19:33:21.170
23.0, 1116.1993210753426, 1015.6969895660877, 764.375712543726, 2071.4557874575257, 0.0800000037997961, 0.04800000227987766, 0.5120000243186951, 0.0, 0.0, 0.0, 0.0, 0.0, 1.6450616011865656E9, 0.0, 2022-02-16 19:33:21.186
23.0, 1132.4342267829925, 1012.5891327029094, 758.0478018186986, 1977.6777960686013, 0.0800000037997961, 0.04800000227987766, 0.5120000243186951, 0.0, 0.0, 0.0, 0.0, 0.0, 1.6450616011865656E9, 0.0, 2022-02-16 19:33:21.186
24.0, 1201.4054617658257, 1009.4812758397311, 750.6614994062111, 1980.3742639366537, 0.0800000037997961, 0.04800000227987766, 0.5120000243186951, 0.0, 0.0, 0.0, 0.0, 0.0, 1.6450616011873193E9, 0.0, 2022-02-16 19:33:21.187
24.0, 1038.3981822971255, 1004.0135421045125, 755.9048391440883, 1894.4500624546781, 0.0800000037997961, 0.04800000227987766, 0.5120000243186951, 0.0, 0.0, 0.0, 0.0, 0.0, 1.6450616011873193E9, 0.0, 2022-02-16 19:33:21.187
25.0, 1033.0912642600015, 1017.1331111490726, 764.9703566366807, 2014.8449218282476, 0.0800000037997961, 0.04800000227987766, 0.5120000243186951, 0.0, 0.0, 0.0, 0.0, 0.0, 1.6450616012008228E9, 0.0, 2022-02-16 19:33:21.200
25.0, 1127.9313872363418, 1004.2154967021197, 757.6364128235728, 2114.1317858519033, 0.0800000037997961, 0.04800000227987766, 0.5120000243186951, 0.0, 0.0, 0.0, 0.0, 0.0, 1.6450616012008228E9, 0.0, 2022-02-16 19:33:21.200
26.0, 1146.7730032131076, 990.4676244650036, 754.4986367607489, 2008.905960698612, 0.0800000037997961, 0.04800000227987766, 0.5120000243186951, 0.0, 0.0, 0.0, 0.0, 0.0, 1.6450616012165952E9, 0.0, 2022-02-16 19:33:21.216
26.0, 1080.4084784993902, 1000.5204755458981, 757.3970592264086, 2029.7185039520264, 0.0800000037997961, 0.04800000227987766, 0.5120000243186951, 0.0, 0.0, 0.0, 0.0, 0.0, 1.6450616012165952E9, 0.0, 2022-02-16 19:33:21.216
27.0, 1069.9442384233698, 1012.4806756041944, 753.1522727767006, 1939.2391043240204, 0.0800000037997961, 0.04800000227987766, 0.5120000243186951, 0.0, 0.0, 0.0, 0.0, 0.0, 1.645061601217362E9, 0.0, 2022-02-16 19:33:21.217
27.0, 1134.0498635638505, 992.8611604366452, 750.3922266094014, 2108.155425722711, 0.0800000037997961, 0.04800000227987766, 0.5120000243186951, 0.0, 0.0, 0.0, 0.0, 0.0, 1.645061601217362E9, 0.0, 2022-02-16 19:33:21.217
28.0, 1151.5937342559919, 1023.4572819741443, 773.8451392315328, 1931.2282386189327, 0.0800000037997961, 0.04800000227987766, 0.5120000243186951, 0.0, 0.0, 0.0, 0.0, 0.0, 1.6450616012308848E9, 0.0, 2022-02-16 19:33:21.230
28.0, 1056.9742653770372, 1017.9222300397232, 764.7534424392506, 1968.0288541829214, 0.0800000037997961, 0.04800000227987766, 0.5120000243186951, 0.0, 0.0, 0.0, 0.0, 0.0, 1.6450616012308848E9, 0.0, 2022-02-16 19:33:21.230
29.0, 1130.9345269007608, 1003.344100012444, 744.4682250795886, 2001.6617744844407, 0.0800000037997961, 0.04800000227987766, 0.5120000243186951, 0.0, 0.0, 0.0, 0.0, 0.0, 1.6450616012466512E9, 0.0, 2022-02-16 19:33:21.246
29.0, 1082.7459159716964, 999.0768741630018, 754.2106644641608, 2015.9033135157079, 0.0800000037997961, 0.04800000227987766, 0.5120000243186951, 0.0, 0.0, 0.0, 0.0, 0.0, 1.6450616012466512E9, 0.0, 2022-02-16 19:33:21.246
30.0, 1218.8969738585874, 1013.8046001885086, 777.6860164860263, 2003.3185501648113, 0.0800000037997961, 0.04800000227987766, 0.7520000357180834, 0.0, 0.0, 0.0, 0.0, 0.0, 1.6450616012472675E9, 0.0, 2022-02-16 19:33:21.247
30.0, 1135.901114041917, 1001.4778899345547, 767.7752816034481, 2183.761243226938, 0.0800000037997961, 0.04800000227987766, 0.7520000357180834, 0.0, 0.0, 0.0, 0.0, 0.0, 1.6450616012472675E9, 0.0, 2022-02-16 19:33:21.247
31.0, 1087.4955889154226, 1039.0863238889724, 782.3982904301956, 2423.2176876398735, 0.0800000037997961, 0.06400000303983688, 0.7520000357180834, 0.0, 0.0, 0.0, 0.0, 0.0, 1.6450616012608373E9, 0.0, 2022-02-16 19:33:21.260
31.0, 1157.5663544852287, 1037.1191365122795, 784.5973516041413, 2458.8103155181743, 0.0800000037997961, 0.06400000303983688, 0.7520000357180834, 0.0, 0.0, 0.0, 0.0, 0.0, 1.6450616012608373E9, 0.0, 2022-02-16 19:33:21.260
32.0, 1069.9404985234141, 1015.1696636723354, 774.892311219126, 2566.3735781437717, 0.0800000037997961, 0.06400000303983688, 0.7520000357180834, 0.0, 0.0, 0.0, 0.0, 0.0, 1.645061601277172E9, 0.0, 2022-02-16 19:33:21.277
32.0, 1138.3582283128053, 1018.5542731322348, 772.6633308455348, 2541.346167640295, 0.0800000037997961, 0.06400000303983688, 0.7520000357180834, 0.0, 0.0, 0.0, 0.0, 0.0, 1.645061601277172E9, 0.0, 2022-02-16 19:33:21.277
33.0, 1074.5517951687798, 1030.3760968921706, 776.2611146029085, 2503.786352385301, 0.0800000037997961, 0.06400000303983688, 0.7520000357180834, 0.0, 0.0, 0.0, 0.0, 0.0, 1.6450616012775013E9, 0.0, 2022-02-16 19:33:21.277
33.0, 1116.4536342723295, 1030.9557813853025, 759.3754663029686, 2524.120188444387, 0.0800000037997961, 0.06400000303983688, 0.7520000357180834, 0.0, 0.0, 0.0, 0.0, 0.0, 1.6450616012775013E9, 0.0, 2022-02-16 19:33:21.277
34.0, 1033.0875243600458, 1013.4605293925852, 760.2506028926, 2544.3642669045366, 0.0800000037997961, 0.06400000303983688, 0.7520000357180834, 0.0, 0.0, 0.0, 0.0, 0.0, 1.6450616012908082E9, 0.0, 2022-02-16 19:33:21.290
34.0, 1054.4610526068136, 1019.3134728232399, 763.3584597557783, 2498.382196949329, 0.0800000037997961, 0.06400000303983688, 0.7520000357180834, 0.0, 0.0, 0.0, 0.0, 0.0, 1.6450616012908082E9, 0.0, 2022-02-16 19:33:21.290
35.0, 1119.8906023316085, 1013.9654158866033, 764.5739272413775, 2604.9917850862257, 0.0800000037997961, 0.06400000303983688, 0.7520000357180834, 0.0, 0.0, 0.0, 0.0, 0.0, 1.6450616013062644E9, 0.0, 2022-02-16 19:33:21.306
35.0, 1179.7103021228686, 1025.813418946229, 757.9393447199836, 2685.586629131343, 0.0800000037997961, 0.06400000303983688, 0.7520000357180834, 0.0, 0.0, 0.0, 0.0, 0.0, 1.6450616013062644E9, 0.0, 2022-02-16 19:33:21.306
36.0, 1140.3179358895868, 1023.786393170245, 763.9381442489102, 2564.0398805714212, 0.0800000037997961, 0.06400000303983688, 0.7520000357180834, 0.0, 0.0, 0.0, 0.0, 0.0, 1.6450616013216207E9, 0.0, 2022-02-16 19:33:21.321
36.0, 1074.9070856645703, 1010.8351196236908, 766.8290869146585, 2644.42529021902, 0.0800000037997961, 0.06400000303983688, 0.7520000357180834, 0.0, 0.0, 0.0, 0.0, 0.0, 1.6450616013216207E9, 0.0, 2022-02-16 19:33:21.321
37.0, 1165.9586899857968, 992.3113951431587, 760.7255701869726, 2595.268045201432, 0.0800000037997961, 0.06400000303983688, 0.7520000357180834, 0.0, 0.0, 0.0, 0.0, 0.0, 1.645061601322378E9, 0.0, 2022-02-16 19:33:21.322
37.0, 1208.3317564837635, 1013.4044308932498, 759.9327113963664, 2612.2210117005743, 0.0800000037997961, 0.06400000303983688, 0.7520000357180834, 0.0, 0.0, 0.0, 0.0, 0.0, 1.645061601322378E9, 0.0, 2022-02-16 19:33:21.322
38.0, 1122.3177974028513, 1033.5587517544627, 779.7093023620546, 2517.1340553271584, 0.0800000037997961, 0.06400000303983688, 0.7520000357180834, 0.0, 0.0, 0.0, 0.0, 0.0, 1.6450616013366427E9, 0.0, 2022-02-16 19:33:21.336
38.0, 1100.757274158299, 1017.4697021450847, 758.2011377168819, 2668.585043932777, 0.0800000037997961, 0.06400000303983688, 0.7520000357180834, 0.0, 0.0, 0.0, 0.0, 0.0, 1.6450616013366427E9, 0.0, 2022-02-16 19:33:21.336
39.0, 1092.013388061896, 1002.0837537273765, 756.9594909315929, 2645.5285607059486, 0.0800000037997961, 0.06400000303983688, 0.7520000357180834, 0.0, 0.0, 0.0, 0.0, 0.0, 1.6450616013372936E9, 0.0, 2022-02-16 19:33:21.337
39.0, 1026.2659468408674, 1040.8253773683682, 771.6535578574985, 2428.34883037908, 0.0800000037997961, 0.06400000303983688, 0.7520000357180834, 0.0, 0.0, 0.0, 0.0, 0.0, 1.6450616013372936E9, 0.0, 2022-02-16 19:33:21.337
40.0, 1089.6535111898556, 1016.0036613624543, 755.0035232547671, 2524.266044542659, 0.0800000037997961, 0.06400000303983688, 0.8800000417977571, 0.0, 0.0, 0.0, 0.0, 0.0, 1.645061601350865E9, 0.0, 2022-02-16 19:33:21.350
40.0, 1163.4192979158834, 1003.2281631138176, 752.9129191795364, 2565.9173103491776, 0.0800000037997961, 0.06400000303983688, 0.8800000417977571, 0.0, 0.0, 0.0, 0.0, 0.0, 1.645061601350865E9, 0.0, 2022-02-16 19:33:21.350
41.0, 1170.7046230295673, 1001.2385363373905, 752.5464089838788, 2573.6738628572784, 0.0800000037997961, 0.06400000303983688, 0.8800000417977571, 0.0, 0.0, 0.0, 0.0, 0.0, 1.6450616013667362E9, 0.0, 2022-02-16 19:33:21.366
41.0, 1130.5044384058565, 1024.0182669674978, 769.3348198849708, 2417.1366103119217, 0.0800000037997961, 0.06400000303983688, 0.8800000417977571, 0.0, 0.0, 0.0, 0.0, 0.0, 1.6450616013667362E9, 0.0, 2022-02-16 19:33:21.366
42.0, 1081.436950987205, 1031.023099584505, 771.0551738645881, 2474.5702539314516, 0.09600000455975533, 0.06400000303983688, 0.8800000417977571, 0.0, 0.0, 0.0, 0.0, 0.0, 1.6450616013677607E9, 0.0, 2022-02-16 19:33:21.367
42.0, 1088.142591607757, 1026.512780237943, 767.0235617123544, 2495.6670295814984, 0.09600000455975533, 0.06400000303983688, 0.8800000417977571, 0.0, 0.0, 0.0, 0.0, 0.0, 1.6450616013677607E9, 0.0, 2022-02-16 19:33:21.367
43.0, 1091.6730571659282, 1033.966400849633, 769.8958048783243, 2407.4427896267734, 0.09600000455975533, 0.06400000303983688, 0.8800000417977571, 0.0, 0.0, 0.0, 0.0, 0.0, 1.6450616013808868E9, 0.0, 2022-02-16 19:33:21.380
43.0, 1209.0909561747685, 1015.1210449729115, 766.630872217007, 2346.2729859515093, 0.09600000455975533, 0.06400000303983688, 0.8800000417977571, 0.0, 0.0, 0.0, 0.0, 0.0, 1.6450616013808868E9, 0.0, 2022-02-16 19:33:21.380
44.0, 1239.8591131102294, 1008.2471088543534, 770.1127190757543, 2280.162774434779, 0.09600000455975533, 0.06400000303983688, 0.8800000417977571, 0.0, 0.0, 0.0, 0.0, 0.0, 1.6450616013966131E9, 0.0, 2022-02-16 19:33:21.396
44.0, 1070.991410410963, 1034.4413681440055, 775.6328114103526, 2342.0281995018013, 0.09600000455975533, 0.06400000303983688, 0.8800000417977571, 0.0, 0.0, 0.0, 0.0, 0.0, 1.6450616013966131E9, 0.0, 2022-02-16 19:33:21.396
45.0, 1042.4110949495807, 1030.0769048957154, 766.2980211209506, 2565.5694996532984, 0.09600000455975533, 0.06400000303983688, 0.8800000417977571, 0.0, 0.0, 0.0, 0.0, 0.0, 1.6450616013972986E9, 0.0, 2022-02-16 19:33:21.397
45.0, 1078.6881245197728, 1021.04878640268, 752.2584366872907, 2717.3739088047296, 0.09600000455975533, 0.06400000303983688, 0.8800000417977571, 0.0, 0.0, 0.0, 0.0, 0.0, 1.6450616013972986E9, 0.0, 2022-02-16 19:33:21.397
46.0, 1046.4427071018144, 1015.0125878741965, 761.8251007739455, 2631.9508539168164, 0.09600000455975533, 0.06400000303983688, 0.8800000417977571, 0.0, 0.0, 0.0, 0.0, 0.0, 1.6450616014109285E9, 0.0, 2022-02-16 19:33:21.410
46.0, 1153.9947500275448, 1004.211756802164, 752.4529114849865, 2732.0156171312556, 0.09600000455975533, 0.06400000303983688, 0.8800000417977571, 0.0, 0.0, 0.0, 0.0, 0.0, 1.6450616014109285E9, 0.0, 2022-02-16 19:33:21.410
47.0, 1186.4309023432434, 1017.7838537413627, 762.3786059673876, 2751.6014731992036, 0.09600000455975533, 0.06400000303983688, 0.8800000417977571, 0.0, 0.0, 0.0, 0.0, 0.0, 1.645061601426577E9, 0.0, 2022-02-16 19:33:21.426
47.0, 1088.153811307624, 1036.1168433241546, 769.3273400850594, 2742.865066902712, 0.09600000455975533, 0.06400000303983688, 0.8800000417977571, 0.0, 0.0, 0.0, 0.0, 0.0, 1.645061601426577E9, 0.0, 2022-02-16 19:33:21.426
48.0, 1015.6633304664865, 1042.2091403519735, 780.210448956117, 2723.6793801300228, 0.09600000455975533, 0.06400000303983688, 0.8800000417977571, 0.0, 0.0, 0.0, 0.0, 0.0, 1.6450616014273512E9, 0.0, 2022-02-16 19:33:21.427
48.0, 1024.0968048665673, 1030.443415091373, 759.7008375991136, 2639.9355403222144, 0.09600000455975533, 0.06400000303983688, 0.8800000417977571, 0.0, 0.0, 0.0, 0.0, 0.0, 1.6450616014273512E9, 0.0, 2022-02-16 19:33:21.427
49.0, 1166.7964275758713, 1004.1930573023856, 732.5155048212036, 2742.479857207276, 0.09600000455975533, 0.06400000303983688, 0.8800000417977571, 0.0, 0.0, 0.0, 0.0, 0.0, 1.645061601440856E9, 0.0, 2022-02-16 19:33:21.440
49.0, 1066.3875935655087, 1006.2911411775276, 744.6888791769743, 2691.0711924163625, 0.09600000455975533, 0.06400000303983688, 0.8800000417977571, 0.0, 0.0, 0.0, 0.0, 0.0, 1.645061601440856E9, 0.0, 2022-02-16 19:33:21.440
50.0, 1103.375204127282, 994.5777745163068, 744.0194370849058, 2700.9033893998712, 0.09600000455975533, 0.06400000303983688, 0.944000044837594, 0.0, 0.0, 0.0, 0.0, 0.0, 1.6450616014566088E9, 0.0, 2022-02-16 19:33:21.456
50.0, 1142.427239464596, 1009.6682708375156, 732.8782751169056, 2772.4289760524407, 0.09600000455975533, 0.06400000303983688, 0.944000044837594, 0.0, 0.0, 0.0, 0.0, 0.0, 1.6450616014566088E9, 0.0, 2022-02-16 19:33:21.456
51.0, 1100.4655619617552, 991.5821146517992, 753.1934116762131, 2754.107206169516, 0.09600000455975533, 0.0800000037997961, 0.944000044837594, 0.0, 0.0, 0.0, 0.0, 0.0, 1.6450616014573228E9, 0.0, 2022-02-16 19:33:21.457
51.0, 1066.443692064844, 999.0469549633563, 741.4501258153468, 2708.446767610498, 0.09600000455975533, 0.0800000037997961, 0.944000044837594, 0.0, 0.0, 0.0, 0.0, 0.0, 1.6450616014573228E9, 0.0, 2022-02-16 19:33:21.457
52.0, 1147.7042383020744, 1006.1602446790785, 741.8315956108272, 2778.3043588828295, 0.09600000455975533, 0.0800000037997961, 0.944000044837594, 0.0, 0.0, 0.0, 0.0, 0.0, 1.6450616014708908E9, 0.0, 2022-02-16 19:33:21.470
52.0, 1095.3157197227702, 1022.9860545797274, 742.9685251973569, 2716.6521081132814, 0.09600000455975533, 0.0800000037997961, 0.944000044837594, 0.0, 0.0, 0.0, 0.0, 0.0, 1.6450616014708908E9, 0.0, 2022-02-16 19:33:21.470
53.0, 1139.375481100753, 1038.3570433976129, 747.056235848926, 2640.3469293173403, 0.09600000455975533, 0.0800000037997961, 0.944000044837594, 0.0, 0.0, 0.0, 0.0, 0.0, 1.6450616014866784E9, 0.0, 2022-02-16 19:33:21.486
53.0, 1078.7666624188423, 1016.5160276563838, 738.3385290522128, 2736.1295070825145, 0.09600000455975533, 0.0800000037997961, 0.944000044837594, 0.0, 0.0, 0.0, 0.0, 0.0, 1.6450616014866784E9, 0.0, 2022-02-16 19:33:21.486
54.0, 1128.5409909291193, 1014.6423377785832, 726.2062935959548, 2798.4437201442197, 0.09600000455975533, 0.0800000037997961, 0.944000044837594, 0.0, 0.0, 0.0, 0.0, 0.0, 1.6450616014874673E9, 0.0, 2022-02-16 19:33:21.487
54.0, 1105.761260299012, 1028.1358968187124, 733.1438080137596, 2689.952962329611, 0.09600000455975533, 0.0800000037997961, 0.944000044837594, 0.0, 0.0, 0.0, 0.0, 0.0, 1.6450616014874673E9, 0.0, 2022-02-16 19:33:21.487
55.0, 1167.4621297679842, 1027.7693866230547, 742.5197372026742, 2808.354455026798, 0.09600000455975533, 0.0800000037997961, 0.944000044837594, 0.0, 0.0, 0.0, 0.0, 0.0, 1.645061601500854E9, 0.0, 2022-02-16 19:33:21.500
55.0, 1115.350363785401, 997.0984670864418, 724.0034925220534, 2680.8537857374176, 0.09600000455975533, 0.0800000037997961, 0.944000044837594, 0.0, 0.0, 0.0, 0.0, 0.0, 1.645061601500854E9, 0.0, 2022-02-16 19:33:21.500
56.0, 1049.6291018640622, 1008.8230534475297, 726.9019149877131, 2750.8572331080213, 0.09600000455975533, 0.0800000037997961, 0.944000044837594, 0.0, 0.0, 0.0, 0.0, 0.0, 1.6450616015167544E9, 0.0, 2022-02-16 19:33:21.516
56.0, 1101.5987516483292, 1020.5513797085732, 727.5451777800918, 2674.1257057171315, 0.09600000455975533, 0.0800000037997961, 0.944000044837594, 0.0, 0.0, 0.0, 0.0, 0.0, 1.6450616015167544E9, 0.0, 2022-02-16 19:33:21.516
57.0, 1080.8273472944275, 990.9276321595535, 736.9697256684303, 2767.92613650579, 0.09600000455975533, 0.0800000037997961, 0.944000044837594, 0.0, 0.0, 0.0, 0.0, 0.0, 1.6450616015176544E9, 0.0, 2022-02-16 19:33:21.517
57.0, 1106.1651694942266, 1005.6740576848388, 739.2398449415341, 2791.3528698282316, 0.09600000455975533, 0.0800000037997961, 0.944000044837594, 0.0, 0.0, 0.0, 0.0, 0.0, 1.6450616015176544E9, 0.0, 2022-02-16 19:33:21.517
58.0, 1119.7335265334696, 1033.4166355561465, 746.2558972584084, 2638.6078758379444, 0.09600000455975533, 0.0800000037997961, 0.944000044837594, 0.0, 0.0, 0.0, 0.0, 0.0, 1.6450616015309083E9, 0.0, 2022-02-16 19:33:21.530
58.0, 1155.5767277088016, 1019.0068010268733, 729.1682943608612, 2702.3731700824574, 0.09600000455975533, 0.0800000037997961, 0.944000044837594, 0.0, 0.0, 0.0, 0.0, 0.0, 1.6450616015309083E9, 0.0, 2022-02-16 19:33:21.530
59.0, 1132.8643152778968, 1010.9847156219184, 725.4508338049054, 2736.6231738766655, 0.09600000455975533, 0.0800000037997961, 0.944000044837594, 0.0, 0.0, 0.0, 0.0, 0.0, 1.6450616015468605E9, 0.0, 2022-02-16 19:33:21.546
59.0, 1084.402691652067, 1022.9972742795944, 746.633627153933, 2734.966398196295, 0.09600000455975533, 0.0800000037997961, 0.944000044837594, 0.0, 0.0, 0.0, 0.0, 0.0, 1.6450616015468605E9, 0.0, 2022-02-16 19:33:21.546
60.0, 1055.5755427936092, 1003.7480092076585, 734.2321189008653, 2781.5505920443684, 0.09600000455975533, 0.0800000037997961, 0.9760000463575125, 0.0, 0.0, 0.0, 0.0, 0.0, 1.6450616015474868E9, 0.0, 2022-02-16 19:33:21.547
60.0, 1052.2395520331338, 1013.5615066913888, 721.6136964503676, 2732.857094621286, 0.09600000455975533, 0.0800000037997961, 0.9760000463575125, 0.0, 0.0, 0.0, 0.0, 0.0, 1.6450616015474868E9, 0.0, 2022-02-16 19:33:21.547
61.0, 1148.227824295871, 1003.6732112085447, 728.6746275667101, 2741.129753323272, 0.09600000455975533, 0.06400000303983688, 0.9760000463575125, 0.0, 0.0, 0.0, 0.0, 0.0, 1.6450616015609784E9, 0.0, 2022-02-16 19:33:21.560
61.0, 1111.5655850302428, 1012.8920645993203, 740.4366129273549, 2683.2435818091035, 0.09600000455975533, 0.06400000303983688, 0.9760000463575125, 0.0, 0.0, 0.0, 0.0, 0.0, 1.6450616015609784E9, 0.0, 2022-02-16 19:33:21.560
62.0, 1049.692680163309, 1024.7662469586357, 721.8343505477533, 2685.9699688768014, 0.09600000455975533, 0.06400000303983688, 0.9760000463575125, 0.0, 0.0, 0.0, 0.0, 0.0, 1.6450616015766149E9, 0.0, 2022-02-16 19:33:21.576
62.0, 1149.046862386167, 1014.9377898750827, 710.9662012765184, 2782.1527159372345, 0.09600000455975533, 0.06400000303983688, 0.9760000463575125, 0.0, 0.0, 0.0, 0.0, 0.0, 1.6450616015766149E9, 0.0, 2022-02-16 19:33:21.576
63.0, 1187.5005137305707, 1016.018620962277, 722.7917649364099, 2742.251723309979, 0.09600000455975533, 0.06400000303983688, 0.9760000463575125, 0.0, 0.0, 0.0, 0.0, 0.0, 1.6450616015773005E9, 0.0, 2022-02-16 19:33:21.577
63.0, 1127.2806446440518, 994.7759892139584, 733.7272324068472, 2669.31993427407, 0.09600000455975533, 0.06400000303983688, 0.9760000463575125, 0.0, 0.0, 0.0, 0.0, 0.0, 1.6450616015773005E9, 0.0, 2022-02-16 19:33:21.577
64.0, 1047.2393057923764, 1022.3278321875259, 734.6248083962128, 2733.6200342122465, 0.09600000455975533, 0.06400000303983688, 0.9760000463575125, 0.0, 0.0, 0.0, 0.0, 0.0, 1.645061601606356E9, 0.0, 2022-02-16 19:33:21.606
64.0, 1226.0252231741324, 1031.890756374225, 738.5030846502632, 2671.2459827512503, 0.09600000455975533, 0.06400000303983688, 0.9760000463575125, 0.0, 0.0, 0.0, 0.0, 0.0, 1.645061601606356E9, 0.0, 2022-02-16 19:33:21.606
65.0, 1034.302991845645, 1026.6287171365693, 740.5226306263357, 2642.254278294742, 0.09600000455975533, 0.06400000303983688, 0.9760000463575125, 0.0, 0.0, 0.0, 0.0, 0.0, 1.6450616016222978E9, 0.0, 2022-02-16 19:33:21.622
65.0, 1053.600875617005, 1013.0678398972377, 734.60984879639, 2675.1766176046804, 0.09600000455975533, 0.06400000303983688, 0.9760000463575125, 0.0, 0.0, 0.0, 0.0, 0.0, 1.6450616016222978E9, 0.0, 2022-02-16 19:33:21.622
66.0, 1003.4076783116907, 1017.4622223451734, 737.179160065949, 2661.9560712613165, 0.09600000455975533, 0.06400000303983688, 0.9760000463575125, 0.0, 0.0, 0.0, 0.0, 0.0, 1.6450616016227348E9, 0.0, 2022-02-16 19:33:21.622
66.0, 1048.2902176799253, 1027.8703639218584, 732.6651008194312, 2737.389853367582, 0.09600000455975533, 0.06400000303983688, 0.9760000463575125, 0.0, 0.0, 0.0, 0.0, 0.0, 1.6450616016227348E9, 0.0, 2022-02-16 19:33:21.622
67.0, 1037.1752350116149, 1016.8862777519971, 729.1869938606396, 2740.583727929741, 0.09600000455975533, 0.06400000303983688, 0.9760000463575125, 0.0, 0.0, 0.0, 0.0, 0.0, 1.6450616016373096E9, 0.0, 2022-02-16 19:33:21.637
67.0, 1157.6448923842981, 1014.9228302752599, 727.4554201811552, 2572.8379952171817, 0.09600000455975533, 0.06400000303983688, 0.9760000463575125, 0.0, 0.0, 0.0, 0.0, 0.0, 1.6450616016373096E9, 0.0, 2022-02-16 19:33:21.637
68.0, 1017.6454774430022, 1020.843091905117, 734.3181365998462, 2667.58462069463, 0.09600000455975533, 0.06400000303983688, 0.9760000463575125, 0.0, 0.0, 0.0, 0.0, 0.0, 1.6450616016380088E9, 0.0, 2022-02-16 19:33:21.638
68.0, 1047.99102568347, 1009.0437075449154, 724.4448007168248, 2734.577448600903, 0.09600000455975533, 0.06400000303983688, 0.9760000463575125, 0.0, 0.0, 0.0, 0.0, 0.0, 1.6450616016380088E9, 0.0, 2022-02-16 19:33:21.638
69.0, 1129.2253926210105, 1014.8068933766335, 726.3932885937393, 2734.1511000059545, 0.09600000455975533, 0.06400000303983688, 0.9760000463575125, 0.0, 0.0, 0.0, 0.0, 0.0, 1.6450616016387637E9, 0.0, 2022-02-16 19:33:21.638
69.0, 1053.4288402190432, 1015.5698329675943, 717.4698872994632, 2702.1450361851603, 0.09600000455975533, 0.06400000303983688, 0.9760000463575125, 0.0, 0.0, 0.0, 0.0, 0.0, 1.6450616016387637E9, 0.0, 2022-02-16 19:33:21.638
70.0, 1121.2220067158341, 1025.824638646096, 733.850649105385, 2678.3966714665294, 0.09600000455975533, 0.06400000303983688, 0.9920000471174717, 0.0, 0.0, 0.0, 0.0, 0.0, 1.6450616016508844E9, 0.0, 2022-02-16 19:33:21.650
70.0, 1074.5293557690457, 1028.334111516364, 743.8025228874758, 2647.6434741308913, 0.09600000455975533, 0.06400000303983688, 0.9920000471174717, 0.0, 0.0, 0.0, 0.0, 0.0, 1.6450616016508844E9, 0.0, 2022-02-16 19:33:21.650
71.0, 1023.8574512694031, 1026.0826917430386, 749.2216379232705, 2721.4242204567418, 0.09600000455975533, 0.0800000037997961, 0.9920000471174717, 0.0, 0.0, 0.0, 0.0, 0.0, 1.6450616016665494E9, 0.0, 2022-02-16 19:33:21.666
71.0, 1024.9906409559771, 1023.6367971720174, 743.7165051884949, 2593.8263137685135, 0.09600000455975533, 0.0800000037997961, 0.9920000471174717, 0.0, 0.0, 0.0, 0.0, 0.0, 1.6450616016665494E9, 0.0, 2022-02-16 19:33:21.666
72.0, 1089.3804984930903, 1019.6949426187202, 731.401014634408, 2675.2701151035726, 0.09600000455975533, 0.0800000037997961, 0.9920000471174717, 0.0, 0.0, 0.0, 0.0, 0.0, 1.64506160166727E9, 0.0, 2022-02-16 19:33:21.667
72.0, 1094.3059467347339, 1021.8715643929318, 729.4338272577152, 2661.5446822661906, 0.09600000455975533, 0.0800000037997961, 0.9920000471174717, 0.0, 0.0, 0.0, 0.0, 0.0, 1.64506160166727E9, 0.0, 2022-02-16 19:33:21.667
73.0, 1124.3672625785694, 1021.7406678944826, 737.033303967677, 2627.3432971714064, 0.09600000455975533, 0.0800000037997961, 0.9920000471174717, 0.0, 0.0, 0.0, 0.0, 0.0, 1.645061601680935E9, 0.0, 2022-02-16 19:33:21.680
73.0, 1149.506870080717, 1010.6967433253303, 735.8963743811473, 2691.4115233123302, 0.09600000455975533, 0.0800000037997961, 0.9920000471174717, 0.0, 0.0, 0.0, 0.0, 0.0, 1.645061601680935E9, 0.0, 2022-02-16 19:33:21.680
74.0, 1108.3717104680836, 1009.7729880362749, 726.0866167973727, 2674.2827815152705, 0.09600000455975533, 0.0800000037997961, 0.9920000471174717, 0.0, 0.0, 0.0, 0.0, 0.0, 1.6450616016965933E9, 0.0, 2022-02-16 19:33:21.696
74.0, 969.6737807113677, 1009.6794905373827, 732.4668861217797, 2690.8767176186666, 0.09600000455975533, 0.0800000037997961, 0.9920000471174717, 0.0, 0.0, 0.0, 0.0, 0.0, 1.6450616016965933E9, 0.0, 2022-02-16 19:33:21.696
75.0, 1047.9648463837802, 1010.9772358220071, 741.6034617135301, 2596.3470063386485, 0.09600000455975533, 0.0800000037997961, 0.9920000471174717, 0.0, 0.0, 0.0, 0.0, 0.0, 1.6450616016972349E9, 0.0, 2022-02-16 19:33:21.697
75.0, 1056.506777882576, 1010.4760892279446, 719.328617577441, 2651.8994802804664, 0.09600000455975533, 0.0800000037997961, 0.9920000471174717, 0.0, 0.0, 0.0, 0.0, 0.0, 1.6450616016972349E9, 0.0, 2022-02-16 19:33:21.697
76.0, 986.8249619081616, 1003.0112489163876, 718.5507183866575, 2609.402997083962, 0.09600000455975533, 0.0800000037997961, 0.9920000471174717, 0.0, 0.0, 0.0, 0.0, 0.0, 1.6450616017110393E9, 0.0, 2022-02-16 19:33:21.711
76.0, 1044.8046309212223, 1023.5956582725048, 729.4076479580253, 2658.874393697828, 0.09600000455975533, 0.0800000037997961, 0.9920000471174717, 0.0, 0.0, 0.0, 0.0, 0.0, 1.6450616017110393E9, 0.0, 2022-02-16 19:33:21.711
77.0, 1077.528755533509, 1015.8166663646698, 724.0670708213001, 2789.718533547595, 0.09600000455975533, 0.0800000037997961, 0.9920000471174717, 0.0, 0.0, 0.0, 0.0, 0.0, 1.645061601726718E9, 0.0, 2022-02-16 19:33:21.726
77.0, 999.8472935538739, 1000.8720261417329, 723.9623536225408, 2656.955825020559, 0.09600000455975533, 0.0800000037997961, 0.9920000471174717, 0.0, 0.0, 0.0, 0.0, 0.0, 1.645061601726718E9, 0.0, 2022-02-16 19:33:21.726
78.0, 1107.848124474287, 1009.312980341725, 721.4977595517412, 2743.444751395844, 0.09600000455975533, 0.0800000037997961, 0.9920000471174717, 0.0, 0.0, 0.0, 0.0, 0.0, 1.6450616017272873E9, 0.0, 2022-02-16 19:33:21.727
78.0, 1065.5797751750797, 1012.7237691013142, 730.4286406459287, 2606.4073372194543, 0.09600000455975533, 0.0800000037997961, 0.9920000471174717, 0.0, 0.0, 0.0, 0.0, 0.0, 1.6450616017272873E9, 0.0, 2022-02-16 19:33:21.727
79.0, 1133.7244922677055, 1026.1126109426841, 725.7350662015378, 2575.6990186832845, 0.09600000455975533, 0.0800000037997961, 0.9920000471174717, 0.0, 0.0, 0.0, 0.0, 0.0, 1.6450616017408695E9, 0.0, 2022-02-16 19:33:21.740
79.0, 1051.2559583447874, 1016.0859391614795, 724.9983059102669, 2671.2085837516934, 0.09600000455975533, 0.0800000037997961, 0.9920000471174717, 0.0, 0.0, 0.0, 0.0, 0.0, 1.6450616017408695E9, 0.0, 2022-02-16 19:33:21.740
80.0, 1044.651295023039, 1015.6221915669739, 717.653142397292, 2730.5420965487137, 0.09600000455975533, 0.0800000037997961, 1.008000047877431, 0.0, 0.0, 0.0, 0.0, 0.0, 1.6450616017566936E9, 0.0, 2022-02-16 19:33:21.756
80.0, 1049.5804831646383, 1009.7916875360534, 720.4655471639708, 2695.2711000666022, 0.09600000455975533, 0.0800000037997961, 1.008000047877431, 0.0, 0.0, 0.0, 0.0, 0.0, 1.6450616017566936E9, 0.0, 2022-02-16 19:33:21.756
81.0, 1065.8378282720223, 1029.7851926991716, 731.8610223289579, 2646.0353171499446, 0.09600000455975533, 0.06400000303983688, 1.008000047877431, 0.0, 0.0, 0.0, 0.0, 0.0, 1.64506160175728E9, 0.0, 2022-02-16 19:33:21.757
81.0, 1131.5329108936712, 1027.4627148266882, 735.3840080872178, 2593.553301071748, 0.09600000455975533, 0.06400000303983688, 1.008000047877431, 0.0, 0.0, 0.0, 0.0, 0.0, 1.64506160175728E9, 0.0, 2022-02-16 19:33:21.757
82.0, 1066.4623915646225, 1019.5266471207142, 737.5120111620054, 2635.9562867693603, 0.09600000455975533, 0.06400000303983688, 1.008000047877431, 0.0, 0.0, 0.0, 0.0, 0.0, 1.645061601770923E9, 0.0, 2022-02-16 19:33:21.770
82.0, 1040.7804985689, 1015.9363431632519, 723.6930808257312, 2659.854247486219, 0.09600000455975533, 0.06400000303983688, 1.008000047877431, 0.0, 0.0, 0.0, 0.0, 0.0, 1.645061601770923E9, 0.0, 2022-02-16 19:33:21.770
83.0, 1107.197381881997, 1014.2384285833687, 728.4016148699448, 2704.654509055428, 0.09600000455975533, 0.06400000303983688, 1.008000047877431, 0.0, 0.0, 0.0, 0.0, 0.0, 1.6450616017867408E9, 0.0, 2022-02-16 19:33:21.786
83.0, 929.5895329862833, 1014.5451003797352, 716.1983213145286, 2706.696494431235, 0.09600000455975533, 0.06400000303983688, 1.008000047877431, 0.0, 0.0, 0.0, 0.0, 0.0, 1.6450616017867408E9, 0.0, 2022-02-16 19:33:21.786
84.0, 1019.395750622265, 1002.5288018221036, 705.423669542186, 2737.449691766873, 0.09600000455975533, 0.06400000303983688, 1.008000047877431, 0.0, 0.0, 0.0, 0.0, 0.0, 1.6450616017872677E9, 0.0, 2022-02-16 19:33:21.787
84.0, 1013.2922338945791, 1032.2984054693952, 726.3072708947584, 2621.5427123401314, 0.09600000455975533, 0.06400000303983688, 1.008000047877431, 0.0, 0.0, 0.0, 0.0, 0.0, 1.6450616017872677E9, 0.0, 2022-02-16 19:33:21.787
85.0, 1156.7211370952427, 1021.5125339971855, 720.9891331577674, 2664.641319429502, 0.09600000455975533, 0.06400000303983688, 1.008000047877431, 0.0, 0.0, 0.0, 0.0, 0.0, 1.6450616018008752E9, 0.0, 2022-02-16 19:33:21.800
85.0, 1014.2272088835016, 1004.0060623046011, 705.2142351446673, 2756.141711745411, 0.09600000455975533, 0.06400000303983688, 1.008000047877431, 0.0, 0.0, 0.0, 0.0, 0.0, 1.6450616018008752E9, 0.0, 2022-02-16 19:33:21.800
86.0, 1025.824638646096, 988.5303562879562, 723.3078711302951, 2618.266559978947, 0.09600000455975533, 0.06400000303983688, 1.008000047877431, 0.0, 0.0, 0.0, 0.0, 0.0, 1.6450616018165505E9, 0.0, 2022-02-16 19:33:21.816
86.0, 1000.3073012484238, 1022.5896251844242, 740.3618149282411, 2483.211292779073, 0.09600000455975533, 0.06400000303983688, 1.008000047877431, 0.0, 0.0, 0.0, 0.0, 0.0, 1.6450616018165505E9, 0.0, 2022-02-16 19:33:21.816
87.0, 1039.9502407787368, 1039.9278013790026, 731.5618303325027, 2675.808660697192, 0.09600000455975533, 0.06400000303983688, 1.008000047877431, 0.0, 0.0, 0.0, 0.0, 0.0, 1.6450616018173268E9, 0.0, 2022-02-16 19:33:21.817
87.0, 1041.442460861057, 1027.657189624384, 740.6871862243861, 2666.3242744095623, 0.09600000455975533, 0.06400000303983688, 1.008000047877431, 0.0, 0.0, 0.0, 0.0, 0.0, 1.6450616018173268E9, 0.0, 2022-02-16 19:33:21.817
88.0, 991.765369749628, 1046.9288940960541, 749.143100024201, 2883.094485691283, 0.09600000455975533, 0.06400000303983688, 1.008000047877431, 0.0, 0.0, 0.0, 0.0, 0.0, 1.64506160183088E9, 0.0, 2022-02-16 19:33:21.830
88.0, 1041.1619683643803, 1014.8629918759689, 741.7941966112703, 3049.591091818642, 0.09600000455975533, 0.06400000303983688, 1.008000047877431, 0.0, 0.0, 0.0, 0.0, 0.0, 1.64506160183088E9, 0.0, 2022-02-16 19:33:21.830
89.0, 1026.3519645398483, 1002.9439307171851, 730.6156356437132, 3091.765943618957, 0.09600000455975533, 0.06400000303983688, 1.008000047877431, 0.0, 0.0, 0.0, 0.0, 0.0, 1.6450616018467069E9, 0.0, 2022-02-16 19:33:21.846
89.0, 1019.650063819252, 1012.3235998060554, 735.4513262864202, 3135.627490299288, 0.09600000455975533, 0.06400000303983688, 1.008000047877431, 0.0, 0.0, 0.0, 0.0, 0.0, 1.6450616018467069E9, 0.0, 2022-02-16 19:33:21.846
90.0, 1022.0548194907606, 1017.3500253465027, 723.2517726309597, 3155.2694448665716, 0.09600000455975533, 0.06400000303983688, 1.008000047877431, 0.0, 0.0, 0.0, 0.0, 0.0, 1.6450616018473265E9, 0.0, 2022-02-16 19:33:21.847
90.0, 1076.0066162515432, 1011.5943193146959, 719.3398372773081, 3019.0361091806553, 0.09600000455975533, 0.06400000303983688, 1.008000047877431, 0.0, 0.0, 0.0, 0.0, 0.0, 1.6450616018473265E9, 0.0, 2022-02-16 19:33:21.847
91.0, 966.4275475498289, 1019.50420772098, 736.6667937720194, 3013.3140622484498, 0.09600000455975533, 0.06400000303983688, 1.008000047877431, 0.0, 0.0, 0.0, 0.0, 0.0, 1.6450616018936112E9, 0.0, 2022-02-16 19:33:21.893
91.0, 932.3047003541142, 1032.0403523724526, 744.4121265802532, 3086.133654285688, 0.09600000455975533, 0.06400000303983688, 1.008000047877431, 0.0, 0.0, 0.0, 0.0, 0.0, 1.6450616018936112E9, 0.0, 2022-02-16 19:33:21.893
92.0, 1036.786285416223, 1010.2442154306918, 723.4462474286556, 3197.489175466355, 0.09600000455975533, 0.06400000303983688, 1.008000047877431, 0.0, 0.0, 0.0, 0.0, 0.0, 1.6450616018943932E9, 0.0, 2022-02-16 19:33:21.894
92.0, 930.292634177953, 1004.634365497157, 729.3590292586014, 3062.7144007631578, 0.09600000455975533, 0.06400000303983688, 1.008000047877431, 0.0, 0.0, 0.0, 0.0, 0.0, 1.6450616018943932E9, 0.0, 2022-02-16 19:33:21.894
93.0, 1004.7727417955175, 1023.4797213738784, 740.9115802217275, 3021.160372355487, 0.09600000455975533, 0.06400000303983688, 1.008000047877431, 0.0, 0.0, 0.0, 0.0, 0.0, 1.6450616018950913E9, 0.0, 2022-02-16 19:33:21.895
93.0, 1016.4449695572257, 1031.1053773835301, 738.035597155802, 3064.846143737901, 0.09600000455975533, 0.06400000303983688, 1.008000047877431, 0.0, 0.0, 0.0, 0.0, 0.0, 1.6450616018950913E9, 0.0, 2022-02-16 19:33:21.895
94.0, 1061.017097229138, 996.9937498876825, 722.0774440448731, 3179.432938480284, 0.09600000455975533, 0.06400000303983688, 1.008000047877431, 0.0, 0.0, 0.0, 0.0, 0.0, 1.6450616018958173E9, 0.0, 2022-02-16 19:33:21.895
94.0, 999.7463162550703, 1032.627516665496, 739.6811531363055, 3288.331345390063, 0.09600000455975533, 0.06400000303983688, 1.008000047877431, 0.0, 0.0, 0.0, 0.0, 0.0, 1.6450616018958173E9, 0.0, 2022-02-16 19:33:21.895
95.0, 998.1381592741236, 1022.9075166806579, 740.3842543279752, 3275.918617437128, 0.09600000455975533, 0.06400000303983688, 1.008000047877431, 0.0, 0.0, 0.0, 0.0, 0.0, 1.6450616019066772E9, 0.0, 2022-02-16 19:33:21.906
95.0, 1148.4148192936555, 1023.737774470821, 728.8653624644503, 3278.91053740168, 0.09600000455975533, 0.06400000303983688, 1.008000047877431, 0.0, 0.0, 0.0, 0.0, 0.0, 1.6450616019066772E9, 0.0, 2022-02-16 19:33:21.906
96.0, 1039.0152657898143, 1035.6830149292946, 731.6328884316608, 3406.6131612886675, 0.09600000455975533, 0.06400000303983688, 1.008000047877431, 0.0, 0.0, 0.0, 0.0, 0.0, 1.645061601907244E9, 0.0, 2022-02-16 19:33:21.907
96.0, 1166.0260081849992, 1030.3199983928353, 736.6518341721967, 3571.318355337251, 0.09600000455975533, 0.06400000303983688, 1.008000047877431, 0.0, 0.0, 0.0, 0.0, 0.0, 1.645061601907244E9, 0.0, 2022-02-16 19:33:21.907
97.0, 1260.499620965682, 1004.1818376025185, 727.2310261838138, 3606.9970009145327, 0.09600000455975533, 0.06400000303983688, 1.008000047877431, 0.0, 0.0, 0.0, 0.0, 0.0, 1.6450616019210312E9, 0.0, 2022-02-16 19:33:21.921
97.0, 1207.0153116993606, 999.2339499611408, 719.0817841803655, 3498.3716067015193, 0.09600000455975533, 0.06400000303983688, 1.008000047877431, 0.0, 0.0, 0.0, 0.0, 0.0, 1.6450616019210312E9, 0.0, 2022-02-16 19:33:21.921
98.0, 1234.1894247774035, 1013.2623146949336, 724.2166668195277, 3585.696400716901, 0.09600000455975533, 0.06400000303983688, 1.008000047877431, 0.0, 0.0, 0.0, 0.0, 0.0, 1.6450616019366057E9, 0.0, 2022-02-16 19:33:21.936
98.0, 1193.7872855560854, 1013.0117413979024, 713.2363205496222, 3436.7137460820377, 0.09600000455975533, 0.06400000303983688, 1.008000047877431, 0.0, 0.0, 0.0, 0.0, 0.0, 1.6450616019366057E9, 0.0, 2022-02-16 19:33:21.936
99.0, 1127.1871471451595, 1021.2731804000214, 720.8694563591853, 3251.278286579065, 0.09600000455975533, 0.06400000303983688, 1.008000047877431, 0.0, 0.0, 0.0, 0.0, 0.0, 1.6450616019381328E9, 0.0, 2022-02-16 19:33:21.938
99.0, 1123.0657773939893, 1051.8244231380522, 743.3425151929259, 3178.1108838459477, 0.09600000455975533, 0.06400000303983688, 1.008000047877431, 0.0, 0.0, 0.0, 0.0, 0.0, 1.6450616019381328E9, 0.0, 2022-02-16 19:33:21.938
100.0, 1090.8502791756764, 1051.8244231380522, 743.7913031876087, 3254.5918379398063, 0.09600000455975533, 0.06400000303983688, 1.008000047877431, 0.0, 0.0, 0.0, 0.0, 0.0, 1.6450616019515896E9, 0.0, 2022-02-16 19:33:21.951
100.0, 1100.779713558033, 1027.2645001290366, 741.4800450149924, 3278.317763258703, 0.09600000455975533, 0.06400000303983688, 1.008000047877431, 0.0, 0.0, 0.0, 0.0, 0.0, 1.6450616019515896E9, 0.0, 2022-02-16 19:33:21.951
0.0, 953.4931035530753, 1031.13155668322, 752.7016148320399, 780.7246852000244, 0.09600000455975533, 0.06400000303983688, 1.008000047877431, 0.0, 0.0, 0.0, 0.0, 0.0, 1.6450616019523036E9, 0.0, 2022-02-16 19:33:21.952
1.0, 1044.8364200708456, 1012.0094482097775, 740.5469399760477, 900.008794286754, 0.09600000455975533, 0.0800000037997961, 1.008000047877431, 0.0, 0.0, 0.0, 0.0, 0.0, 1.6450616019659188E9, 0.0, 2022-02-16 19:33:21.965
1.0, 1008.903461296577, 999.3050080602989, 733.3214532616548, 1000.799098092597, 0.09600000455975533, 0.0800000037997961, 1.008000047877431, 0.0, 0.0, 0.0, 0.0, 0.0, 1.6450616019659188E9, 0.0, 2022-02-16 19:33:21.965
2.0, 1015.8409757143818, 1037.7698791045696, 745.319052319508, 1017.64734739298, 0.09600000455975533, 0.0800000037997961, 1.008000047877431, 0.0, 0.0, 0.0, 0.0, 0.0, 1.6450616019813156E9, 0.0, 2022-02-16 19:33:21.981
2.0, 979.5265471446328, 1039.284538586624, 761.7259934251197, 1165.1303021456115, 0.09600000455975533, 0.0800000037997961, 1.008000047877431, 0.0, 0.0, 0.0, 0.0, 0.0, 1.6450616019813156E9, 0.0, 2022-02-16 19:33:21.981
3.0, 982.0248003150336, 1025.7087017474696, 753.2139811259694, 1131.7928339405917, 0.09600000455975533, 0.0800000037997961, 1.008000047877431, 0.0, 0.0, 0.0, 0.0, 0.0, 1.645061601996591E9, 0.0, 2022-02-16 19:33:21.996
3.0, 946.1292405403219, 1051.1362815462053, 746.9982673996128, 1055.2931803469546, 0.09600000455975533, 0.0800000037997961, 1.008000047877431, 0.0, 0.0, 0.0, 0.0, 0.0, 1.645061601996591E9, 0.0, 2022-02-16 19:33:21.996
4.0, 1033.0445155105554, 1049.909594360739, 747.080545198638, 1034.3497405950911, 0.09600000455975533, 0.0800000037997961, 1.008000047877431, 0.0, 0.0, 0.0, 0.0, 0.0, 1.6450616019972436E9, 0.0, 2022-02-16 19:33:21.997
4.0, 972.0953659326769, 1041.2816451629624, 746.7327345027588, 1129.2272625709884, 0.09600000455975533, 0.0800000037997961, 1.008000047877431, 0.0, 0.0, 0.0, 0.0, 0.0, 1.6450616019972436E9, 0.0, 2022-02-16 19:33:21.997
5.0, 1010.8070703740232, 1026.0639922432601, 737.5213609118946, 1099.1322876275517, 0.09600000455975533, 0.0800000037997961, 1.008000047877431, 0.0, 0.0, 0.0, 0.0, 0.0, 1.6450616020115988E9, 0.0, 2022-02-16 19:33:22.011
5.0, 900.5884787798859, 1031.8234381750226, 747.2077017971314, 1128.666277577635, 0.09600000455975533, 0.0800000037997961, 1.008000047877431, 0.0, 0.0, 0.0, 0.0, 0.0, 1.6450616020115988E9, 0.0, 2022-02-16 19:33:22.011
6.0, 1019.4462392716669, 1024.366077663377, 753.5879711215384, 1124.0063622328453, 0.09600000455975533, 0.0800000037997961, 1.008000047877431, 0.0, 0.0, 0.0, 0.0, 0.0, 1.6450616020124102E9, 0.0, 2022-02-16 19:33:22.012
6.0, 1056.9686555271037, 1019.3994905222207, 739.9896948826499, 1186.9825375867076, 0.09600000455975533, 0.0800000037997961, 1.008000047877431, 0.0, 0.0, 0.0, 0.0, 0.0, 1.6450616020124102E9, 0.0, 2022-02-16 19:33:22.012
7.0, 959.8023147783242, 1030.5668317899108, 743.2060088445432, 1019.3340422729962, 0.09600000455975533, 0.0800000037997961, 1.008000047877431, 0.0, 0.0, 0.0, 0.0, 0.0, 1.6450616020422177E9, 0.0, 2022-02-16 19:33:22.042
7.0, 981.284300123807, 1031.4980668788776, 761.5876171267591, 1018.7169587803073, 0.09600000455975533, 0.0800000037997961, 1.008000047877431, 0.0, 0.0, 0.0, 0.0, 0.0, 1.6450616020422177E9, 0.0, 2022-02-16 19:33:22.042
8.0, 976.1381977847777, 1045.6461084112525, 755.5850776978768, 1170.3175433841534, 0.09600000455975533, 0.0800000037997961, 1.008000047877431, 0.0, 0.0, 0.0, 0.0, 0.0, 1.6450616020430098E9, 0.0, 2022-02-16 19:33:22.043
8.0, 1047.1663777432404, 1037.8633766034618, 751.1944351498969, 1108.7737497133203, 0.09600000455975533, 0.0800000037997961, 1.008000047877431, 0.0, 0.0, 0.0, 0.0, 0.0, 1.6450616020430098E9, 0.0, 2022-02-16 19:33:22.043
9.0, 1026.5894481870346, 1053.8215297143906, 758.345123865176, 1000.7429995932616, 0.09600000455975533, 0.0800000037997961, 1.008000047877431, 0.0, 0.0, 0.0, 0.0, 0.0, 1.6450616020437346E9, 0.0, 2022-02-16 19:33:22.043
9.0, 931.2444387166761, 1040.081137277186, 748.5503258812241, 1114.4060390465893, 0.09600000455975533, 0.0800000037997961, 1.008000047877431, 0.0, 0.0, 0.0, 0.0, 0.0, 1.6450616020437346E9, 0.0, 2022-02-16 19:33:22.043
10.0, 957.5471551050432, 1031.4756274791434, 741.1789830685593, 1106.088501545135, 0.09600000455975533, 0.0800000037997961, 1.008000047877431, 0.0, 0.0, 0.0, 0.0, 0.0, 1.6450616020559256E9, 0.0, 2022-02-16 19:33:22.055
10.0, 943.5449696709402, 1029.889909897931, 750.5362127576955, 1137.2680474757217, 0.09600000455975533, 0.0800000037997961, 1.008000047877431, 0.0, 0.0, 0.0, 0.0, 0.0, 1.6450616020559256E9, 0.0, 2022-02-16 19:33:22.055
11.0, 956.2568896203302, 1038.0615913011134, 755.5327190984972, 1113.022276062984, 0.09600000455975533, 0.0800000037997961, 1.008000047877431, 0.0, 0.0, 0.0, 0.0, 0.0, 1.6450616020715907E9, 0.0, 2022-02-16 19:33:22.071
11.0, 952.7937422613613, 1059.8801676426083, 750.1173439626582, 1122.562760849949, 0.09600000455975533, 0.0800000037997961, 1.008000047877431, 0.0, 0.0, 0.0, 0.0, 0.0, 1.6450616020715907E9, 0.0, 2022-02-16 19:33:22.071
12.0, 1050.7454620008357, 1042.564430847764, 745.9323959122412, 1190.6738188429736, 0.09600000455975533, 0.0800000037997961, 1.008000047877431, 0.0, 0.0, 0.0, 0.0, 0.0, 1.6450616020722988E9, 0.0, 2022-02-16 19:33:22.072
12.0, 916.8121647876687, 1059.3565816488117, 747.8808837891556, 1130.5923260548152, 0.09600000455975533, 0.0800000037997961, 1.008000047877431, 0.0, 0.0, 0.0, 0.0, 0.0, 1.6450616020722988E9, 0.0, 2022-02-16 19:33:22.072
13.0, 1033.2614297079854, 1022.9523954801261, 750.4913339582272, 1164.9096480482258, 0.09600000455975533, 0.0800000037997961, 1.008000047877431, 0.0, 0.0, 0.0, 0.0, 0.0, 1.6450616020859003E9, 0.0, 2022-02-16 19:33:22.085
13.0, 960.0117491758429, 1019.9118568161502, 769.6134424316697, 1111.3168816831894, 0.09600000455975533, 0.0800000037997961, 1.008000047877431, 0.0, 0.0, 0.0, 0.0, 0.0, 1.6450616020859003E9, 0.0, 2022-02-16 19:33:22.085
14.0, 957.6369127039798, 1066.6680860621855, 774.6361280721612, 1190.2512101479806, 0.09600000455975533, 0.0800000037997961, 1.008000047877431, 0.0, 0.0, 0.0, 0.0, 0.0, 1.645061602101626E9, 0.0, 2022-02-16 19:33:22.101
14.0, 966.5752735980786, 1057.5838690698147, 765.7763050771318, 1118.6620451961644, 0.09600000455975533, 0.0800000037997961, 1.008000047877431, 0.0, 0.0, 0.0, 0.0, 0.0, 1.645061602101626E9, 0.0, 2022-02-16 19:33:22.101
15.0, 1158.3760428256355, 1031.5803446779028, 749.3618841716088, 1188.4298788695596, 0.09600000455975533, 0.0800000037997961, 1.008000047877431, 0.0, 0.0, 0.0, 0.0, 0.0, 1.6450616021023276E9, 0.0, 2022-02-16 19:33:22.102
15.0, 930.6759739234112, 1037.2126340111718, 745.6743428152986, 1132.1481244363822, 0.09600000455975533, 0.0800000037997961, 1.008000047877431, 0.0, 0.0, 0.0, 0.0, 0.0, 1.6450616021023276E9, 0.0, 2022-02-16 19:33:22.102
16.0, 899.6722032907419, 1054.0309641119093, 759.2090407549404, 1133.9208370153792, 0.09600000455975533, 0.0800000037997961, 1.008000047877431, 0.0, 0.0, 0.0, 0.0, 0.0, 1.645061602119023E9, 0.0, 2022-02-16 19:33:22.119
16.0, 944.958651854191, 1044.9430072195828, 748.6812223796733, 1175.123314827215, 0.09600000455975533, 0.0800000037997961, 1.008000047877431, 0.0, 0.0, 0.0, 0.0, 0.0, 1.645061602119023E9, 0.0, 2022-02-16 19:33:22.119
17.0, 1051.5532803912647, 1041.1956274639815, 743.2658472438343, 1286.7817679042928, 0.09600000455975533, 0.0800000037997961, 1.008000047877431, 0.0, 0.0, 0.0, 0.0, 0.0, 1.6450616021318965E9, 0.0, 2022-02-16 19:33:22.131
17.0, 997.1040769363753, 1030.5743115898222, 741.2463012677617, 1206.3626991570927, 0.09600000455975533, 0.0800000037997961, 1.008000047877431, 0.0, 0.0, 0.0, 0.0, 0.0, 1.6450616021318965E9, 0.0, 2022-02-16 19:33:22.131
18.0, 981.2169819246046, 1040.5972434710711, 749.2010684735142, 1134.0816527134739, 0.09600000455975533, 0.0800000037997961, 1.008000047877431, 0.0, 0.0, 0.0, 0.0, 0.0, 1.6450616021322224E9, 0.0, 2022-02-16 19:33:22.132
18.0, 924.2732651992701, 1029.6131573012099, 734.2190292510204, 1217.2345883282833, 0.09600000455975533, 0.0800000037997961, 1.008000047877431, 0.0, 0.0, 0.0, 0.0, 0.0, 1.6450616021322224E9, 0.0, 2022-02-16 19:33:22.132
19.0, 942.1387672876008, 1028.2593135172501, 746.007193911355, 1225.6979819280095, 0.09600000455975533, 0.0800000037997961, 1.008000047877431, 0.0, 0.0, 0.0, 0.0, 0.0, 1.6450616021458955E9, 0.0, 2022-02-16 19:33:22.145
19.0, 932.8712951974012, 1032.844430862926, 751.639483244624, 1210.5850462070666, 0.09600000455975533, 0.0800000037997961, 1.008000047877431, 0.0, 0.0, 0.0, 0.0, 0.0, 1.6450616021458955E9, 0.0, 2022-02-16 19:33:22.145
20.0, 991.4194290037267, 1021.4003369985148, 743.8679711367004, 1297.5227605770342, 0.09600000455975533, 0.0800000037997961, 1.008000047877431, 0.0, 0.0, 0.0, 0.0, 0.0, 1.6450616021618223E9, 0.0, 2022-02-16 19:33:22.161
20.0, 1006.925054220017, 1043.106716341339, 742.196235856507, 1178.934272882063, 0.09600000455975533, 0.0800000037997961, 1.008000047877431, 0.0, 0.0, 0.0, 0.0, 0.0, 1.6450616021618223E9, 0.0, 2022-02-16 19:33:22.161
21.0, 1028.743630561512, 1043.2974512390792, 738.66203039838, 1134.0592133137397, 0.09600000455975533, 0.0800000037997961, 1.008000047877431, 0.0, 0.0, 0.0, 0.0, 0.0, 1.6450616021622932E9, 0.0, 2022-02-16 19:33:22.162
21.0, 997.9081554268487, 1018.3971973340958, 722.9170515849255, 1263.624307378661, 0.09600000455975533, 0.0800000037997961, 1.008000047877431, 0.0, 0.0, 0.0, 0.0, 0.0, 1.6450616021622932E9, 0.0, 2022-02-16 19:33:22.162
22.0, 1017.4042538958602, 1006.0031688809395, 722.5767206889577, 1108.8448078124784, 0.09600000455975533, 0.0800000037997961, 1.008000047877431, 0.0, 0.0, 0.0, 0.0, 0.0, 1.6450616021759071E9, 0.0, 2022-02-16 19:33:22.175
22.0, 988.9286556332372, 1048.0845231823623, 739.1669168923981, 1036.2421299726702, 0.09600000455975533, 0.0800000037997961, 1.008000047877431, 0.0, 0.0, 0.0, 0.0, 0.0, 1.6450616021759071E9, 0.0, 2022-02-16 19:33:22.175
23.0, 937.613488341216, 1039.5238921837881, 742.0167206586339, 1098.5077243349515, 0.09600000455975533, 0.0800000037997961, 1.008000047877431, 0.0, 0.0, 0.0, 0.0, 0.0, 1.6450616021915853E9, 0.0, 2022-02-16 19:33:22.191
23.0, 948.7172513096593, 1027.8703639218584, 742.6225844514556, 985.4243693747558, 0.09600000455975533, 0.0800000037997961, 1.008000047877431, 0.0, 0.0, 0.0, 0.0, 0.0, 1.6450616021915853E9, 0.0, 2022-02-16 19:33:22.191
24.0, 988.2853928408585, 1020.0801523141563, 737.4241235130467, 1096.645254157018, 0.09600000455975533, 0.0800000037997961, 1.008000047877431, 0.0, 0.0, 0.0, 0.0, 0.0, 1.6450616021922932E9, 0.0, 2022-02-16 19:33:22.192
24.0, 1001.6854543820955, 1034.015019549057, 748.3184520839714, 995.6903947531246, 0.09600000455975533, 0.0800000037997961, 1.008000047877431, 0.0, 0.0, 0.0, 0.0, 0.0, 1.6450616021922932E9, 0.0, 2022-02-16 19:33:22.192
25.0, 954.4654775415547, 1019.444369321689, 739.361391690094, 961.3618530598469, 0.09600000455975533, 0.0800000037997961, 1.008000047877431, 0.0, 0.0, 0.0, 0.0, 0.0, 1.645061602205988E9, 0.0, 2022-02-16 19:33:22.205
25.0, 927.2577053639106, 1030.4770741909742, 741.4744351650588, 919.4338346566074, 0.09600000455975533, 0.0800000037997961, 1.008000047877431, 0.0, 0.0, 0.0, 0.0, 0.0, 1.645061602205988E9, 0.0, 2022-02-16 19:33:22.205
26.0, 897.9331498113461, 1022.5821453845128, 729.0766668119468, 994.3739499687217, 0.09600000455975533, 0.0800000037997961, 1.008000047877431, 0.0, 0.0, 0.0, 0.0, 0.0, 1.6450616022215905E9, 0.0, 2022-02-16 19:33:22.221
26.0, 962.7680554431863, 1031.890756374225, 728.9869092130102, 971.5269011394121, 0.09600000455975533, 0.0800000037997961, 1.008000047877431, 0.0, 0.0, 0.0, 0.0, 0.0, 1.6450616022215905E9, 0.0, 2022-02-16 19:33:22.221
27.0, 975.4762354926206, 1033.7644462520257, 738.2356818034314, 1045.3936651642434, 0.09600000455975533, 0.0800000037997961, 1.008000047877431, 0.0, 0.0, 0.0, 0.0, 0.0, 1.6450616022223272E9, 0.0, 2022-02-16 19:33:22.222
27.0, 941.955512189772, 1038.222406999208, 751.3963897475041, 1200.197474080138, 0.09600000455975533, 0.0800000037997961, 1.008000047877431, 0.0, 0.0, 0.0, 0.0, 0.0, 1.6450616022223272E9, 0.0, 2022-02-16 19:33:22.222
28.0, 947.6326803225093, 1050.2536651566625, 746.1455702097155, 1239.3243074165657, 0.09600000455975533, 0.0800000037997961, 1.008000047877431, 0.0, 0.0, 0.0, 0.0, 0.0, 1.645061602235912E9, 0.0, 2022-02-16 19:33:22.235
28.0, 999.6509488062002, 1031.8458775747567, 733.83755945554, 1274.7000210974365, 0.09600000455975533, 0.0800000037997961, 1.008000047877431, 0.0, 0.0, 0.0, 0.0, 0.0, 1.645061602235912E9, 0.0, 2022-02-16 19:33:22.235
29.0, 944.0199369653128, 1032.3096251692623, 734.8174132439308, 1348.914595818147, 0.09600000455975533, 0.0800000037997961, 1.008000047877431, 0.0, 0.0, 0.0, 0.0, 0.0, 1.6450616022515664E9, 0.0, 2022-02-16 19:33:22.251
29.0, 877.3375207553618, 1020.1063316138461, 720.0822074185126, 1391.9496246082708, 0.09600000455975533, 0.0800000037997961, 1.008000047877431, 0.0, 0.0, 0.0, 0.0, 0.0, 1.6450616022515664E9, 0.0, 2022-02-16 19:33:22.251
30.0, 970.9771358459257, 994.3608603188768, 718.0851008421741, 1281.8656694125384, 0.09600000455975533, 0.0800000037997961, 1.008000047877431, 0.0, 0.0, 0.0, 0.0, 0.0, 1.6450616022523532E9, 0.0, 2022-02-16 19:33:22.252
30.0, 988.8052389346994, 1008.8641923470423, 732.1209453758784, 1247.2715948224068, 0.09600000455975533, 0.0800000037997961, 1.008000047877431, 0.0, 0.0, 0.0, 0.0, 0.0, 1.6450616022523532E9, 0.0, 2022-02-16 19:33:22.252
31.0, 881.9637770005502, 1044.2847848273814, 749.5900180689059, 1301.5712022790685, 0.09600000455975533, 0.0800000037997961, 1.008000047877431, 0.0, 0.0, 0.0, 0.0, 0.0, 1.6450616022658913E9, 0.0, 2022-02-16 19:33:22.265
31.0, 937.0001447484829, 1031.071718283929, 720.9984829076566, 1317.667731688358, 0.09600000455975533, 0.0800000037997961, 1.008000047877431, 0.0, 0.0, 0.0, 0.0, 0.0, 1.6450616022658913E9, 0.0, 2022-02-16 19:33:22.265
32.0, 977.5070011685602, 1031.5579052781686, 732.0947660761885, 1238.946577521041, 0.09600000455975533, 0.0800000037997961, 1.008000047877431, 0.0, 0.0, 0.0, 0.0, 0.0, 1.6450616022815924E9, 0.0, 2022-02-16 19:33:22.281
32.0, 1071.5879244538955, 1038.3570433976129, 736.3956510252319, 1283.3504096949473, 0.09600000455975533, 0.0800000037997961, 1.008000047877431, 0.0, 0.0, 0.0, 0.0, 0.0, 1.6450616022815924E9, 0.0, 2022-02-16 19:33:22.281
33.0, 976.3850311818533, 1016.1046386612579, 731.0588137884624, 1365.497312221676, 0.09600000455975533, 0.0800000037997961, 1.008000047877431, 0.0, 0.0, 0.0, 0.0, 0.0, 1.6450616022823884E9, 0.0, 2022-02-16 19:33:22.282
33.0, 923.996512602549, 998.7814220665023, 721.8362204977311, 1439.6632682429627, 0.09600000455975533, 0.0800000037997961, 1.008000047877431, 0.0, 0.0, 0.0, 0.0, 0.0, 1.6450616022823884E9, 0.0, 2022-02-16 19:33:22.282
34.0, 836.4604142396711, 992.5694482401013, 734.2751277503558, 1290.6469545084983, 0.09600000455975533, 0.0800000037997961, 1.008000047877431, 0.0, 0.0, 0.0, 0.0, 0.0, 1.6450616022959445E9, 0.0, 2022-02-16 19:33:22.295
34.0, 999.6733882059343, 1035.810171527788, 734.8660319433548, 1365.7254461189732, 0.09600000455975533, 0.0800000037997961, 1.008000047877431, 0.0, 0.0, 0.0, 0.0, 0.0, 1.6450616022959445E9, 0.0, 2022-02-16 19:33:22.295
35.0, 951.290302479174, 1032.9229687619954, 734.9221304426901, 1280.8970353240147, 0.09600000455975533, 0.0800000037997961, 1.008000047877431, 0.0, 0.0, 0.0, 0.0, 0.0, 1.6450616023116405E9, 0.0, 2022-02-16 19:33:22.311
35.0, 881.1372591103427, 1044.9729264192283, 735.3409992377274, 1322.7016370287165, 0.09600000455975533, 0.0800000037997961, 1.008000047877431, 0.0, 0.0, 0.0, 0.0, 0.0, 1.6450616023116405E9, 0.0, 2022-02-16 19:33:22.311
36.0, 976.5383670800366, 1052.8902946254238, 742.0204605585895, 1274.2512331027538, 0.09600000455975533, 0.0800000037997961, 1.008000047877431, 0.0, 0.0, 0.0, 0.0, 0.0, 1.6450616023123865E9, 0.0, 2022-02-16 19:33:22.312
36.0, 1037.9624839522876, 1020.5925186080858, 727.6966437282972, 1335.335019079037, 0.09600000455975533, 0.0800000037997961, 1.008000047877431, 0.0, 0.0, 0.0, 0.0, 0.0, 1.6450616023123865E9, 0.0, 2022-02-16 19:33:22.312
37.0, 942.7483709803782, 1010.0160815333948, 731.0737733882852, 1268.8919564662501, 0.09600000455975533, 0.0800000037997961, 1.008000047877431, 0.0, 0.0, 0.0, 0.0, 0.0, 1.6450616023258946E9, 0.0, 2022-02-16 19:33:22.325
37.0, 934.9544194727205, 1036.1804216234013, 740.2215686799027, 1353.8774430593476, 0.09600000455975533, 0.0800000037997961, 1.008000047877431, 0.0, 0.0, 0.0, 0.0, 0.0, 1.6450616023258946E9, 0.0, 2022-02-16 19:33:22.325
38.0, 1013.5147579419427, 1012.1627841079608, 738.0524267056026, 1358.948747399263, 0.09600000455975533, 0.0800000037997961, 1.008000047877431, 0.0, 0.0, 0.0, 0.0, 0.0, 1.6450616023416147E9, 0.0, 2022-02-16 19:33:22.341
38.0, 950.0897945933975, 1025.185115753673, 726.541014641989, 1326.6547112818807, 0.09600000455975533, 0.0800000037997961, 1.008000047877431, 0.0, 0.0, 0.0, 0.0, 0.0, 1.6450616023416147E9, 0.0, 2022-02-16 19:33:22.341
39.0, 976.7515413775109, 1055.059436599724, 735.38213813724, 1352.6021371744573, 0.09600000455975533, 0.0800000037997961, 1.008000047877431, 0.0, 0.0, 0.0, 0.0, 0.0, 1.645061602342282E9, 0.0, 2022-02-16 19:33:22.342
39.0, 1048.9503100221045, 1046.2444924041629, 752.8661704300903, 1346.285446149297, 0.09600000455975533, 0.0800000037997961, 1.008000047877431, 0.0, 0.0, 0.0, 0.0, 0.0, 1.645061602342282E9, 0.0, 2022-02-16 19:33:22.342
40.0, 931.438913514372, 1032.4480014676228, 739.8550584842451, 1290.542237309739, 0.09600000455975533, 0.0800000037997961, 1.008000047877431, 0.0, 0.0, 0.0, 0.0, 0.0, 1.6450616023558662E9, 0.0, 2022-02-16 19:33:22.355
40.0, 912.0026534446515, 1039.2620991868898, 742.581445551943, 1381.5414830315858, 0.09600000455975533, 0.0800000037997961, 1.008000047877431, 0.0, 0.0, 0.0, 0.0, 0.0, 1.6450616023558662E9, 0.0, 2022-02-16 19:33:22.355
41.0, 907.1407835022546, 1052.1684939339757, 738.8303258963861, 1284.681814079173, 0.09600000455975533, 0.0800000037997961, 1.008000047877431, 0.0, 0.0, 0.0, 0.0, 0.0, 1.6450616023715975E9, 0.0, 2022-02-16 19:33:22.371
41.0, 945.8412682437338, 1060.6169279338792, 735.3970977370627, 1319.8106943629682, 0.09600000455975533, 0.0800000037997961, 1.008000047877431, 0.0, 0.0, 0.0, 0.0, 0.0, 1.6450616023715975E9, 0.0, 2022-02-16 19:33:22.371
42.0, 976.8300792765804, 1040.7767586689442, 725.1198526588269, 1308.6545727951452, 0.09600000455975533, 0.0800000037997961, 1.008000047877431, 0.0, 0.0, 0.0, 0.0, 0.0, 1.6450616023723176E9, 0.0, 2022-02-16 19:33:22.372
42.0, 914.5196061148308, 1045.047724418342, 738.9574824948795, 1418.9367426885292, 0.09600000455975533, 0.0800000037997961, 1.008000047877431, 0.0, 0.0, 0.0, 0.0, 0.0, 1.6450616023723176E9, 0.0, 2022-02-16 19:33:22.372
43.0, 1043.9538036813028, 1043.420867937617, 723.32096078014, 1235.2889553643763, 0.09600000455975533, 0.0800000037997961, 1.008000047877431, 0.0, 0.0, 0.0, 0.0, 0.0, 1.6450616023860257E9, 0.0, 2022-02-16 19:33:22.386
43.0, 906.0786519148387, 1028.973634408787, 718.9340581321158, 1314.036288831383, 0.09600000455975533, 0.0800000037997961, 1.008000047877431, 0.0, 0.0, 0.0, 0.0, 0.0, 1.6450616023860257E9, 0.0, 2022-02-16 19:33:22.386
44.0, 964.4098715237342, 1039.5313719836995, 727.5507876300253, 1362.1538416612893, 0.09600000455975533, 0.0800000037997961, 1.008000047877431, 0.0, 0.0, 0.0, 0.0, 0.0, 1.6450616024015937E9, 0.0, 2022-02-16 19:33:22.401
44.0, 976.6281246789731, 1057.060283076018, 726.0211685481481, 1221.6196210263297, 0.09600000455975533, 0.0800000037997961, 1.008000047877431, 0.0, 0.0, 0.0, 0.0, 0.0, 1.6450616024015937E9, 0.0, 2022-02-16 19:33:22.401
45.0, 919.1421224600635, 1057.411833671853, 728.3773055202328, 1279.1280626449734, 0.09600000455975533, 0.0800000037997961, 1.008000047877431, 0.0, 0.0, 0.0, 0.0, 0.0, 1.6450616024022288E9, 0.0, 2022-02-16 19:33:22.402
45.0, 924.5350581961684, 1056.1402676869184, 741.2837002673186, 1312.8769198451191, 0.09600000455975533, 0.0800000037997961, 1.008000047877431, 0.0, 0.0, 0.0, 0.0, 0.0, 1.6450616024022288E9, 0.0, 2022-02-16 19:33:22.402
46.0, 1013.1706871460192, 1042.6990672461689, 749.7882327665575, 1275.2684858907014, 0.09600000455975533, 0.0800000037997961, 1.008000047877431, 0.0, 0.0, 0.0, 0.0, 0.0, 1.6450616024322586E9, 0.0, 2022-02-16 19:33:22.432
46.0, 994.6581823653542, 1041.5359583599493, 741.2500411677174, 1315.9473777087405, 0.09600000455975533, 0.0800000037997961, 1.008000047877431, 0.0, 0.0, 0.0, 0.0, 0.0, 1.6450616024322586E9, 0.0, 2022-02-16 19:33:22.432
47.0, 890.4870089995675, 1053.1820068219677, 734.7874940442853, 1268.8994362661615, 0.09600000455975533, 0.0800000037997961, 1.008000047877431, 0.0, 0.0, 0.0, 0.0, 0.0, 1.6450616024330115E9, 0.0, 2022-02-16 19:33:22.433
47.0, 885.0454545640387, 1052.707039527595, 741.5679326639511, 1304.267670147121, 0.09600000455975533, 0.0800000037997961, 1.008000047877431, 0.0, 0.0, 0.0, 0.0, 0.0, 1.6450616024330115E9, 0.0, 2022-02-16 19:33:22.433
48.0, 911.1798754543997, 1049.6515412637964, 743.7482943381183, 1171.1459312243387, 0.09600000455975533, 0.0800000037997961, 1.008000047877431, 0.0, 0.0, 0.0, 0.0, 0.0, 1.6450616024337416E9, 0.0, 2022-02-16 19:33:22.433
48.0, 944.6744194575585, 1050.018051459454, 723.9492639726959, 1260.9259695606306, 0.09600000455975533, 0.0800000037997961, 1.008000047877431, 0.0, 0.0, 0.0, 0.0, 0.0, 1.6450616024337416E9, 0.0, 2022-02-16 19:33:22.433
49.0, 996.1952812471427, 1065.8827070714906, 733.2803143621422, 1332.6722103105858, 0.09600000455975533, 0.0800000037997961, 1.008000047877431, 0.0, 0.0, 0.0, 0.0, 0.0, 1.6450616024459813E9, 0.0, 2022-02-16 19:33:22.445
49.0, 950.7405371856876, 1057.5651695700362, 741.2238618680276, 1258.5249537890777, 0.09600000455975533, 0.0800000037997961, 1.008000047877431, 0.0, 0.0, 0.0, 0.0, 0.0, 1.6450616024459813E9, 0.0, 2022-02-16 19:33:22.445
50.0, 876.4997831652872, 1042.9459006432444, 735.7486483328976, 1319.5339417662472, 0.09600000455975533, 0.0800000037997961, 1.008000047877431, 0.0, 0.0, 0.0, 0.0, 0.0, 1.6450616024617128E9, 0.0, 2022-02-16 19:33:22.461
50.0, 880.7071706154384, 1030.6640691887587, 729.061707212124, 1363.9377739401534, 0.09600000455975533, 0.0800000037997961, 1.008000047877431, 0.0, 0.0, 0.0, 0.0, 0.0, 1.6450616024617128E9, 0.0, 2022-02-16 19:33:22.461
51.0, 886.6723110447638, 1037.609063406475, 733.355112361256, 1239.0475548198447, 0.09600000455975533, 0.0800000037997961, 1.008000047877431, 0.0, 0.0, 0.0, 0.0, 0.0, 1.6450616024622767E9, 0.0, 2022-02-16 19:33:22.462
51.0, 924.3966818978079, 1032.0777513720095, 718.7096641347744, 1290.3589822119102, 0.09600000455975533, 0.0800000037997961, 1.008000047877431, 0.0, 0.0, 0.0, 0.0, 0.0, 1.6450616024622767E9, 0.0, 2022-02-16 19:33:22.462
52.0, 953.231310556177, 1053.406400819309, 719.2781289280392, 1230.4831839213148, 0.09600000455975533, 0.0800000037997961, 1.008000047877431, 0.0, 0.0, 0.0, 0.0, 0.0, 1.6450616024759226E9, 0.0, 2022-02-16 19:33:22.475
52.0, 982.888717204798, 1062.4943577116355, 729.6974902045913, 1182.9789746841416, 0.09600000455975533, 0.0800000037997961, 1.008000047877431, 0.0, 0.0, 0.0, 0.0, 0.0, 1.6450616024759226E9, 0.0, 2022-02-16 19:33:22.475
53.0, 856.1248082066886, 1050.6987132513896, 727.2141966340132, 1189.5200597066432, 0.09600000455975533, 0.0800000037997961, 1.008000047877431, 0.0, 0.0, 0.0, 0.0, 0.0, 1.6450616024916892E9, 0.0, 2022-02-16 19:33:22.491
53.0, 862.1310875355266, 1016.6618837546557, 722.5281019895338, 1341.88358390145, 0.09600000455975533, 0.0800000037997961, 1.008000047877431, 0.0, 0.0, 0.0, 0.0, 0.0, 1.6450616024916892E9, 0.0, 2022-02-16 19:33:22.491
54.0, 909.8222917704843, 1042.0296251541004, 719.2257703286596, 1394.8368273740634, 0.09600000455975533, 0.0800000037997961, 1.008000047877431, 0.0, 0.0, 0.0, 0.0, 0.0, 1.645061602492329E9, 0.0, 2022-02-16 19:33:22.492
54.0, 889.3575592129491, 1051.828163038008, 717.2885021516122, 1618.0134872798808, 0.09600000455975533, 0.0800000037997961, 1.008000047877431, 0.0, 0.0, 0.0, 0.0, 0.0, 1.645061602492329E9, 0.0, 2022-02-16 19:33:22.492
55.0, 1007.3888018145226, 1046.5062854010612, 730.1462781992741, 1756.3187275412492, 0.09600000455975533, 0.0800000037997961, 1.008000047877431, 0.0, 0.0, 0.0, 0.0, 0.0, 1.645061602505973E9, 0.0, 2022-02-16 19:33:22.505
55.0, 929.5315645369701, 1077.5474550332874, 739.0621996936388, 1685.7692547771148, 0.09600000455975533, 0.0800000037997961, 1.008000047877431, 0.0, 0.0, 0.0, 0.0, 0.0, 1.645061602505973E9, 0.0, 2022-02-16 19:33:22.505
56.0, 850.7019532709382, 1067.1131341569126, 738.5273939999752, 1772.5124943493865, 0.09600000455975533, 0.0800000037997961, 1.008000047877431, 0.0, 0.0, 0.0, 0.0, 0.0, 1.645061602521624E9, 0.0, 2022-02-16 19:33:22.521
56.0, 870.1606527403928, 1044.4269010256976, 737.7420150092803, 1782.277373133693, 0.09600000455975533, 0.0800000037997961, 1.008000047877431, 0.0, 0.0, 0.0, 0.0, 0.0, 1.645061602521624E9, 0.0, 2022-02-16 19:33:22.521
57.0, 939.1057084235363, 1041.659375058487, 730.460429795552, 1793.179181504529, 0.09600000455975533, 0.0800000037997961, 1.008000047877431, 0.0, 0.0, 0.0, 0.0, 0.0, 1.6450616025223088E9, 0.0, 2022-02-16 19:33:22.522
57.0, 1048.5090018273331, 1037.1827148115262, 734.9221304426901, 1691.7680543060414, 0.09600000455975533, 0.0800000037997961, 1.008000047877431, 0.0, 0.0, 0.0, 0.0, 0.0, 1.6450616025223088E9, 0.0, 2022-02-16 19:33:22.522
58.0, 907.3240386000834, 1052.0899560349062, 723.4443774786778, 1759.4116248046048, 0.09600000455975533, 0.0800000037997961, 1.008000047877431, 0.0, 0.0, 0.0, 0.0, 0.0, 1.6450616025360403E9, 0.0, 2022-02-16 19:33:22.536
58.0, 823.0042541990988, 1033.6709487531334, 698.0878557791002, 1754.4899164629169, 0.09600000455975533, 0.0800000037997961, 1.008000047877431, 0.0, 0.0, 0.0, 0.0, 0.0, 1.6450616025360403E9, 0.0, 2022-02-16 19:33:22.536
59.0, 849.3069705874659, 1048.739005674608, 722.7263166871853, 1744.5118633811362, 0.09600000455975533, 0.0800000037997961, 1.008000047877431, 0.0, 0.0, 0.0, 0.0, 0.0, 1.645061602551636E9, 0.0, 2022-02-16 19:33:22.551
59.0, 936.0389904598705, 1056.3796212840825, 735.6813301336952, 1769.0643065902404, 0.09600000455975533, 0.0800000037997961, 1.008000047877431, 0.0, 0.0, 0.0, 0.0, 0.0, 1.645061602551636E9, 0.0, 2022-02-16 19:33:22.551
60.0, 1020.6430072574876, 1055.1417143987492, 731.3355663851835, 1692.7329484946094, 0.09600000455975533, 0.0800000037997961, 1.008000047877431, 0.0, 0.0, 0.0, 0.0, 0.0, 1.6450616025523496E9, 0.0, 2022-02-16 19:33:22.552
60.0, 812.3305797255598, 1057.834442366846, 733.6056856582873, 1606.576873215381, 0.09600000455975533, 0.0800000037997961, 1.008000047877431, 0.0, 0.0, 0.0, 0.0, 0.0, 1.6450616025523496E9, 0.0, 2022-02-16 19:33:22.552
61.0, 814.510941399727, 1022.3166124876589, 727.5208684303798, 1778.9750414728187, 0.09600000455975533, 0.06400000303983688, 1.008000047877431, 0.0, 0.0, 0.0, 0.0, 0.0, 1.645061602566074E9, 0.0, 2022-02-16 19:33:22.566
61.0, 882.3976053954102, 1044.905608220026, 715.9084790679626, 1700.7251146999188, 0.09600000455975533, 0.06400000303983688, 1.008000047877431, 0.0, 0.0, 0.0, 0.0, 0.0, 1.645061602566074E9, 0.0, 2022-02-16 19:33:22.566
62.0, 978.2662008595653, 1050.8034304501489, 704.0716957082041, 1654.3353956495412, 0.09600000455975533, 0.06400000303983688, 1.008000047877431, 0.0, 0.0, 0.0, 0.0, 0.0, 1.6450616025979612E9, 0.0, 2022-02-16 19:33:22.597
62.0, 941.1065548998304, 1041.4761199606583, 730.509048494976, 1771.685976459179, 0.09600000455975533, 0.06400000303983688, 1.008000047877431, 0.0, 0.0, 0.0, 0.0, 0.0, 1.6450616025979612E9, 0.0, 2022-02-16 19:33:22.597
63.0, 912.1971282423474, 1049.112995670177, 717.303461751435, 1716.8029446094297, 0.09600000455975533, 0.06400000303983688, 1.008000047877431, 0.0, 0.0, 0.0, 0.0, 0.0, 1.645061602598683E9, 0.0, 2022-02-16 19:33:22.598
63.0, 812.4091176246293, 1029.1007910072803, 709.8049623402767, 1715.9016287201084, 0.09600000455975533, 0.06400000303983688, 1.008000047877431, 0.0, 0.0, 0.0, 0.0, 0.0, 1.645061602598683E9, 0.0, 2022-02-16 19:33:22.598
64.0, 920.8213375401683, 1027.7245078235865, 717.9467245438136, 1771.1175116659142, 0.09600000455975533, 0.06400000303983688, 1.008000047877431, 0.0, 0.0, 0.0, 0.0, 0.0, 1.645061602599488E9, 0.0, 2022-02-16 19:33:22.599
64.0, 937.7743040393107, 1054.4909718064591, 702.6654933248647, 1655.1394741400145, 0.09600000455975533, 0.06400000303983688, 1.008000047877431, 0.0, 0.0, 0.0, 0.0, 0.0, 1.645061602599488E9, 0.0, 2022-02-16 19:33:22.599
65.0, 851.199359965045, 1045.242199216038, 694.4975518216379, 1679.2206899547018, 0.09600000455975533, 0.06400000303983688, 1.008000047877431, 0.0, 0.0, 0.0, 0.0, 0.0, 1.6450616026001868E9, 0.0, 2022-02-16 19:33:22.600
65.0, 916.0230458970182, 1034.2880322458223, 715.1754586766474, 1779.1620364706032, 0.09600000455975533, 0.06400000303983688, 1.008000047877431, 0.0, 0.0, 0.0, 0.0, 0.0, 1.6450616026001868E9, 0.0, 2022-02-16 19:33:22.600
66.0, 888.7591752200387, 1033.3455774569884, 727.3675325321965, 1786.0172730893828, 0.09600000455975533, 0.06400000303983688, 1.008000047877431, 0.0, 0.0, 0.0, 0.0, 0.0, 1.645061602610992E9, 0.0, 2022-02-16 19:33:22.610
66.0, 925.7168665821664, 1028.6033843131736, 722.5355817894451, 1689.4493163335137, 0.09600000455975533, 0.06400000303983688, 1.008000047877431, 0.0, 0.0, 0.0, 0.0, 0.0, 1.645061602610992E9, 0.0, 2022-02-16 19:33:22.610
67.0, 853.2151660411619, 1038.850710191764, 730.5240080947988, 1680.9934025336988, 0.09600000455975533, 0.06400000303983688, 1.008000047877431, 0.0, 0.0, 0.0, 0.0, 0.0, 1.6450616026259928E9, 0.0, 2022-02-16 19:33:22.625
67.0, 921.3000447344966, 1051.8094635382295, 735.9094640309922, 1851.0840525184758, 0.09600000455975533, 0.06400000303983688, 1.008000047877431, 0.0, 0.0, 0.0, 0.0, 0.0, 1.6450616026259928E9, 0.0, 2022-02-16 19:33:22.625
68.0, 956.223230520729, 1052.6546809282154, 733.4486098601483, 1723.7778580267914, 0.09600000455975533, 0.06400000303983688, 1.008000047877431, 0.0, 0.0, 0.0, 0.0, 0.0, 1.6450616026415837E9, 0.0, 2022-02-16 19:33:22.641
68.0, 862.1348274354823, 1054.2665778091177, 724.3756125676446, 1650.4010208961554, 0.09600000455975533, 0.06400000303983688, 1.008000047877431, 0.0, 0.0, 0.0, 0.0, 0.0, 1.6450616026415837E9, 0.0, 2022-02-16 19:33:22.641
69.0, 891.0966126923449, 1044.6176359234378, 727.7415225277655, 1694.5206206734292, 0.09600000455975533, 0.06400000303983688, 1.008000047877431, 0.0, 0.0, 0.0, 0.0, 0.0, 1.6450616026422782E9, 0.0, 2022-02-16 19:33:22.642
69.0, 912.5000601387583, 1044.7260930221528, 730.7558818920515, 1784.652209605556, 0.09600000455975533, 0.06400000303983688, 1.008000047877431, 0.0, 0.0, 0.0, 0.0, 0.0, 1.6450616026422782E9, 0.0, 2022-02-16 19:33:22.642
70.0, 911.6810220484622, 1029.2877860050648, 715.3661935743876, 1699.7303013117053, 0.09600000455975533, 0.06400000303983688, 1.008000047877431, 0.0, 0.0, 0.0, 0.0, 0.0, 1.64506160267204E9, 0.0, 2022-02-16 19:33:22.672
70.0, 874.9626842834987, 1026.0452927434817, 717.7784290458076, 1788.6875616577454, 0.09600000455975533, 0.06400000303983688, 1.008000047877431, 0.0, 0.0, 0.0, 0.0, 0.0, 1.64506160267204E9, 0.0, 2022-02-16 19:33:22.672
71.0, 880.7071706154384, 1033.1997213587165, 712.2845160108991, 1618.7652071709745, 0.09600000455975533, 0.0800000037997961, 1.008000047877431, 0.0, 0.0, 0.0, 0.0, 0.0, 1.6450616026879976E9, 0.0, 2022-02-16 19:33:22.687
71.0, 881.9974361001514, 1028.7118414118886, 707.6021612663753, 1610.5523868682794, 0.09600000455975533, 0.0800000037997961, 1.008000047877431, 0.0, 0.0, 0.0, 0.0, 0.0, 1.6450616026879976E9, 0.0, 2022-02-16 19:33:22.687
72.0, 820.7902334253304, 1064.1997520914301, 750.4726344584487, 1663.7487238380127, 0.09600000455975533, 0.0800000037997961, 1.008000047877431, 0.0, 0.0, 0.0, 0.0, 0.0, 1.645061602688683E9, 0.0, 2022-02-16 19:33:22.688
72.0, 878.5567281409167, 1063.4143731007352, 757.2194139785133, 1754.7479695598595, 0.09600000455975533, 0.0800000037997961, 1.008000047877431, 0.0, 0.0, 0.0, 0.0, 0.0, 1.645061602688683E9, 0.0, 2022-02-16 19:33:22.688
73.0, 881.615966304671, 1060.680506233126, 752.2191677377559, 1712.288885362912, 0.09600000455975533, 0.0800000037997961, 1.008000047877431, 0.0, 0.0, 0.0, 0.0, 0.0, 1.6450616026894252E9, 0.0, 2022-02-16 19:33:22.689
73.0, 933.4061008910649, 1048.5370510770008, 741.5903720636852, 1730.0384505526163, 0.09600000455975533, 0.0800000037997961, 1.008000047877431, 0.0, 0.0, 0.0, 0.0, 0.0, 1.6450616026894252E9, 0.0, 2022-02-16 19:33:22.689
74.0, 887.3828920363449, 1047.0784900942817, 741.3023997670971, 1668.326361383777, 0.09600000455975533, 0.0800000037997961, 1.008000047877431, 0.0, 0.0, 0.0, 0.0, 0.0, 1.6450616026901174E9, 0.0, 2022-02-16 19:33:22.690
74.0, 843.794358052779, 1039.8455235799775, 748.2548737847246, 1741.198312020395, 0.09600000455975533, 0.0800000037997961, 1.008000047877431, 0.0, 0.0, 0.0, 0.0, 0.0, 1.6450616026901174E9, 0.0, 2022-02-16 19:33:22.690
75.0, 867.5165434717201, 1021.7144885947928, 747.8322650897317, 1670.8320943540893, 0.09600000455975533, 0.0800000037997961, 1.008000047877431, 0.0, 0.0, 0.0, 0.0, 0.0, 1.6450616027010195E9, 0.0, 2022-02-16 19:33:22.701
75.0, 959.6190596804954, 1026.8830303335562, 729.1028461116366, 1613.8397589293309, 0.09600000455975533, 0.0800000037997961, 1.008000047877431, 0.0, 0.0, 0.0, 0.0, 0.0, 1.6450616027010195E9, 0.0, 2022-02-16 19:33:22.701
76.0, 935.0142578720115, 1064.383007189259, 741.6614301628433, 1730.6368345455267, 0.09600000455975533, 0.0800000037997961, 1.008000047877431, 0.0, 0.0, 0.0, 0.0, 0.0, 1.645061602715956E9, 0.0, 2022-02-16 19:33:22.715
76.0, 889.709109808784, 1049.584223064594, 737.1698103160597, 1687.3250531586818, 0.09600000455975533, 0.0800000037997961, 1.008000047877431, 0.0, 0.0, 0.0, 0.0, 0.0, 1.645061602715956E9, 0.0, 2022-02-16 19:33:22.715
77.0, 841.1502487841062, 1035.2828456340358, 733.3887714608572, 1727.353202384431, 0.09600000455975533, 0.0800000037997961, 1.008000047877431, 0.0, 0.0, 0.0, 0.0, 0.0, 1.6450616027316265E9, 0.0, 2022-02-16 19:33:22.731
77.0, 876.9597908598371, 1018.4084170339629, 742.3607914545573, 1652.9665922657587, 0.09600000455975533, 0.0800000037997961, 1.008000047877431, 0.0, 0.0, 0.0, 0.0, 0.0, 1.6450616027316265E9, 0.0, 2022-02-16 19:33:22.731
78.0, 899.0738192978315, 1031.6663623768836, 736.7995602204464, 1683.342059705872, 0.09600000455975533, 0.0800000037997961, 1.008000047877431, 0.0, 0.0, 0.0, 0.0, 0.0, 1.645061602732323E9, 0.0, 2022-02-16 19:33:22.732
78.0, 779.0080711203627, 1054.9846386006102, 740.8199526728131, 1694.9133101687767, 0.09600000455975533, 0.0800000037997961, 1.008000047877431, 0.0, 0.0, 0.0, 0.0, 0.0, 1.645061602732323E9, 0.0, 2022-02-16 19:33:22.732
79.0, 795.9385982197709, 1061.5219837231562, 742.6375440512784, 1685.4251839811914, 0.09600000455975533, 0.0800000037997961, 1.008000047877431, 0.0, 0.0, 0.0, 0.0, 0.0, 1.6450616027459197E9, 0.0, 2022-02-16 19:33:22.745
79.0, 856.7792906989343, 1049.8871549610049, 739.7129422859289, 1794.589123787824, 0.09600000455975533, 0.0800000037997961, 1.008000047877431, 0.0, 0.0, 0.0, 0.0, 0.0, 1.6450616027459197E9, 0.0, 2022-02-16 19:33:22.745
80.0, 917.7359200767241, 1047.2019067928195, 739.4922881885432, 1898.1357338610105, 0.09600000455975533, 0.0800000037997961, 1.008000047877431, 0.0, 0.0, 0.0, 0.0, 0.0, 1.6450616027616477E9, 0.0, 2022-02-16 19:33:22.761
80.0, 982.4025302105583, 1037.93443470262, 729.2973209093325, 2046.1198352077045, 0.09600000455975533, 0.0800000037997961, 1.008000047877431, 0.0, 0.0, 0.0, 0.0, 0.0, 1.6450616027616477E9, 0.0, 2022-02-16 19:33:22.761
81.0, 969.6868703612126, 1039.4677936844528, 723.0666475831531, 2139.9651447958313, 0.09600000455975533, 0.06400000303983688, 1.008000047877431, 0.0, 0.0, 0.0, 0.0, 0.0, 1.6450616027623432E9, 0.0, 2022-02-16 19:33:22.762
81.0, 1008.9595597959124, 1033.857943750918, 728.205270122271, 2064.011516595725, 0.09600000455975533, 0.06400000303983688, 1.008000047877431, 0.0, 0.0, 0.0, 0.0, 0.0, 1.6450616027623432E9, 0.0, 2022-02-16 19:33:22.762
82.0, 1038.257936048787, 1032.8145116632804, 727.6667245286517, 2117.0806969669648, 0.09600000455975533, 0.06400000303983688, 1.008000047877431, 0.0, 0.0, 0.0, 0.0, 0.0, 1.6450616027759466E9, 0.0, 2022-02-16 19:33:22.775
82.0, 1085.1039228937589, 1030.1105639953166, 722.2737887925468, 2020.2247679145075, 0.09600000455975533, 0.06400000303983688, 1.008000047877431, 0.0, 0.0, 0.0, 0.0, 0.0, 1.6450616027759466E9, 0.0, 2022-02-16 19:33:22.775
83.0, 1133.6964430180378, 1028.7567202113569, 715.9832770670764, 1802.9552799887024, 0.09600000455975533, 0.06400000303983688, 1.008000047877431, 0.0, 0.0, 0.0, 0.0, 0.0, 1.6450616027916312E9, 0.0, 2022-02-16 19:33:22.791
83.0, 1144.4374356907792, 1016.8039999529719, 714.4723574849777, 1969.7417283626273, 0.09600000455975533, 0.06400000303983688, 1.008000047877431, 0.0, 0.0, 0.0, 0.0, 0.0, 1.6450616027916312E9, 0.0, 2022-02-16 19:33:22.791
84.0, 1030.5013835406862, 1035.7166740288958, 718.967717231717, 1884.7113629700616, 0.09600000455975533, 0.06400000303983688, 1.008000047877431, 0.0, 0.0, 0.0, 0.0, 0.0, 1.645061602792389E9, 0.0, 2022-02-16 19:33:22.792
84.0, 1060.7122953827493, 1052.2694712327793, 729.0093486127444, 1957.093386712484, 0.09600000455975533, 0.06400000303983688, 1.008000047877431, 0.0, 0.0, 0.0, 0.0, 0.0, 1.645061602792389E9, 0.0, 2022-02-16 19:33:22.792
85.0, 991.2286941059865, 1045.339436614886, 728.2239696220495, 1900.1272305874154, 0.09600000455975533, 0.06400000303983688, 1.008000047877431, 0.0, 0.0, 0.0, 0.0, 0.0, 1.6450616028059268E9, 0.0, 2022-02-16 19:33:22.805
85.0, 955.7931420258246, 1056.6376743810251, 743.9577287356369, 1869.583467649296, 0.09600000455975533, 0.06400000303983688, 1.008000047877431, 0.0, 0.0, 0.0, 0.0, 0.0, 1.6450616028059268E9, 0.0, 2022-02-16 19:33:22.805
86.0, 827.5669321450405, 1057.194919474423, 752.9970669285394, 1934.8596814759076, 0.09600000455975533, 0.06400000303983688, 1.008000047877431, 0.0, 0.0, 0.0, 0.0, 0.0, 1.6450616028216004E9, 0.0, 2022-02-16 19:33:22.821
86.0, 860.2536577577703, 1043.3946886379272, 743.4117033421062, 2012.2905701585114, 0.09600000455975533, 0.06400000303983688, 1.008000047877431, 0.0, 0.0, 0.0, 0.0, 0.0, 1.6450616028216004E9, 0.0, 2022-02-16 19:33:22.821
87.0, 938.96359222522, 1036.2739191222936, 732.0386675768532, 2066.0665916213766, 0.09600000455975533, 0.06400000303983688, 1.008000047877431, 0.0, 0.0, 0.0, 0.0, 0.0, 1.6450616028223145E9, 0.0, 2022-02-16 19:33:22.822
87.0, 835.8171514472924, 1052.4115874310955, 740.9134501717053, 2203.721089290455, 0.09600000455975533, 0.06400000303983688, 1.008000047877431, 0.0, 0.0, 0.0, 0.0, 0.0, 1.6450616028223145E9, 0.0, 2022-02-16 19:33:22.822
88.0, 805.490302706603, 1062.513057211414, 735.2475017388351, 2205.8640519650653, 0.09600000455975533, 0.06400000303983688, 1.008000047877431, 0.0, 0.0, 0.0, 0.0, 0.0, 1.6450616028360007E9, 0.0, 2022-02-16 19:33:22.836
88.0, 828.9619148285128, 1039.441614384763, 727.505908830557, 2067.2222207076848, 0.09600000455975533, 0.06400000303983688, 1.008000047877431, 0.0, 0.0, 0.0, 0.0, 0.0, 1.6450616028360007E9, 0.0, 2022-02-16 19:33:22.836
89.0, 849.4116877862252, 1060.2765970379114, 737.7233155095018, 2118.5074688000605, 0.09600000455975533, 0.06400000303983688, 1.008000047877431, 0.0, 0.0, 0.0, 0.0, 0.0, 1.6450616028516781E9, 0.0, 2022-02-16 19:33:22.851
89.0, 804.9928960124962, 1066.1482399683446, 746.7364744027145, 2307.742666658014, 0.09600000455975533, 0.06400000303983688, 1.008000047877431, 0.0, 0.0, 0.0, 0.0, 0.0, 1.6450616028516781E9, 0.0, 2022-02-16 19:33:22.851
90.0, 899.4365895935334, 1046.2145732045174, 733.0933193643577, 2366.3394191637635, 0.09600000455975533, 0.06400000303983688, 1.008000047877431, 0.0, 0.0, 0.0, 0.0, 0.0, 1.6450616028524833E9, 0.0, 2022-02-16 19:33:22.852
90.0, 797.0493485066108, 1042.9234612435102, 734.1180519522168, 2578.767606596928, 0.09600000455975533, 0.06400000303983688, 1.008000047877431, 0.0, 0.0, 0.0, 0.0, 0.0, 1.6450616028524833E9, 0.0, 2022-02-16 19:33:22.852
91.0, 838.2331268186681, 1041.6930341580883, 748.8495178776793, 2700.0413424600847, 0.09600000455975533, 0.06400000303983688, 1.008000047877431, 0.0, 0.0, 0.0, 0.0, 0.0, 1.645061602865968E9, 0.0, 2022-02-16 19:33:22.865
91.0, 857.9797985847108, 1044.976666319184, 738.385277801659, 2770.9348860201426, 0.09600000455975533, 0.06400000303983688, 1.008000047877431, 0.0, 0.0, 0.0, 0.0, 0.0, 1.645061602865968E9, 0.0, 2022-02-16 19:33:22.865
92.0, 898.9878015988506, 1068.1490864446387, 739.8961973837577, 2677.3812886285596, 0.09600000455975533, 0.06400000303983688, 1.008000047877431, 0.0, 0.0, 0.0, 0.0, 0.0, 1.645061602881596E9, 0.0, 2022-02-16 19:33:22.881
92.0, 751.3515109480359, 1056.4544192831963, 737.5998988109641, 2723.2362019852735, 0.09600000455975533, 0.06400000303983688, 1.008000047877431, 0.0, 0.0, 0.0, 0.0, 0.0, 1.645061602881596E9, 0.0, 2022-02-16 19:33:22.881
93.0, 775.1784135657363, 1057.580129169859, 723.9904028722085, 2714.2529622917064, 0.09600000455975533, 0.06400000303983688, 1.008000047877431, 0.0, 0.0, 0.0, 0.0, 0.0, 1.645061602882362E9, 0.0, 2022-02-16 19:33:22.882
93.0, 903.9057700405829, 1053.6195751167834, 721.1405991059728, 2708.467337060254, 0.09600000455975533, 0.06400000303983688, 1.008000047877431, 0.0, 0.0, 0.0, 0.0, 0.0, 1.645061602882362E9, 0.0, 2022-02-16 19:33:22.882
94.0, 789.7415839931928, 1063.0740422047675, 744.0362666347064, 2718.7632816382684, 0.09600000455975533, 0.06400000303983688, 1.008000047877431, 0.0, 0.0, 0.0, 0.0, 0.0, 1.6450616028958783E9, 0.0, 2022-02-16 19:33:22.895
94.0, 800.4863165658899, 1059.7604908440262, 744.3354586311616, 2728.0831123278476, 0.09600000455975533, 0.06400000303983688, 1.008000047877431, 0.0, 0.0, 0.0, 0.0, 0.0, 1.6450616028958783E9, 0.0, 2022-02-16 19:33:22.895
95.0, 923.9217146034352, 1044.8158506210893, 739.735381685663, 2833.2154399822466, 0.09600000455975533, 0.06400000303983688, 1.008000047877431, 0.0, 0.0, 0.0, 0.0, 0.0, 1.6450616029116712E9, 0.0, 2022-02-16 19:33:22.911
95.0, 785.9680249379016, 1057.63996756915, 742.7534809499048, 2744.6807883311994, 0.09600000455975533, 0.06400000303983688, 1.008000047877431, 0.0, 0.0, 0.0, 0.0, 0.0, 1.6450616029116712E9, 0.0, 2022-02-16 19:33:22.911
96.0, 793.7582365456037, 1070.628640115261, 751.3814301476814, 2688.339195498731, 0.09600000455975533, 0.06400000303983688, 1.008000047877431, 0.0, 0.0, 0.0, 0.0, 0.0, 1.645061602912316E9, 0.0, 2022-02-16 19:33:22.912
96.0, 727.831280126702, 1055.0893557993695, 741.8259857608937, 2781.013916400727, 0.09600000455975533, 0.06400000303983688, 1.008000047877431, 0.0, 0.0, 0.0, 0.0, 0.0, 1.645061602912316E9, 0.0, 2022-02-16 19:33:22.912
97.0, 862.8790675266646, 1057.3295558728278, 741.0069476705976, 2858.4747242829762, 0.09600000455975533, 0.06400000303983688, 1.008000047877431, 0.0, 0.0, 0.0, 0.0, 0.0, 1.645061602926056E9, 0.0, 2022-02-16 19:33:22.926
97.0, 934.1353813824244, 1068.059328845702, 749.0626921751536, 2698.276109680999, 0.09600000455975533, 0.06400000303983688, 1.008000047877431, 0.0, 0.0, 0.0, 0.0, 0.0, 1.645061602926056E9, 0.0, 2022-02-16 19:33:22.926
98.0, 802.861153037753, 1052.8865547254682, 741.0293870703317, 2728.0943320277147, 0.09600000455975533, 0.06400000303983688, 1.008000047877431, 0.0, 0.0, 0.0, 0.0, 0.0, 1.645061602941622E9, 0.0, 2022-02-16 19:33:22.941
98.0, 811.5190214351751, 1036.135542823933, 738.721868797671, 2759.1878602593206, 0.09600000455975533, 0.06400000303983688, 1.008000047877431, 0.0, 0.0, 0.0, 0.0, 0.0, 1.645061602941622E9, 0.0, 2022-02-16 19:33:22.941
99.0, 802.3188675441779, 1066.6082476628944, 750.6895486558788, 2732.612131174188, 0.09600000455975533, 0.06400000303983688, 1.008000047877431, 0.0, 0.0, 0.0, 0.0, 0.0, 1.6450616029422688E9, 0.0, 2022-02-16 19:33:22.942
99.0, 890.5057084993459, 1059.5510564465076, 753.1055240272544, 2807.084758991841, 0.09600000455975533, 0.06400000303983688, 1.008000047877431, 0.0, 0.0, 0.0, 0.0, 0.0, 1.6450616029422688E9, 0.0, 2022-02-16 19:33:22.942
100.0, 866.8845003792085, 1042.4335343493149, 738.7517879973166, 2930.9315460245125, 0.09600000455975533, 0.06400000303983688, 1.008000047877431, 0.0, 0.0, 0.0, 0.0, 0.0, 1.6450616029566908E9, 0.0, 2022-02-16 19:33:22.956
100.0, 689.9386137756519, 1057.7110256683081, 747.9182827887125, 2737.885390111711, 0.09600000455975533, 0.06400000303983688, 1.008000047877431, 0.0, 0.0, 0.0, 0.0, 0.0, 1.6450616029566908E9, 0.0, 2022-02-16 19:33:22.956
0.0, 898.3464087564498, 1062.5897251605056, 751.2486636992544, 863.2661471720785, 0.09600000455975533, 0.06400000303983688, 1.008000047877431, 0.0, 0.0, 0.0, 0.0, 0.0, 1.6450616029573116E9, 0.0, 2022-02-16 19:33:22.957
1.0, 772.1696640513837, 1045.4609833634458, 745.4144197683781, 887.4745195852593, 0.09600000455975533, 0.06400000303983688, 1.008000047877431, 0.0, 0.0, 0.0, 0.0, 0.0, 1.6450616029872715E9, 0.0, 2022-02-16 19:33:22.987
1.0, 785.1471168976277, 1035.9691172759049, 734.3817148990929, 865.2071552490816, 0.09600000455975533, 0.06400000303983688, 1.008000047877431, 0.0, 0.0, 0.0, 0.0, 0.0, 1.6450616029872715E9, 0.0, 2022-02-16 19:33:22.987
2.0, 844.9443772891536, 1048.340706329327, 749.5844082189724, 884.1497485246509, 0.09600000455975533, 0.06400000303983688, 1.008000047877431, 0.0, 0.0, 0.0, 0.0, 0.0, 1.6450616029880197E9, 0.0, 2022-02-16 19:33:22.988
2.0, 880.5669243671, 1042.3157275007106, 741.4015071159229, 964.894188567996, 0.09600000455975533, 0.06400000303983688, 1.008000047877431, 0.0, 0.0, 0.0, 0.0, 0.0, 1.6450616029880197E9, 0.0, 2022-02-16 19:33:22.988
3.0, 800.9743735101074, 1047.8806986347772, 731.4309338340536, 847.738082556054, 0.09600000455975533, 0.06400000303983688, 1.008000047877431, 0.0, 0.0, 0.0, 0.0, 0.0, 1.6450616029887338E9, 0.0, 2022-02-16 19:33:22.988
3.0, 755.7776825455949, 1074.6621222174726, 742.5533963022754, 976.0166510362178, 0.09600000455975533, 0.06400000303983688, 1.008000047877431, 0.0, 0.0, 0.0, 0.0, 0.0, 1.6450616029887338E9, 0.0, 2022-02-16 19:33:22.988
4.0, 886.3749889982864, 1059.220075300429, 749.034642925486, 911.2041848041117, 0.09600000455975533, 0.06400000303983688, 1.008000047877431, 0.0, 0.0, 0.0, 0.0, 0.0, 1.645061603000962E9, 0.0, 2022-02-16 19:33:23.000
4.0, 796.5538117624819, 1034.3011218956672, 742.4038003040478, 803.2444927832112, 0.09600000455975533, 0.06400000303983688, 1.008000047877431, 0.0, 0.0, 0.0, 0.0, 0.0, 1.645061603000962E9, 0.0, 2022-02-16 19:33:23.000
5.0, 784.6422304036096, 1041.3059545126744, 730.4062012461945, 872.1409297669306, 0.09600000455975533, 0.06400000303983688, 1.008000047877431, 0.0, 0.0, 0.0, 0.0, 0.0, 1.6450616030167015E9, 0.0, 2022-02-16 19:33:23.016
5.0, 819.2250852938741, 1062.0848386664875, 739.7671708352864, 1009.7430688366294, 0.09600000455975533, 0.06400000303983688, 1.008000047877431, 0.0, 0.0, 0.0, 0.0, 0.0, 1.6450616030167015E9, 0.0, 2022-02-16 19:33:23.016
6.0, 848.2354892501608, 1050.3378129056655, 719.3360973773524, 870.1176438909024, 0.09600000455975533, 0.06400000303983688, 1.008000047877431, 0.0, 0.0, 0.0, 0.0, 0.0, 1.6450616030173512E9, 0.0, 2022-02-16 19:33:23.017
6.0, 838.571587764658, 1058.1205447134562, 713.3447776483372, 756.4770438373089, 0.09600000455975533, 0.06400000303983688, 1.008000047877431, 0.0, 0.0, 0.0, 0.0, 0.0, 1.6450616030173512E9, 0.0, 2022-02-16 19:33:23.017
7.0, 826.1700795115903, 1059.2873934996314, 706.5194602292031, 830.1044542649761, 0.09600000455975533, 0.06400000303983688, 1.008000047877431, 0.0, 0.0, 0.0, 0.0, 0.0, 1.645061603030889E9, 0.0, 2022-02-16 19:33:23.030
7.0, 833.8069552211091, 1044.698043772485, 692.2629615981132, 806.3560895463452, 0.09600000455975533, 0.06400000303983688, 1.008000047877431, 0.0, 0.0, 0.0, 0.0, 0.0, 1.645061603030889E9, 0.0, 2022-02-16 19:33:23.030
8.0, 732.0480173267424, 1035.7297636787407, 691.2569285100326, 875.585377626121, 0.09600000455975533, 0.06400000303983688, 1.008000047877431, 0.0, 0.0, 0.0, 0.0, 0.0, 1.6450616030467896E9, 0.0, 2022-02-16 19:33:23.046
8.0, 771.3992446605116, 1034.1851849970408, 691.372865408659, 901.263530721888, 0.09600000455975533, 0.06400000303983688, 1.008000047877431, 0.0, 0.0, 0.0, 0.0, 0.0, 1.6450616030467896E9, 0.0, 2022-02-16 19:33:23.046
9.0, 870.5514722857624, 1056.325392734725, 698.2430616272613, 764.1999372458085, 0.09600000455975533, 0.06400000303983688, 1.008000047877431, 0.0, 0.0, 0.0, 0.0, 0.0, 1.645061603047602E9, 0.0, 2022-02-16 19:33:23.047
9.0, 770.0454008765519, 1057.1967894244008, 692.7753278920427, 726.9131346875802, 0.09600000455975533, 0.06400000303983688, 1.008000047877431, 0.0, 0.0, 0.0, 0.0, 0.0, 1.645061603047602E9, 0.0, 2022-02-16 19:33:23.047
10.0, 802.1748813958839, 1035.0528417867608, 687.4721497548744, 760.4488175902516, 0.09600000455975533, 0.06400000303983688, 1.008000047877431, 0.0, 0.0, 0.0, 0.0, 0.0, 1.6450616030608814E9, 0.0, 2022-02-16 19:33:23.060
10.0, 832.5466089360416, 1045.9808294572867, 699.911057007499, 554.90765592549, 0.09600000455975533, 0.06400000303983688, 1.008000047877431, 0.0, 0.0, 0.0, 0.0, 0.0, 1.6450616030608814E9, 0.0, 2022-02-16 19:33:23.060
11.0, 776.9230768950656, 1055.6335112429224, 699.5819458113983, 650.9557665875182, 0.09600000455975533, 0.0800000037997961, 1.008000047877431, 0.0, 0.0, 0.0, 0.0, 0.0, 1.6450616030766463E9, 0.0, 2022-02-16 19:33:23.076
11.0, 806.9843927389011, 1050.2817144063301, 695.2773209623992, 712.0021535642445, 0.09600000455975533, 0.0800000037997961, 1.008000047877431, 0.0, 0.0, 0.0, 0.0, 0.0, 1.6450616030766463E9, 0.0, 2022-02-16 19:33:23.076
12.0, 792.2155278138816, 1051.9684092863463, 710.6707491800189, 631.2726731207222, 0.09600000455975533, 0.0800000037997961, 1.008000047877431, 0.0, 0.0, 0.0, 0.0, 0.0, 1.6450616030775323E9, 0.0, 2022-02-16 19:33:23.077
12.0, 840.8903257371858, 1057.2753273234703, 701.7735271854326, 574.1157820979133, 0.09600000455975533, 0.0800000037997961, 1.008000047877431, 0.0, 0.0, 0.0, 0.0, 0.0, 1.6450616030775323E9, 0.0, 2022-02-16 19:33:23.077
13.0, 838.8558201612905, 1063.0497328550555, 711.1195371747017, 560.3679098607972, 0.09600000455975533, 0.0800000037997961, 1.008000047877431, 0.0, 0.0, 0.0, 0.0, 0.0, 1.645061603090942E9, 0.0, 2022-02-16 19:33:23.090
13.0, 856.7175823496655, 1069.9386285734363, 717.0510185044259, 529.4725963268429, 0.09600000455975533, 0.0800000037997961, 1.008000047877431, 0.0, 0.0, 0.0, 0.0, 0.0, 1.645061603090942E9, 0.0, 2022-02-16 19:33:23.090
14.0, 741.6782597126439, 1042.757035695482, 704.36153795477, 589.1389602199197, 0.09600000455975533, 0.0800000037997961, 1.008000047877431, 0.0, 0.0, 0.0, 0.0, 0.0, 1.6450616031066637E9, 0.0, 2022-02-16 19:33:23.106
14.0, 824.6105412300676, 1032.5134497168474, 699.2565745152533, 597.7182907182723, 0.09600000455975533, 0.0800000037997961, 1.008000047877431, 0.0, 0.0, 0.0, 0.0, 0.0, 1.6450616031066637E9, 0.0, 2022-02-16 19:33:23.106
15.0, 763.844646750018, 1063.0497328550555, 714.818298230879, 568.6630079625174, 0.09600000455975533, 0.0800000037997961, 1.008000047877431, 0.0, 0.0, 0.0, 0.0, 0.0, 1.6450616031073024E9, 0.0, 2022-02-16 19:33:23.107
15.0, 851.8070937078446, 1067.806885598693, 716.0113263167441, 564.7398529089987, 0.09600000455975533, 0.0800000037997961, 1.008000047877431, 0.0, 0.0, 0.0, 0.0, 0.0, 1.6450616031073024E9, 0.0, 2022-02-16 19:33:23.107
16.0, 799.6953277252614, 1057.230448524002, 703.1984290685505, 690.6959435166791, 0.09600000455975533, 0.0800000037997961, 1.008000047877431, 0.0, 0.0, 0.0, 0.0, 0.0, 1.6450616031208997E9, 0.0, 2022-02-16 19:33:23.120
16.0, 792.9784674048424, 1054.8481322522275, 694.6938965693116, 584.4117266759276, 0.09600000455975533, 0.0800000037997961, 1.008000047877431, 0.0, 0.0, 0.0, 0.0, 0.0, 1.6450616031208997E9, 0.0, 2022-02-16 19:33:23.120
17.0, 870.4804141866043, 1050.95863629831, 714.758459831588, 746.6747660534456, 0.09600000455975533, 0.0800000037997961, 1.008000047877431, 0.0, 0.0, 0.0, 0.0, 0.0, 1.6450616031366556E9, 0.0, 2022-02-16 19:33:23.136
17.0, 888.0168050788343, 1045.4684631633572, 715.3194448249415, 917.2983517819084, 0.09600000455975533, 0.0800000037997961, 1.008000047877431, 0.0, 0.0, 0.0, 0.0, 0.0, 1.6450616031366556E9, 0.0, 2022-02-16 19:33:23.136
18.0, 829.3489944739267, 1041.2049772138707, 718.1393293915316, 943.3280554735102, 0.09600000455975533, 0.0800000037997961, 1.008000047877431, 0.0, 0.0, 0.0, 0.0, 0.0, 1.6450616031374884E9, 0.0, 2022-02-16 19:33:23.137
18.0, 774.0134347295389, 1074.6359429177828, 728.0014455746859, 1031.6570126269944, 0.09600000455975533, 0.0800000037997961, 1.008000047877431, 0.0, 0.0, 0.0, 0.0, 0.0, 1.6450616031374884E9, 0.0, 2022-02-16 19:33:23.137
19.0, 852.9589828941971, 1061.7632072702982, 726.890695287846, 1143.8427915978245, 0.09600000455975533, 0.0800000037997961, 1.008000047877431, 0.0, 0.0, 0.0, 0.0, 0.0, 1.6450616031508305E9, 0.0, 2022-02-16 19:33:23.150
19.0, 810.0286713028327, 1025.1570665040053, 722.4701335402206, 1098.272110637743, 0.09600000455975533, 0.0800000037997961, 1.008000047877431, 0.0, 0.0, 0.0, 0.0, 0.0, 1.6450616031508305E9, 0.0, 2022-02-16 19:33:23.150
20.0, 912.3074552910402, 1054.2609679591842, 726.5915032913908, 1014.5768895293586, 0.09600000455975533, 0.0800000037997961, 1.008000047877431, 0.0, 0.0, 0.0, 0.0, 0.0, 1.645061603166648E9, 0.0, 2022-02-16 19:33:23.166
20.0, 936.2278554076329, 1058.5730726080947, 723.9473940227181, 1005.2720184396021, 0.09600000455975533, 0.0800000037997961, 1.008000047877431, 0.0, 0.0, 0.0, 0.0, 0.0, 1.645061603166648E9, 0.0, 2022-02-16 19:33:23.166
21.0, 743.4883712911978, 1060.6935958829708, 711.9946737643331, 1167.837989713531, 0.09600000455975533, 0.0800000037997961, 1.008000047877431, 0.0, 0.0, 0.0, 0.0, 0.0, 1.6450616031676297E9, 0.0, 2022-02-16 19:33:23.167
21.0, 804.1121495729312, 1056.3702715341933, 708.75218050275, 1079.9578205547296, 0.09600000455975533, 0.0800000037997961, 1.008000047877431, 0.0, 0.0, 0.0, 0.0, 0.0, 1.6450616031676297E9, 0.0, 2022-02-16 19:33:23.167
22.0, 880.6641617659479, 1067.118744006846, 715.9701874172315, 1059.0069010029547, 0.09600000455975533, 0.0800000037997961, 1.008000047877431, 0.0, 0.0, 0.0, 0.0, 0.0, 1.6450616031809256E9, 0.0, 2022-02-16 19:33:23.180
22.0, 865.0725188506767, 1045.629278861452, 721.090110456571, 1080.2607524511404, 0.09600000455975533, 0.0800000037997961, 1.008000047877431, 0.0, 0.0, 0.0, 0.0, 0.0, 1.6450616031809256E9, 0.0, 2022-02-16 19:33:23.180
23.0, 788.4905874580145, 1039.682837931905, 720.5440850630403, 1089.5357043412514, 0.09600000455975533, 0.0800000037997961, 1.008000047877431, 0.0, 0.0, 0.0, 0.0, 0.0, 1.6450616031966844E9, 0.0, 2022-02-16 19:33:23.196
23.0, 854.2155892793089, 1078.8208909681998, 735.0960357906297, 1070.0545654720627, 0.09600000455975533, 0.0800000037997961, 1.008000047877431, 0.0, 0.0, 0.0, 0.0, 0.0, 1.6450616031966844E9, 0.0, 2022-02-16 19:33:23.196
24.0, 852.1623842036352, 1053.2773742708378, 718.9247083822265, 1172.1575741623528, 0.09600000455975533, 0.0800000037997961, 1.008000047877431, 0.0, 0.0, 0.0, 0.0, 0.0, 1.6450616031972911E9, 0.0, 2022-02-16 19:33:23.197
24.0, 851.9753892058507, 1034.869586688932, 721.5127191515639, 1115.1502791377716, 0.09600000455975533, 0.0800000037997961, 1.008000047877431, 0.0, 0.0, 0.0, 0.0, 0.0, 1.6450616031972911E9, 0.0, 2022-02-16 19:33:23.197
25.0, 852.2184827029705, 1057.7802138174884, 733.5589369088411, 996.0569049487822, 0.09600000455975533, 0.0800000037997961, 1.008000047877431, 0.0, 0.0, 0.0, 0.0, 0.0, 1.645061603210976E9, 0.0, 2022-02-16 19:33:23.210
25.0, 892.8749351212755, 1066.0491326195188, 731.4795525334775, 1152.014473001007, 0.09600000455975533, 0.0800000037997961, 1.008000047877431, 0.0, 0.0, 0.0, 0.0, 0.0, 1.645061603210976E9, 0.0, 2022-02-16 19:33:23.210
26.0, 832.7523034336045, 1059.3584515987895, 727.4292408814654, 1151.229094010312, 0.09600000455975533, 0.0800000037997961, 1.008000047877431, 0.0, 0.0, 0.0, 0.0, 0.0, 1.645061603226672E9, 0.0, 2022-02-16 19:33:23.226
26.0, 877.3393907053396, 1043.5274550863542, 718.3861627886072, 1095.4784053708427, 0.09600000455975533, 0.0800000037997961, 1.008000047877431, 0.0, 0.0, 0.0, 0.0, 0.0, 1.645061603226672E9, 0.0, 2022-02-16 19:33:23.226
27.0, 800.8509568115696, 1072.1563892471604, 737.9607991566882, 1046.410917952191, 0.09600000455975533, 0.0800000037997961, 1.008000047877431, 0.0, 0.0, 0.0, 0.0, 0.0, 1.6450616032273424E9, 0.0, 2022-02-16 19:33:23.227
27.0, 880.8100178642198, 1056.4525493332185, 727.5526575800031, 1048.161191131454, 0.09600000455975533, 0.0800000037997961, 1.008000047877431, 0.0, 0.0, 0.0, 0.0, 0.0, 1.6450616032273424E9, 0.0, 2022-02-16 19:33:23.227
28.0, 827.3892868971452, 1049.9002446108498, 709.4852008940652, 1129.4067777688615, 0.09600000455975533, 0.0800000037997961, 1.008000047877431, 0.0, 0.0, 0.0, 0.0, 0.0, 1.645061603241022E9, 0.0, 2022-02-16 19:33:23.241
28.0, 890.7469320464879, 1053.0978590729646, 727.8929884759709, 1039.753896031063, 0.09600000455975533, 0.0800000037997961, 1.008000047877431, 0.0, 0.0, 0.0, 0.0, 0.0, 1.645061603241022E9, 0.0, 2022-02-16 19:33:23.241
29.0, 897.1907796701416, 1059.8072395934723, 741.0424767201766, 1037.644592456054, 0.09600000455975533, 0.0800000037997961, 1.008000047877431, 0.0, 0.0, 0.0, 0.0, 0.0, 1.6450616032566495E9, 0.0, 2022-02-16 19:33:23.256
29.0, 726.0305182980374, 1054.4292634571902, 732.5042851213366, 1174.9699789290316, 0.09600000455975533, 0.0800000037997961, 1.008000047877431, 0.0, 0.0, 0.0, 0.0, 0.0, 1.6450616032566495E9, 0.0, 2022-02-16 19:33:23.256
30.0, 905.6466934699565, 1043.9089248818345, 727.5040388805792, 1146.3260851684026, 0.09600000455975533, 0.0800000037997961, 1.008000047877431, 0.0, 0.0, 0.0, 0.0, 0.0, 1.645061603257288E9, 0.0, 2022-02-16 19:33:23.257
30.0, 886.2440924998373, 1060.6487170835026, 729.9200142519549, 1194.9447845923714, 0.09600000455975533, 0.0800000037997961, 1.008000047877431, 0.0, 0.0, 0.0, 0.0, 0.0, 1.645061603257288E9, 0.0, 2022-02-16 19:33:23.257
31.0, 789.4704412464052, 1065.6863623238169, 728.6447083670646, 1436.3945956816897, 0.09600000455975533, 0.0800000037997961, 1.008000047877431, 0.0, 0.0, 0.0, 0.0, 0.0, 1.6450616032709124E9, 0.0, 2022-02-16 19:33:23.270
31.0, 773.1607375396416, 1071.0905177597888, 725.5368515038863, 1555.054141475819, 0.09600000455975533, 0.0800000037997961, 1.008000047877431, 0.0, 0.0, 0.0, 0.0, 0.0, 1.6450616032709124E9, 0.0, 2022-02-16 19:33:23.270
32.0, 903.2793367980048, 1069.7404138757847, 737.4596525626257, 1570.5784661918879, 0.09600000455975533, 0.0800000037997961, 1.008000047877431, 0.0, 0.0, 0.0, 0.0, 0.0, 1.6450616032865915E9, 0.0, 2022-02-16 19:33:23.286
32.0, 914.0091097708791, 1063.2142884531058, 740.6273478250951, 1678.2501859162003, 0.09600000455975533, 0.0800000037997961, 1.008000047877431, 0.0, 0.0, 0.0, 0.0, 0.0, 1.6450616032865915E9, 0.0, 2022-02-16 19:33:23.286
33.0, 886.4086480978876, 1044.83268017089, 723.7080404255539, 1536.1040684003383, 0.09600000455975533, 0.0800000037997961, 1.008000047877431, 0.0, 0.0, 0.0, 0.0, 0.0, 1.6450616032873795E9, 0.0, 2022-02-16 19:33:23.287
33.0, 789.8070322424173, 1041.298474712763, 728.1660011727363, 1579.1914557898417, 0.09600000455975533, 0.0800000037997961, 1.008000047877431, 0.0, 0.0, 0.0, 0.0, 0.0, 1.6450616032873795E9, 0.0, 2022-02-16 19:33:23.287
34.0, 818.7538578994572, 1028.0180899701081, 725.6415687026456, 1574.8531718412414, 0.09600000455975533, 0.0800000037997961, 1.008000047877431, 0.0, 0.0, 0.0, 0.0, 0.0, 1.6450616033009017E9, 0.0, 2022-02-16 19:33:23.300
34.0, 786.6019379803911, 1061.9128032685257, 727.2721650833264, 1569.972602399066, 0.09600000455975533, 0.0800000037997961, 1.008000047877431, 0.0, 0.0, 0.0, 0.0, 0.0, 1.6450616033009017E9, 0.0, 2022-02-16 19:33:23.300
35.0, 793.3225382007658, 1067.8966431976296, 730.7652316419408, 1584.8349648229778, 0.09600000455975533, 0.0800000037997961, 1.008000047877431, 0.0, 0.0, 0.0, 0.0, 0.0, 1.6450616033166263E9, 0.0, 2022-02-16 19:33:23.316
35.0, 882.8781825397164, 1067.3057390046306, 720.6263628620654, 1548.0754881585017, 0.09600000455975533, 0.0800000037997961, 1.008000047877431, 0.0, 0.0, 0.0, 0.0, 0.0, 1.6450616033166263E9, 0.0, 2022-02-16 19:33:23.316
36.0, 919.5927804047242, 1048.643638225738, 711.272873072885, 1579.6140644848347, 0.09600000455975533, 0.0800000037997961, 1.008000047877431, 0.0, 0.0, 0.0, 0.0, 0.0, 1.6450616033173428E9, 0.0, 2022-02-16 19:33:23.317
36.0, 852.6485711978748, 1034.4881168934517, 708.4941274058074, 1694.185899627395, 0.09600000455975533, 0.0800000037997961, 1.008000047877431, 0.0, 0.0, 0.0, 0.0, 0.0, 1.6450616033173428E9, 0.0, 2022-02-16 19:33:23.317
37.0, 728.5025921687484, 1057.8961507161148, 718.3412839891389, 1771.856141907163, 0.09600000455975533, 0.0800000037997961, 1.008000047877431, 0.0, 0.0, 0.0, 0.0, 0.0, 1.6450616033472805E9, 0.0, 2022-02-16 19:33:23.347
37.0, 902.3069628095254, 1062.6832226593979, 708.6063244044781, 1660.4968808265403, 0.09600000455975533, 0.0800000037997961, 1.008000047877431, 0.0, 0.0, 0.0, 0.0, 0.0, 1.6450616033472805E9, 0.0, 2022-02-16 19:33:23.347
38.0, 806.0868167495355, 1056.5273473323323, 696.462869248353, 1871.4178885775618, 0.09600000455975533, 0.0800000037997961, 1.008000047877431, 0.0, 0.0, 0.0, 0.0, 0.0, 1.645061603348169E9, 0.0, 2022-02-16 19:33:23.348
38.0, 844.7050236919895, 1060.7459544823505, 707.5591524168849, 2078.5896466230042, 0.09600000455975533, 0.0800000037997961, 1.008000047877431, 0.0, 0.0, 0.0, 0.0, 0.0, 1.645061603348169E9, 0.0, 2022-02-16 19:33:23.348
39.0, 803.9513338748366, 1052.443376580719, 724.0034925220534, 2146.506229818333, 0.09600000455975533, 0.0800000037997961, 1.008000047877431, 0.0, 0.0, 0.0, 0.0, 0.0, 1.645061603348817E9, 0.0, 2022-02-16 19:33:23.348
39.0, 795.5178594747558, 1046.13416535547, 719.3585367770866, 1992.5869072419591, 0.09600000455975533, 0.0800000037997961, 1.008000047877431, 0.0, 0.0, 0.0, 0.0, 0.0, 1.645061603348817E9, 0.0, 2022-02-16 19:33:23.348
40.0, 854.6456777742133, 1051.3662853934802, 708.5726653048769, 2050.951785950456, 0.09600000455975533, 0.0800000037997961, 1.008000047877431, 0.0, 0.0, 0.0, 0.0, 0.0, 1.6450616033609188E9, 0.0, 2022-02-16 19:33:23.360
40.0, 762.1579518700019, 1045.5283015626483, 700.9170900955796, 2098.5345330866985, 0.09600000455975533, 0.0800000037997961, 1.008000047877431, 0.0, 0.0, 0.0, 0.0, 0.0, 1.6450616033609188E9, 0.0, 2022-02-16 19:33:23.360
41.0, 752.8755201799795, 1045.857412758749, 712.5780981574208, 2089.7046292913146, 0.09600000455975533, 0.0800000037997961, 1.008000047877431, 0.0, 0.0, 0.0, 0.0, 0.0, 1.6450616033766859E9, 0.0, 2022-02-16 19:33:23.376
41.0, 903.2606372982264, 1031.5934343277477, 713.9282020414248, 2072.5908470940776, 0.09600000455975533, 0.0800000037997961, 1.008000047877431, 0.0, 0.0, 0.0, 0.0, 0.0, 1.6450616033766859E9, 0.0, 2022-02-16 19:33:23.376
42.0, 819.8159894868731, 1054.130071460735, 729.1720342608169, 2151.304521461483, 0.09600000455975533, 0.0800000037997961, 1.008000047877431, 0.0, 0.0, 0.0, 0.0, 0.0, 1.6450616033772829E9, 0.0, 2022-02-16 19:33:23.377
42.0, 818.3200295045972, 1056.916296927724, 720.9966129576787, 2069.281035633292, 0.09600000455975533, 0.0800000037997961, 1.008000047877431, 0.0, 0.0, 0.0, 0.0, 0.0, 1.6450616033772829E9, 0.0, 2022-02-16 19:33:23.377
43.0, 805.8549429522827, 1019.1320876753889, 707.461915018037, 2065.8253680742346, 0.09600000455975533, 0.0800000037997961, 1.008000047877431, 0.0, 0.0, 0.0, 0.0, 0.0, 1.64506160339091E9, 0.0, 2022-02-16 19:33:23.390
43.0, 891.8427227335051, 1054.7957736528479, 720.7722189603373, 2203.756618340034, 0.09600000455975533, 0.0800000037997961, 1.008000047877431, 0.0, 0.0, 0.0, 0.0, 0.0, 1.64506160339091E9, 0.0, 2022-02-16 19:33:23.390
44.0, 931.0967126684263, 1067.2571203052066, 714.1077172392979, 2124.220165982377, 0.09600000455975533, 0.0800000037997961, 1.008000047877431, 0.0, 0.0, 0.0, 0.0, 0.0, 1.6450616034066453E9, 0.0, 2022-02-16 19:33:23.406
44.0, 859.1148582212627, 1059.6501637953334, 715.4241620237008, 2072.272955597844, 0.09600000455975533, 0.0800000037997961, 1.008000047877431, 0.0, 0.0, 0.0, 0.0, 0.0, 1.6450616034066453E9, 0.0, 2022-02-16 19:33:23.406
45.0, 834.5736347120255, 1049.6870703133754, 719.5268322750926, 2130.0880690128542, 0.09600000455975533, 0.0800000037997961, 1.008000047877431, 0.0, 0.0, 0.0, 0.0, 0.0, 1.6450616034073095E9, 0.0, 2022-02-16 19:33:23.407
45.0, 721.1723882555962, 1048.6735574253835, 711.6281635686755, 2202.2531785578467, 0.09600000455975533, 0.0800000037997961, 1.008000047877431, 0.0, 0.0, 0.0, 0.0, 0.0, 1.6450616034073095E9, 0.0, 2022-02-16 19:33:23.407
46.0, 845.5539809819311, 1053.105338872876, 712.4172824593261, 2092.2402814612724, 0.09600000455975533, 0.0800000037997961, 1.008000047877431, 0.0, 0.0, 0.0, 0.0, 0.0, 1.6450616034209807E9, 0.0, 2022-02-16 19:33:23.420
46.0, 798.82019113563, 1052.4583361805417, 724.8636695118621, 2143.936918548774, 0.09600000455975533, 0.0800000037997961, 1.008000047877431, 0.0, 0.0, 0.0, 0.0, 0.0, 1.6450616034209807E9, 0.0, 2022-02-16 19:33:23.420
47.0, 683.3507800037041, 1062.9076166567393, 728.6746275667101, 2095.1125246272422, 0.09600000455975533, 0.0800000037997961, 1.008000047877431, 0.0, 0.0, 0.0, 0.0, 0.0, 1.645061603436555E9, 0.0, 2022-02-16 19:33:23.436
47.0, 893.7276323111728, 1058.6254312074743, 728.0164051745087, 2095.247161025647, 0.09600000455975533, 0.0800000037997961, 1.008000047877431, 0.0, 0.0, 0.0, 0.0, 0.0, 1.645061603436555E9, 0.0, 2022-02-16 19:33:23.436
48.0, 886.0271783024073, 1046.2052234546281, 713.685108544305, 2157.1462451922707, 0.09600000455975533, 0.0800000037997961, 1.008000047877431, 0.0, 0.0, 0.0, 0.0, 0.0, 1.645061603437294E9, 0.0, 2022-02-16 19:33:23.437
48.0, 744.0343966847286, 1055.5362738440745, 713.2400604495779, 2130.925806602929, 0.09600000455975533, 0.0800000037997961, 1.008000047877431, 0.0, 0.0, 0.0, 0.0, 0.0, 1.645061603437294E9, 0.0, 2022-02-16 19:33:23.437
49.0, 830.1942118639126, 1042.973949892912, 728.9812993630767, 2125.4169339681976, 0.09600000455975533, 0.0800000037997961, 1.008000047877431, 0.0, 0.0, 0.0, 0.0, 0.0, 1.645061603451036E9, 0.0, 2022-02-16 19:33:23.451
49.0, 794.4744273871183, 1075.6419760058634, 723.8688561236486, 2056.374640886206, 0.09600000455975533, 0.0800000037997961, 1.008000047877431, 0.0, 0.0, 0.0, 0.0, 0.0, 1.645061603451036E9, 0.0, 2022-02-16 19:33:23.451
50.0, 819.9955046847463, 1068.5361660900526, 730.533357844688, 2057.8780806683935, 0.09600000455975533, 0.0800000037997961, 1.008000047877431, 0.0, 0.0, 0.0, 0.0, 0.0, 1.6450616034668999E9, 0.0, 2022-02-16 19:33:23.466
50.0, 855.0458470694721, 1074.8229379155673, 739.9616456329823, 2148.458457595203, 0.09600000455975533, 0.0800000037997961, 1.008000047877431, 0.0, 0.0, 0.0, 0.0, 0.0, 1.6450616034668999E9, 0.0, 2022-02-16 19:33:23.466
51.0, 889.4005680624396, 1074.2881322219037, 721.0340119572356, 2245.6958564431407, 0.09600000455975533, 0.06400000303983688, 1.008000047877431, 0.0, 0.0, 0.0, 0.0, 0.0, 1.6450616034675615E9, 0.0, 2022-02-16 19:33:23.467
51.0, 876.8980825105682, 1068.3416912923567, 720.0130192693323, 2218.1664528693072, 0.09600000455975533, 0.06400000303983688, 1.008000047877431, 0.0, 0.0, 0.0, 0.0, 0.0, 1.6450616034675615E9, 0.0, 2022-02-16 19:33:23.467
52.0, 708.9129962008446, 1073.932841726113, 744.9768514735624, 2167.251454872545, 0.09600000455975533, 0.06400000303983688, 1.008000047877431, 0.0, 0.0, 0.0, 0.0, 0.0, 1.6450616034810388E9, 0.0, 2022-02-16 19:33:23.481
52.0, 754.5883943596855, 1068.6895019882359, 728.4801527690142, 2047.9523861859925, 0.09600000455975533, 0.06400000303983688, 1.008000047877431, 0.0, 0.0, 0.0, 0.0, 0.0, 1.6450616034810388E9, 0.0, 2022-02-16 19:33:23.481
53.0, 952.8442309107631, 1062.6196443601511, 718.5282789869234, 2100.385783564765, 0.09600000455975533, 0.06400000303983688, 1.008000047877431, 0.0, 0.0, 0.0, 0.0, 0.0, 1.6450616034968517E9, 0.0, 2022-02-16 19:33:23.496
53.0, 857.7984134368598, 1068.917635885533, 738.2375517534092, 2137.205098628532, 0.09600000455975533, 0.06400000303983688, 1.008000047877431, 0.0, 0.0, 0.0, 0.0, 0.0, 1.6450616034968517E9, 0.0, 2022-02-16 19:33:23.496
54.0, 753.870333568193, 1069.5721183777787, 743.7314647883177, 2144.9092925372534, 0.09600000455975533, 0.06400000303983688, 1.008000047877431, 0.0, 0.0, 0.0, 0.0, 0.0, 1.6450616034973955E9, 0.0, 2022-02-16 19:33:23.497
54.0, 830.0221764659509, 1046.1079860557802, 727.3432231824845, 2177.2070685545914, 0.09600000455975533, 0.06400000303983688, 1.008000047877431, 0.0, 0.0, 0.0, 0.0, 0.0, 1.6450616034973955E9, 0.0, 2022-02-16 19:33:23.497
55.0, 807.2948044352233, 1053.0118413739838, 723.7903182245791, 2113.7521860064007, 0.09600000455975533, 0.06400000303983688, 1.008000047877431, 0.0, 0.0, 0.0, 0.0, 0.0, 1.6450616035109236E9, 0.0, 2022-02-16 19:33:23.510
55.0, 915.2470166562125, 1074.7930187159218, 738.4582058507949, 2166.933563376311, 0.09600000455975533, 0.06400000303983688, 1.008000047877431, 0.0, 0.0, 0.0, 0.0, 0.0, 1.6450616035109236E9, 0.0, 2022-02-16 19:33:23.510
56.0, 915.1049004578963, 1072.3359044450335, 727.5264782803133, 2231.9816433056258, 0.09600000455975533, 0.06400000303983688, 1.008000047877431, 0.0, 0.0, 0.0, 0.0, 0.0, 1.6450616035429645E9, 0.0, 2022-02-16 19:33:23.542
56.0, 861.9422225877643, 1065.708801723551, 706.3661243310198, 2173.616764597129, 0.09600000455975533, 0.06400000303983688, 1.008000047877431, 0.0, 0.0, 0.0, 0.0, 0.0, 1.6450616035429645E9, 0.0, 2022-02-16 19:33:23.542
57.0, 770.6774439690635, 1069.616997177247, 733.6262551080436, 2185.4049292574637, 0.09600000455975533, 0.06400000303983688, 1.008000047877431, 0.0, 0.0, 0.0, 0.0, 0.0, 1.6450616035436883E9, 0.0, 2022-02-16 19:33:23.543
57.0, 760.8452469855547, 1075.0585516127758, 746.6448468538001, 2156.660058198031, 0.09600000455975533, 0.06400000303983688, 1.008000047877431, 0.0, 0.0, 0.0, 0.0, 0.0, 1.6450616035436883E9, 0.0, 2022-02-16 19:33:23.543
58.0, 907.4792444482446, 1063.4947809497826, 740.5637695258483, 2151.0913471640088, 0.09600000455975533, 0.06400000303983688, 1.008000047877431, 0.0, 0.0, 0.0, 0.0, 0.0, 1.6450616035443656E9, 0.0, 2022-02-16 19:33:23.544
58.0, 932.1326649561524, 1067.9602214968763, 738.8209761464968, 2193.011885767337, 0.09600000455975533, 0.06400000303983688, 1.008000047877431, 0.0, 0.0, 0.0, 0.0, 0.0, 1.6450616035443656E9, 0.0, 2022-02-16 19:33:23.544
59.0, 815.4253469388932, 1073.499013331253, 744.6253008777276, 2268.920635167975, 0.09600000455975533, 0.06400000303983688, 1.008000047877431, 0.0, 0.0, 0.0, 0.0, 0.0, 1.6450616035451348E9, 0.0, 2022-02-16 19:33:23.545
59.0, 713.3672170480713, 1064.8448848337866, 729.833996552974, 2319.4167643697, 0.09600000455975533, 0.06400000303983688, 1.008000047877431, 0.0, 0.0, 0.0, 0.0, 0.0, 1.6450616035451348E9, 0.0, 2022-02-16 19:33:23.545
60.0, 827.9203526908532, 1074.561144918669, 730.8063705414534, 2112.2375265243463, 0.09600000455975533, 0.06400000303983688, 1.008000047877431, 0.0, 0.0, 0.0, 0.0, 0.0, 1.645061603555938E9, 0.0, 2022-02-16 19:33:23.555
60.0, 859.4776285169646, 1074.2656928221695, 739.6699334364384, 2015.3928171717562, 0.09600000455975533, 0.06400000303983688, 1.008000047877431, 0.0, 0.0, 0.0, 0.0, 0.0, 1.645061603555938E9, 0.0, 2022-02-16 19:33:23.555
61.0, 891.3827150389552, 1078.6563353701495, 728.218359772116, 2217.986937671434, 0.09600000455975533, 0.0800000037997961, 1.008000047877431, 0.0, 0.0, 0.0, 0.0, 0.0, 1.6450616035709465E9, 0.0, 2022-02-16 19:33:23.570
61.0, 860.1582903089002, 1063.4087632508017, 723.8090177243575, 2196.433894226793, 0.09600000455975533, 0.0800000037997961, 1.008000047877431, 0.0, 0.0, 0.0, 0.0, 0.0, 1.6450616035709465E9, 0.0, 2022-02-16 19:33:23.570
62.0, 868.8946966053918, 1073.8206447274424, 747.1347737479955, 2076.5626208470203, 0.09600000455975533, 0.0800000037997961, 1.008000047877431, 0.0, 0.0, 0.0, 0.0, 0.0, 1.6450616035865831E9, 0.0, 2022-02-16 19:33:23.586
62.0, 770.767201568, 1062.8440383574925, 753.9226921675727, 2112.7162337186746, 0.09600000455975533, 0.0800000037997961, 1.008000047877431, 0.0, 0.0, 0.0, 0.0, 0.0, 1.6450616035865831E9, 0.0, 2022-02-16 19:33:23.586
63.0, 762.1093331705779, 1086.2932110796683, 744.8347352752462, 2181.205021607224, 0.09600000455975533, 0.0800000037997961, 1.008000047877431, 0.0, 0.0, 0.0, 0.0, 0.0, 1.6450616035873904E9, 0.0, 2022-02-16 19:33:23.587
63.0, 840.4265781426802, 1093.0063315001316, 751.2972823986784, 2080.036987905856, 0.09600000455975533, 0.0800000037997961, 1.008000047877431, 0.0, 0.0, 0.0, 0.0, 0.0, 1.6450616035873904E9, 0.0, 2022-02-16 19:33:23.587
64.0, 826.4056932087988, 1088.6044692522846, 747.598521342501, 2228.036048852373, 0.09600000455975533, 0.0800000037997961, 1.008000047877431, 0.0, 0.0, 0.0, 0.0, 0.0, 1.6450616036009052E9, 0.0, 2022-02-16 19:33:23.600
64.0, 883.7495792293921, 1056.9462161273696, 713.1764821503311, 2182.121297096368, 0.09600000455975533, 0.0800000037997961, 1.008000047877431, 0.0, 0.0, 0.0, 0.0, 0.0, 1.6450616036009052E9, 0.0, 2022-02-16 19:33:23.600
65.0, 838.0480017708614, 1075.2231072108261, 765.0002758363262, 2066.0909009710886, 0.09600000455975533, 0.0800000037997961, 1.008000047877431, 0.0, 0.0, 0.0, 0.0, 0.0, 1.645061603616574E9, 0.0, 2022-02-16 19:33:23.616
65.0, 814.6549275480211, 1088.3800752549432, 781.1379441451281, 2089.9851217879914, 0.09600000455975533, 0.0800000037997961, 1.008000047877431, 0.0, 0.0, 0.0, 0.0, 0.0, 1.645061603616574E9, 0.0, 2022-02-16 19:33:23.616
66.0, 793.4347351994365, 1088.2304792567156, 777.3195062903687, 2191.0035594911315, 0.09600000455975533, 0.0800000037997961, 1.008000047877431, 0.0, 0.0, 0.0, 0.0, 0.0, 1.6450616036173291E9, 0.0, 2022-02-16 19:33:23.617
66.0, 764.4430307429284, 1076.984600089956, 778.8304258724675, 2053.3079229225405, 0.09600000455975533, 0.0800000037997961, 1.008000047877431, 0.0, 0.0, 0.0, 0.0, 0.0, 1.6450616036173291E9, 0.0, 2022-02-16 19:33:23.617
67.0, 869.8521109940484, 1069.4150425796397, 793.0757048036903, 2124.6726938770153, 0.09600000455975533, 0.0800000037997961, 1.008000047877431, 0.0, 0.0, 0.0, 0.0, 0.0, 1.6450616036309152E9, 0.0, 2022-02-16 19:33:23.630
67.0, 867.5707720210776, 1066.0154735199176, 786.4897409817204, 2187.357157034334, 0.09600000455975533, 0.0800000037997961, 1.008000047877431, 0.0, 0.0, 0.0, 0.0, 0.0, 1.6450616036309152E9, 0.0, 2022-02-16 19:33:23.630
68.0, 723.5995833268389, 1074.946354614105, 794.1640156907961, 2100.651316461619, 0.09600000455975533, 0.0800000037997961, 1.008000047877431, 0.0, 0.0, 0.0, 0.0, 0.0, 1.6450616036467776E9, 0.0, 2022-02-16 19:33:23.646
68.0, 814.6586674479768, 1092.0676166112535, 808.2222996242344, 2180.419642616529, 0.09600000455975533, 0.0800000037997961, 1.008000047877431, 0.0, 0.0, 0.0, 0.0, 0.0, 1.6450616036467776E9, 0.0, 2022-02-16 19:33:23.646
69.0, 920.0490481993183, 1074.0712180244736, 806.8123573409393, 2204.6167953298427, 0.09600000455975533, 0.0800000037997961, 1.008000047877431, 0.0, 0.0, 0.0, 0.0, 0.0, 1.6450616036473298E9, 0.0, 2022-02-16 19:33:23.647
69.0, 808.6299487194046, 1049.3504793173634, 796.2060010666028, 2078.279234926682, 0.09600000455975533, 0.0800000037997961, 1.008000047877431, 0.0, 0.0, 0.0, 0.0, 0.0, 1.6450616036473298E9, 0.0, 2022-02-16 19:33:23.647
70.0, 838.1265396699309, 1054.3507255581208, 788.7149814553559, 2210.2004659636877, 0.09600000455975533, 0.0800000037997961, 1.008000047877431, 0.0, 0.0, 0.0, 0.0, 0.0, 1.6450616036610272E9, 0.0, 2022-02-16 19:33:23.661
70.0, 868.1953353136778, 1064.1941422414966, 793.5506720980629, 2325.340765899513, 0.09600000455975533, 0.0800000037997961, 1.008000047877431, 0.0, 0.0, 0.0, 0.0, 0.0, 1.6450616036610272E9, 0.0, 2022-02-16 19:33:23.661
