%OpenBCI Raw EEG Data
%Number of channels = 4
%Sample Rate = 200 Hz
%Board = OpenBCI_GUI$BoardGanglionBLE
Sample Index, EXG Channel 0, EXG Channel 1, EXG Channel 2, EXG Channel 3, Accel Channel 0, Accel Channel 1, Accel Channel 2, Other, Other, Other, Other, Other, Timestamp, Other, Timestamp (Formatted)
2.0, -6.574744122102857, -10.909288170747459, -14.305117330513895, -4.622516345232725, -0.01600000075995922, 0.0, 0.0, 0.0, 0.0, 0.0, 0.0, 0.0, 1.6483379980641556E9, 0.0, 2022-03-26 18:39:58.064
2.0, -7.932327806018293, -13.901208135299385, -10.0790303805843, -8.351196601055562, -0.01600000075995922, 0.0, 0.0, 0.0, 0.0, 0.0, 0.0, 0.0, 1.6483379980641556E9, 0.0, 2022-03-26 18:39:58.064
3.0, -11.28327816631645, -15.236352419480681, -10.991565969772637, -7.65931510925293, -0.01600000075995922, 0.0, 0.0, 0.0, 0.0, 0.0, 0.0, 0.0, 1.6483379980786088E9, 0.0, 2022-03-26 18:39:58.078
3.0, -16.657514402642846, -24.354228511452675, -23.176160025410354, -14.92594072315842, -0.01600000075995922, 0.0, 0.0, 0.0, 0.0, 0.0, 0.0, 0.0, 1.6483379980786088E9, 0.0, 2022-03-26 18:39:58.078
4.0, -13.912427835166454, -16.87442860007286, -19.585856067948043, -14.278938030824065, -0.01600000075995922, 0.0, 0.0, 0.0, 0.0, 0.0, 0.0, 0.0, 1.6483379980793495E9, 0.0, 2022-03-26 18:39:58.079
4.0, -7.457360511645675, -12.143455156125128, -8.130542503669858, -9.914474782533944, -0.01600000075995922, 0.0, 0.0, 0.0, 0.0, 0.0, 0.0, 0.0, 1.6483379980793495E9, 0.0, 2022-03-26 18:39:58.079
5.0, -4.615036545321345, -8.197860702872276, -1.5632781814783812, 5.179761438630521, -0.01600000075995922, 0.0, 0.0, 0.0, 0.0, 0.0, 0.0, 0.0, 1.64833799809296E9, 0.0, 2022-03-26 18:39:58.092
5.0, -9.880815682932734, -16.975405898876488, -10.183747579343617, 11.002785669639707, -0.01600000075995922, 0.0, 0.0, 0.0, 0.0, 0.0, 0.0, 0.0, 1.64833799809296E9, 0.0, 2022-03-26 18:39:58.092
6.0, -12.405248153023422, -14.08446323312819, -13.336483241990209, 5.153582138940692, -0.01600000075995922, 0.0, 0.0, 0.0, 0.0, 0.0, 0.0, 0.0, 1.6483379981087022E9, 0.0, 2022-03-26 18:39:58.108
6.0, -5.348056936636567, -8.86730279494077, -2.849803766235709, 1.61189688090235, -0.01600000075995922, 0.0, 0.0, 0.0, 0.0, 0.0, 0.0, 0.0, 1.6483379981087022E9, 0.0, 2022-03-26 18:39:58.108
7.0, -10.187487479299307, -5.538791834376752, -2.5655713696032763, 2.543131969869137, -0.01600000075995922, 0.0, 0.0, 0.0, 0.0, 0.0, 0.0, 0.0, 1.648337998109302E9, 0.0, 2022-03-26 18:39:58.109
7.0, -7.307764513418078, -4.143809150904417, -0.5011465940624475, 3.2424932615831494, -0.01600000075995922, 0.0, 0.0, 0.0, 0.0, 0.0, 0.0, 0.0, 1.648337998109302E9, 0.0, 2022-03-26 18:39:58.109
8.0, -5.194721038453281, -9.215113490819931, 0.7928587906062603, 5.340577136725187, -0.01600000075995922, 0.0, 0.0, 0.0, 0.0, 0.0, 0.0, 0.0, 1.6483379981229453E9, 0.0, 2022-03-26 18:39:58.122
8.0, -3.418268559500575, -1.9597075767815113, 3.22753366176039, 10.262285478413105, -0.01600000075995922, 0.0, 0.0, 0.0, 0.0, 0.0, 0.0, 0.0, 1.6483379981229453E9, 0.0, 2022-03-26 18:39:58.122
9.0, -5.594890333712101, -5.901562130078673, -1.772712578997016, -2.576791069470346, -0.01600000075995922, 0.0, 0.0, 0.0, 0.0, 0.0, 0.0, 0.0, 1.6483379981385736E9, 0.0, 2022-03-26 18:39:58.138
9.0, -9.177714491263032, -4.914228541776538, -6.167095026932657, -3.504286258481443, -0.01600000075995922, 0.0, 0.0, 0.0, 0.0, 0.0, 0.0, 0.0, 1.6483379981385736E9, 0.0, 2022-03-26 18:39:58.138
10.0, -9.499345887452364, -2.4309349711984396, -7.135729115456343, 9.951873782090843, -0.01600000075995922, 0.0, 0.9600000455975533, 0.0, 0.0, 0.0, 0.0, 0.0, 1.6483379981392949E9, 0.0, 2022-03-26 18:39:58.139
10.0, -9.67886108532548, -6.42888802383095, 0.46000769454985857, 10.011712181381881, -0.01600000075995922, 0.0, 0.9600000455975533, 0.0, 0.0, 0.0, 0.0, 0.0, 1.6483379981392949E9, 0.0, 2022-03-26 18:39:58.139
11.0, -6.4214082239195704, -1.9447479769587517, 1.2304270854219794, 6.877676018513739, -0.01600000075995922, 0.4800000227987766, 0.9600000455975533, 0.0, 0.0, 0.0, 0.0, 0.0, 1.6483379981692755E9, 0.0, 2022-03-26 18:39:58.169
11.0, -6.705640620552003, -12.184594055637717, -3.986733352765441, -3.6912812562659383, -0.01600000075995922, 0.4800000227987766, 0.9600000455975533, 0.0, 0.0, 0.0, 0.0, 0.0, 1.6483379981692755E9, 0.0, 2022-03-26 18:39:58.169
12.0, -16.373282006010413, -10.965386670082808, -8.343716801144183, -17.585009591653943, -0.04800000227987766, 0.4800000227987766, 0.9600000455975533, 0.0, 0.0, 0.0, 0.0, 0.0, 1.6483379981701243E9, 0.0, 2022-03-26 18:39:58.170
12.0, -16.575236603617668, -12.973712946288288, -7.734113108366728, -20.790103853680193, -0.04800000227987766, 0.4800000227987766, 0.9600000455975533, 0.0, 0.0, 0.0, 0.0, 0.0, 1.6483379981701243E9, 0.0, 2022-03-26 18:39:58.170
13.0, -21.34734894707799, -17.136221596971154, -17.199799896217883, -16.15262790862471, -0.04800000227987766, 0.4800000227987766, 0.9600000455975533, 0.0, 0.0, 0.0, 0.0, 0.0, 1.6483379981708512E9, 0.0, 2022-03-26 18:39:58.170
13.0, -10.984086169861257, -9.566664086654782, -23.69600611925125, -10.718553273007274, -0.04800000227987766, 0.4800000227987766, 0.9600000455975533, 0.0, 0.0, 0.0, 0.0, 0.0, 1.6483379981708512E9, 0.0, 2022-03-26 18:39:58.170
14.0, -6.384009224362671, -16.05539050977677, -17.484032292850316, -23.116321626119316, -0.04800000227987766, 0.4800000227987766, 0.9600000455975533, 0.0, 0.0, 0.0, 0.0, 0.0, 1.6483379981830895E9, 0.0, 2022-03-26 18:39:58.183
14.0, -4.3644632482901216, -12.139715256169438, -2.1841015741229057, -8.257699102163315, -0.04800000227987766, 0.4800000227987766, 0.9600000455975533, 0.0, 0.0, 0.0, 0.0, 0.0, 1.6483379981830895E9, 0.0, 2022-03-26 18:39:58.183
15.0, -3.2237937618047, -7.203047314658761, 10.363262777216733, 6.997352817095816, -0.04800000227987766, 0.4800000227987766, 0.9600000455975533, 0.0, 0.0, 0.0, 0.0, 0.0, 1.6483379982148964E9, 0.0, 2022-03-26 18:39:58.214
15.0, -6.507425922900438, -2.4346748711541295, 16.96792609896511, 3.4519276591017842, -0.04800000227987766, 0.4800000227987766, 0.9600000455975533, 0.0, 0.0, 0.0, 0.0, 0.0, 1.6483379982148964E9, 0.0, 2022-03-26 18:39:58.214
16.0, -6.125956127420068, -8.642908797599375, 25.883847593329847, 6.4214082239195704, -0.04800000227987766, 0.4800000227987766, 0.9600000455975533, 0.0, 0.0, 0.0, 0.0, 0.0, 1.6483379982157872E9, 0.0, 2022-03-26 18:39:58.215
16.0, -6.155875327065587, -3.9680338529869914, 37.52241625543684, 16.223686007782817, -0.04800000227987766, 0.4800000227987766, 0.9600000455975533, 0.0, 0.0, 0.0, 0.0, 0.0, 1.6483379982157872E9, 0.0, 2022-03-26 18:39:58.215
17.0, -5.587410533800721, -8.773805296048522, 43.07990758959204, 16.13766830880195, -0.04800000227987766, 0.4800000227987766, 0.9600000455975533, 0.0, 0.0, 0.0, 0.0, 0.0, 1.6483379982164168E9, 0.0, 2022-03-26 18:39:58.216
17.0, -5.924001529812813, -7.371342812664807, 52.01452858373523, 19.604555567726493, -0.04800000227987766, 0.4800000227987766, 0.9600000455975533, 0.0, 0.0, 0.0, 0.0, 0.0, 1.6483379982164168E9, 0.0, 2022-03-26 18:39:58.216
18.0, -11.073843768797815, -12.50622545182705, 50.99727579578757, 18.95755287539214, -0.04800000227987766, 0.4800000227987766, 0.9600000455975533, 0.0, 0.0, 0.0, 0.0, 0.0, 1.6483379982171888E9, 0.0, 2022-03-26 18:39:58.217
18.0, 2.378576371818781, -3.459407459013164, 63.69049624539912, 27.215251977555454, -0.04800000227987766, 0.4800000227987766, 0.9600000455975533, 0.0, 0.0, 0.0, 0.0, 0.0, 1.6483379982171888E9, 0.0, 2022-03-26 18:39:58.217
19.0, 3.1976144621148705, 1.6193766808137298, 66.4393227128312, 27.290049976669252, -0.04800000227987766, 0.4800000227987766, 0.9600000455975533, 0.0, 0.0, 0.0, 0.0, 0.0, 1.6483379982280898E9, 0.0, 2022-03-26 18:39:58.228
19.0, 3.182654862292111, -0.8489572899416089, 56.35655243229121, 26.62060788460076, -0.04800000227987766, 0.4800000227987766, 0.9600000455975533, 0.0, 0.0, 0.0, 0.0, 0.0, 1.6483379982280898E9, 0.0, 2022-03-26 18:39:58.228
20.0, 6.634582521393895, -0.5722046932205558, 60.48540198337287, 30.102454743348062, -0.04800000227987766, 0.4800000227987766, 0.9600000455975533, 0.0, 0.0, 0.0, 0.0, 0.0, 1.6483379982429523E9, 0.0, 2022-03-26 18:39:58.242
20.0, 2.569311269558966, -0.9686340885236859, 56.28175443317741, 24.51504420954734, -0.04800000227987766, 0.4800000227987766, 0.9600000455975533, 0.0, 0.0, 0.0, 0.0, 0.0, 1.6483379982429523E9, 0.0, 2022-03-26 18:39:58.242
21.0, 4.5664178458973765, 2.782485567033291, 55.99378213658929, 22.207525936886668, -0.04800000227987766, 0.3840000182390213, 0.9600000455975533, 0.0, 0.0, 0.0, 0.0, 0.0, 1.648337998258571E9, 0.0, 2022-03-26 18:39:58.258
21.0, 6.264332425780594, 1.043432087637484, 51.97338968422264, 29.649926848709583, -0.04800000227987766, 0.3840000182390213, 0.9600000455975533, 0.0, 0.0, 0.0, 0.0, 0.0, 1.648337998258571E9, 0.0, 2022-03-26 18:39:58.258
22.0, 7.322724113240838, -1.2678260849788785, 49.48635621368885, 30.659699836745858, 0.03200000151991844, 0.3840000182390213, 0.9600000455975533, 0.0, 0.0, 0.0, 0.0, 0.0, 1.6483379982593424E9, 0.0, 2022-03-26 18:39:58.259
22.0, 7.161908415146172, -2.01580607611686, 57.87495181430131, 34.65391298942268, 0.03200000151991844, 0.3840000182390213, 0.9600000455975533, 0.0, 0.0, 0.0, 0.0, 0.0, 1.6483379982593424E9, 0.0, 2022-03-26 18:39:58.259
23.0, 9.712520184926689, -1.731573679484427, 54.957829848863184, 35.10270098410547, 0.03200000151991844, 0.3840000182390213, 0.9600000455975533, 0.0, 0.0, 0.0, 0.0, 0.0, 1.648337998272931E9, 0.0, 2022-03-26 18:39:58.272
23.0, 13.213066543452442, 4.521539046429098, 56.498668630607426, 35.03164288494736, 0.03200000151991844, 0.3840000182390213, 0.9600000455975533, 0.0, 0.0, 0.0, 0.0, 0.0, 1.648337998272931E9, 0.0, 2022-03-26 18:39:58.272
24.0, 9.981792981736362, -1.929788377135992, 47.53786833677441, 21.650280843488872, 0.03200000151991844, 0.3840000182390213, 0.9600000455975533, 0.0, 0.0, 0.0, 0.0, 0.0, 1.6483379982885804E9, 0.0, 2022-03-26 18:39:58.288
24.0, 13.029811445623636, -1.327664484269917, 42.870473192073405, 22.222485536709428, 0.03200000151991844, 0.3840000182390213, 0.9600000455975533, 0.0, 0.0, 0.0, 0.0, 0.0, 1.6483379982885804E9, 0.0, 2022-03-26 18:39:58.288
25.0, 12.730619449168444, -5.789365131407976, 41.36329350993037, 31.478737927041948, 0.03200000151991844, 0.3840000182390213, 0.9600000455975533, 0.0, 0.0, 0.0, 0.0, 0.0, 1.6483379982892866E9, 0.0, 2022-03-26 18:39:58.289
25.0, 13.912427835166454, 3.496806458570063, 42.71713729389012, 23.931619816459715, 0.03200000151991844, 0.3840000182390213, 0.9600000455975533, 0.0, 0.0, 0.0, 0.0, 0.0, 1.6483379982892866E9, 0.0, 2022-03-26 18:39:58.289
26.0, 9.794797983951867, 2.494513270445168, 35.30091568175703, 17.33817619457841, 0.03200000151991844, 0.3840000182390213, 0.9600000455975533, 0.0, 0.0, 0.0, 0.0, 0.0, 1.6483379983029795E9, 0.0, 2022-03-26 18:39:58.302
26.0, 12.367849153466523, 1.4136821832507849, 46.868426244705915, 15.658961114473641, 0.03200000151991844, 0.3840000182390213, 0.9600000455975533, 0.0, 0.0, 0.0, 0.0, 0.0, 1.6483379983029795E9, 0.0, 2022-03-26 18:39:58.302
27.0, 9.480646387673914, 1.7988918786868453, 35.90303957462311, 22.323462835513055, 0.03200000151991844, 0.3840000182390213, 0.9600000455975533, 0.0, 0.0, 0.0, 0.0, 0.0, 1.6483379983186011E9, 0.0, 2022-03-26 18:39:58.318
27.0, 11.017745269462466, 1.084570987150073, 33.169172707013786, 20.775144253857434, 0.03200000151991844, 0.3840000182390213, 0.9600000455975533, 0.0, 0.0, 0.0, 0.0, 0.0, 1.6483379983186011E9, 0.0, 2022-03-26 18:39:58.318
28.0, 7.614436309784651, 2.610450169071555, 32.028503220528364, 25.263024200685322, 0.03200000151991844, 0.3840000182390213, 0.9600000455975533, 0.0, 0.0, 0.0, 0.0, 0.0, 1.6483379983193233E9, 0.0, 2022-03-26 18:39:58.319
28.0, 10.123909180052578, 5.119923039339483, 42.496483196504414, 23.845602117478848, 0.03200000151991844, 0.3840000182390213, 0.9600000455975533, 0.0, 0.0, 0.0, 0.0, 0.0, 1.6483379983193233E9, 0.0, 2022-03-26 18:39:58.319
29.0, 8.945840694010258, 7.25166601408273, 39.08569443691522, 21.930773340165615, 0.03200000151991844, 0.3840000182390213, 0.9600000455975533, 0.0, 0.0, 0.0, 0.0, 0.0, 1.6483379983331585E9, 0.0, 2022-03-26 18:39:58.333
29.0, 5.852943430654705, 3.653882256709039, 44.014882578514516, 22.671273531392217, 0.03200000151991844, 0.3840000182390213, 0.9600000455975533, 0.0, 0.0, 0.0, 0.0, 0.0, 1.6483379983331585E9, 0.0, 2022-03-26 18:39:58.333
30.0, 11.417914564721286, 12.334190053865314, 48.76081562228501, 40.1291265245527, 0.03200000151991844, 0.3840000182390213, 0.9120000433176756, 0.0, 0.0, 0.0, 0.0, 0.0, 1.648337998348642E9, 0.0, 2022-03-26 18:39:58.348
30.0, 8.164201603271067, 8.553151198662817, 41.44183140899986, 23.7521046185866, 0.03200000151991844, 0.3840000182390213, 0.9120000433176756, 0.0, 0.0, 0.0, 0.0, 0.0, 1.648337998348642E9, 0.0, 2022-03-26 18:39:58.348
31.0, 6.264332425780594, 7.831350507214665, 42.515182696282864, 24.286910312250257, 0.03200000151991844, 0.41600001975893974, 0.9120000433176756, 0.0, 0.0, 0.0, 0.0, 0.0, 1.6483379983494298E9, 0.0, 2022-03-26 18:39:58.349
31.0, 13.800230836495757, 4.955367441289127, 40.22262402344495, 25.988564792089164, 0.03200000151991844, 0.41600001975893974, 0.9120000433176756, 0.0, 0.0, 0.0, 0.0, 0.0, 1.6483379983494298E9, 0.0, 2022-03-26 18:39:58.349
32.0, 10.03041168116033, 1.8587302779778838, 32.3127356171608, 19.27918427158147, 0.03200000151991844, 0.41600001975893974, 0.9120000433176756, 0.0, 0.0, 0.0, 0.0, 0.0, 1.6483379983629491E9, 0.0, 2022-03-26 18:39:58.362
32.0, 8.601769898086786, 2.6403693687170744, 26.22791838925332, 14.854882624000311, 0.03200000151991844, 0.41600001975893974, 0.9120000433176756, 0.0, 0.0, 0.0, 0.0, 0.0, 1.6483379983629491E9, 0.0, 2022-03-26 18:39:58.362
33.0, 11.152381667867303, 11.717106561176479, 37.09606766048819, 26.489711386151612, 0.03200000151991844, 0.41600001975893974, 0.9120000433176756, 0.0, 0.0, 0.0, 0.0, 0.0, 1.6483379983786173E9, 0.0, 2022-03-26 18:39:58.378
33.0, 3.294851860962808, 2.8311042664572597, 33.51324350293726, 19.088449373841286, 0.03200000151991844, 0.41600001975893974, 0.9120000433176756, 0.0, 0.0, 0.0, 0.0, 0.0, 1.6483379983786173E9, 0.0, 2022-03-26 18:39:58.378
34.0, 10.505378975532949, 9.936914182268083, 43.637152682989836, 23.045263526961207, 0.03200000151991844, 0.41600001975893974, 0.9120000433176756, 0.0, 0.0, 0.0, 0.0, 0.0, 1.6483379983793263E9, 0.0, 2022-03-26 18:39:58.379
34.0, 9.27495189011097, 12.88021544739604, 41.04914191365242, 21.900854140520096, 0.03200000151991844, 0.41600001975893974, 0.9120000433176756, 0.0, 0.0, 0.0, 0.0, 0.0, 1.6483379983793263E9, 0.0, 2022-03-26 18:39:58.379
35.0, 14.144301632419229, 9.319830689579248, 37.627133454196155, 28.703732159920037, 0.03200000151991844, 0.41600001975893974, 0.9120000433176756, 0.0, 0.0, 0.0, 0.0, 0.0, 1.6483379983929143E9, 0.0, 2022-03-26 18:39:58.392
35.0, 13.415021141059697, 12.124755656346679, 34.010650197044015, 23.224778724834323, 0.03200000151991844, 0.41600001975893974, 0.9120000433176756, 0.0, 0.0, 0.0, 0.0, 0.0, 1.6483379983929143E9, 0.0, 2022-03-26 18:39:58.392
36.0, 13.542177739553154, 10.942947270348668, 32.451111915521324, 16.650034602731466, 0.03200000151991844, 0.41600001975893974, 0.9120000433176756, 0.0, 0.0, 0.0, 0.0, 0.0, 1.6483379984085937E9, 0.0, 2022-03-26 18:39:58.408
36.0, 10.209926879033446, 4.659915344789624, 33.52072330284864, 24.98253170400858, 0.03200000151991844, 0.41600001975893974, 0.9120000433176756, 0.0, 0.0, 0.0, 0.0, 0.0, 1.6483379984085937E9, 0.0, 2022-03-26 18:39:58.408
37.0, 9.749919184483588, 4.5664178458973765, 25.32660249993205, 20.842462453059852, 0.03200000151991844, 0.41600001975893974, 0.9120000433176756, 0.0, 0.0, 0.0, 0.0, 0.0, 1.6483379984092915E9, 0.0, 2022-03-26 18:39:58.409
37.0, 14.417314329184592, 1.1930280858650804, 17.614928791299462, 10.363262777216733, 0.03200000151991844, 0.41600001975893974, 0.9120000433176756, 0.0, 0.0, 0.0, 0.0, 0.0, 1.6483379984092915E9, 0.0, 2022-03-26 18:39:58.409
38.0, 13.134528644382954, 6.0548980282619596, 21.534343944862485, 16.54531740397215, 0.03200000151991844, 0.41600001975893974, 0.9120000433176756, 0.0, 0.0, 0.0, 0.0, 0.0, 1.64833799842292E9, 0.0, 2022-03-26 18:39:58.422
38.0, 4.921708341687918, 1.529619081877172, 15.034397821873426, 11.126202368177474, 0.03200000151991844, 0.41600001975893974, 0.9120000433176756, 0.0, 0.0, 0.0, 0.0, 0.0, 1.64833799842292E9, 0.0, 2022-03-26 18:39:58.422
39.0, 5.116183139383793, 3.1115967631340027, 18.55738358013332, 6.892635618336499, 0.03200000151991844, 0.41600001975893974, 0.9120000433176756, 0.0, 0.0, 0.0, 0.0, 0.0, 1.6483379984385996E9, 0.0, 2022-03-26 18:39:58.438
39.0, 4.214867250062525, 4.521539046429098, 19.873828364536166, 11.922801058739424, 0.03200000151991844, 0.41600001975893974, 0.9120000433176756, 0.0, 0.0, 0.0, 0.0, 0.0, 1.6483379984385996E9, 0.0, 2022-03-26 18:39:58.438
40.0, 5.112443239428103, -3.377129659987986, 18.12355518527329, 14.548210827633739, 0.03200000151991844, 0.41600001975893974, 0.944000044837594, 0.0, 0.0, 0.0, 0.0, 0.0, 1.6483379984393597E9, 0.0, 2022-03-26 18:39:58.439
40.0, 9.66016158554703, -1.2528664851561189, 21.003278151154518, 10.352043077349663, 0.03200000151991844, 0.41600001975893974, 0.944000044837594, 0.0, 0.0, 0.0, 0.0, 0.0, 1.6483379984393597E9, 0.0, 2022-03-26 18:39:58.439
41.0, -1.0583916874602437, -5.026425540447235, 15.471966116689146, 2.5506117697805166, 0.03200000151991844, 0.43200002051889896, 0.944000044837594, 0.0, 0.0, 0.0, 0.0, 0.0, 1.648337998452901E9, 0.0, 2022-03-26 18:39:58.452
41.0, 2.696467868052423, 0.6283031925559044, 21.231412048451602, 13.979746034368873, 0.03200000151991844, 0.43200002051889896, 0.944000044837594, 0.0, 0.0, 0.0, 0.0, 0.0, 1.648337998452901E9, 0.0, 2022-03-26 18:39:58.452
42.0, 4.177468250505626, 3.4743670588359237, 21.631581343710423, 3.62022315710783, 0.0, 0.43200002051889896, 0.944000044837594, 0.0, 0.0, 0.0, 0.0, 0.0, 1.6483379984685798E9, 0.0, 2022-03-26 18:39:58.468
42.0, 3.8333974545821548, -2.3636167719960213, 20.50213155709207, 15.748718713410199, 0.0, 0.43200002051889896, 0.944000044837594, 0.0, 0.0, 0.0, 0.0, 0.0, 1.6483379984685798E9, 0.0, 2022-03-26 18:39:58.468
43.0, -0.9200153890997171, 1.1144901867955923, 14.46967292856425, 13.381362041458488, 0.0, 0.43200002051889896, 0.944000044837594, 0.0, 0.0, 0.0, 0.0, 0.0, 1.6483379984693396E9, 0.0, 2022-03-26 18:39:58.469
43.0, 12.969973046332598, 4.054051551967859, 24.242031512781978, 18.50502498075366, 0.0, 0.43200002051889896, 0.944000044837594, 0.0, 0.0, 0.0, 0.0, 0.0, 1.6483379984693396E9, 0.0, 2022-03-26 18:39:58.469
44.0, 2.3561369720846415, 2.2364601735025644, 16.08904960937798, 13.26168524287641, 0.0, 0.43200002051889896, 0.944000044837594, 0.0, 0.0, 0.0, 0.0, 0.0, 1.6483379984829156E9, 0.0, 2022-03-26 18:39:58.482
44.0, 3.590303957462311, -0.8377375900745392, 21.474505545571446, 17.139961496926844, 0.0, 0.43200002051889896, 0.944000044837594, 0.0, 0.0, 0.0, 0.0, 0.0, 1.6483379984829156E9, 0.0, 2022-03-26 18:39:58.482
45.0, 0.6245632926002145, -2.943301265127957, 26.755244283005595, 23.123801426030695, 0.0, 0.43200002051889896, 0.944000044837594, 0.0, 0.0, 0.0, 0.0, 0.0, 1.648337998498577E9, 0.0, 2022-03-26 18:39:58.498
45.0, 3.534205458126962, 1.9110888773575425, 22.58899573236704, 17.566310091875494, 0.0, 0.43200002051889896, 0.944000044837594, 0.0, 0.0, 0.0, 0.0, 0.0, 1.648337998498577E9, 0.0, 2022-03-26 18:39:58.498
46.0, -3.859576754271984, -4.43926124740392, 15.30741051863879, 11.825563659891486, 0.0, 0.43200002051889896, 0.944000044837594, 0.0, 0.0, 0.0, 0.0, 0.0, 1.6483379984993045E9, 0.0, 2022-03-26 18:39:58.499
46.0, 1.4772604824975133, -4.128849551081657, 9.409588288515806, 7.65557520929724, 0.0, 0.43200002051889896, 0.944000044837594, 0.0, 0.0, 0.0, 0.0, 0.0, 1.6483379984993045E9, 0.0, 2022-03-26 18:39:58.499
47.0, 0.8564370898529887, -0.19073489774018526, 3.059238163754344, 5.23585993796587, 0.0, 0.43200002051889896, 0.944000044837594, 0.0, 0.0, 0.0, 0.0, 0.0, 1.6483379985129185E9, 0.0, 2022-03-26 18:39:58.512
47.0, -4.712273944169283, -2.2252404736354947, 5.826764130964875, -1.4735205825418234, 0.0, 0.43200002051889896, 0.944000044837594, 0.0, 0.0, 0.0, 0.0, 0.0, 1.6483379985129185E9, 0.0, 2022-03-26 18:39:58.512
48.0, 1.1331896865740418, 1.5931973811239004, 11.178560967557132, 5.467733735218644, 0.0, 0.43200002051889896, 0.944000044837594, 0.0, 0.0, 0.0, 0.0, 0.0, 1.6483379985450127E9, 0.0, 2022-03-26 18:39:58.545
48.0, -1.9671873766928911, -0.2505732970312238, 16.638814902864397, 6.671981520950794, 0.0, 0.43200002051889896, 0.944000044837594, 0.0, 0.0, 0.0, 0.0, 0.0, 1.6483379985450127E9, 0.0, 2022-03-26 18:39:58.545
49.0, -2.3561369720846415, -4.300884949043393, 13.29160444252193, 1.5034397821873426, 0.0, 0.43200002051889896, 0.944000044837594, 0.0, 0.0, 0.0, 0.0, 0.0, 1.6483379985456774E9, 0.0, 2022-03-26 18:39:58.545
49.0, -1.0621315874159336, -1.1780684860423207, 9.188934191130102, 6.03245862852782, 0.0, 0.43200002051889896, 0.944000044837594, 0.0, 0.0, 0.0, 0.0, 0.0, 1.6483379985456774E9, 0.0, 2022-03-26 18:39:58.545
50.0, 4.065271251834929, 4.663655244745314, 15.131635220721364, 15.139115020632744, 0.0, 0.43200002051889896, 0.9600000455975533, 0.0, 0.0, 0.0, 0.0, 0.0, 1.648337998546444E9, 0.0, 2022-03-26 18:39:58.546
50.0, -1.1593689862638712, -0.9910734882578254, 13.28038474265486, 9.918214682489634, 0.0, 0.43200002051889896, 0.9600000455975533, 0.0, 0.0, 0.0, 0.0, 0.0, 1.648337998546444E9, 0.0, 2022-03-26 18:39:58.546
51.0, -12.629642150364816, -8.83738359529525, 0.3029318964108825, -2.206540973857045, 0.0, 0.41600001975893974, 0.9600000455975533, 0.0, 0.0, 0.0, 0.0, 0.0, 1.6483379985471675E9, 0.0, 2022-03-26 18:39:58.547
51.0, -2.1055636750534177, -4.297145049087703, 3.302331660874188, 6.268072325736284, 0.0, 0.41600001975893974, 0.9600000455975533, 0.0, 0.0, 0.0, 0.0, 0.0, 1.6483379985471675E9, 0.0, 2022-03-26 18:39:58.547
52.0, -0.2692727968096733, 6.238153126090765, 13.112089244648814, 12.225732955150306, -0.01600000075995922, 0.41600001975893974, 0.9600000455975533, 0.0, 0.0, 0.0, 0.0, 0.0, 1.6483379985579543E9, 0.0, 2022-03-26 18:39:58.557
52.0, -1.9522277768701315, 0.4787071943283081, 3.3659099601209164, -6.406448624096811, -0.01600000075995922, 0.41600001975893974, 0.9600000455975533, 0.0, 0.0, 0.0, 0.0, 0.0, 1.6483379985579543E9, 0.0, 2022-03-26 18:39:58.557
53.0, 2.255159673281014, 10.322123877704144, 16.896867999807, 6.563524422235787, -0.01600000075995922, 0.41600001975893974, 0.9600000455975533, 0.0, 0.0, 0.0, 0.0, 0.0, 1.648337998573074E9, 0.0, 2022-03-26 18:39:58.573
53.0, -3.0442785639315844, 9.888295482844114, 13.602016138844192, 4.0465717520564795, -0.01600000075995922, 0.41600001975893974, 0.9600000455975533, 0.0, 0.0, 0.0, 0.0, 0.0, 1.648337998573074E9, 0.0, 2022-03-26 18:39:58.573
54.0, -1.6193766808137298, 14.731465925462544, 4.775852243416011, 9.196413991041481, -0.01600000075995922, 0.41600001975893974, 0.9600000455975533, 0.0, 0.0, 0.0, 0.0, 0.0, 1.6483379985886266E9, 0.0, 2022-03-26 18:39:58.588
54.0, 2.0793843753635883, 18.030057686381042, 18.4900653809309, 19.29040397144854, -0.01600000075995922, 0.41600001975893974, 0.9600000455975533, 0.0, 0.0, 0.0, 0.0, 0.0, 1.6483379985886266E9, 0.0, 2022-03-26 18:39:58.588
55.0, 3.1901346622034907, 15.531804515980184, 20.797583653591573, 20.419853758066893, -0.01600000075995922, 0.41600001975893974, 0.9600000455975533, 0.0, 0.0, 0.0, 0.0, 0.0, 1.6483379985893447E9, 0.0, 2022-03-26 18:39:58.589
55.0, 0.684401691891253, 19.604555567726493, 24.866594805382192, 15.180253920145333, -0.01600000075995922, 0.41600001975893974, 0.9600000455975533, 0.0, 0.0, 0.0, 0.0, 0.0, 1.6483379985893447E9, 0.0, 2022-03-26 18:39:58.589
56.0, 0.28049249667674303, 14.428534029051661, 21.7138591427356, 12.427687552757561, -0.01600000075995922, 0.41600001975893974, 0.9600000455975533, 0.0, 0.0, 0.0, 0.0, 0.0, 1.6483379986030016E9, 0.0, 2022-03-26 18:39:58.603
56.0, 4.921708341687918, 11.851742959581316, 15.449526716955006, 16.608895703218877, -0.01600000075995922, 0.41600001975893974, 0.9600000455975533, 0.0, 0.0, 0.0, 0.0, 0.0, 1.6483379986030016E9, 0.0, 2022-03-26 18:39:58.603
57.0, 3.025579064153135, 7.939807605929673, 14.86984222382307, 11.967679858207703, -0.01600000075995922, 0.41600001975893974, 0.9600000455975533, 0.0, 0.0, 0.0, 0.0, 0.0, 1.6483379986186092E9, 0.0, 2022-03-26 18:39:58.618
57.0, -0.7928587906062603, 2.490773370489478, 2.1130434749647975, -5.478953435085714, -0.01600000075995922, 0.41600001975893974, 0.9600000455975533, 0.0, 0.0, 0.0, 0.0, 0.0, 1.6483379986186092E9, 0.0, 2022-03-26 18:39:58.618
58.0, 0.14211619831621647, 0.12341669853776693, 4.917968441732228, -0.6357829924672842, -0.01600000075995922, 0.41600001975893974, 0.9600000455975533, 0.0, 0.0, 0.0, 0.0, 0.0, 1.6483379986193607E9, 0.0, 2022-03-26 18:39:58.619
58.0, 6.253112725913525, 8.87104269489646, 6.7392997201532125, 10.239846078678966, -0.01600000075995922, 0.41600001975893974, 0.9600000455975533, 0.0, 0.0, 0.0, 0.0, 0.0, 1.6483379986193607E9, 0.0, 2022-03-26 18:39:58.619
59.0, 1.1331896865740418, 5.344317036680877, 3.7548595555126667, 0.7704193908721209, -0.01600000075995922, 0.41600001975893974, 0.9600000455975533, 0.0, 0.0, 0.0, 0.0, 0.0, 1.648337998632928E9, 0.0, 2022-03-26 18:39:58.632
59.0, 3.384609459899366, 1.649295880459249, 4.81325124297291, 3.0068795643746853, -0.01600000075995922, 0.41600001975893974, 0.9600000455975533, 0.0, 0.0, 0.0, 0.0, 0.0, 1.648337998632928E9, 0.0, 2022-03-26 18:39:58.632
60.0, 4.00917275249958, 1.772712578997016, 8.01460560504347, 12.408988052979112, -0.01600000075995922, 0.41600001975893974, 0.9600000455975533, 0.0, 0.0, 0.0, 0.0, 0.0, 1.6483379986485815E9, 0.0, 2022-03-26 18:39:58.648
60.0, 1.0583916874602437, 3.3210311606526375, 19.178206972777843, 11.29075796622783, -0.01600000075995922, 0.41600001975893974, 0.9600000455975533, 0.0, 0.0, 0.0, 0.0, 0.0, 1.6483379986485815E9, 0.0, 2022-03-26 18:39:58.648
61.0, -0.4338283948600292, 12.49126585200429, 20.812543253414333, 7.778991907835007, -0.01600000075995922, 0.43200002051889896, 0.9600000455975533, 0.0, 0.0, 0.0, 0.0, 0.0, 1.6483379986493175E9, 0.0, 2022-03-26 18:39:58.649
61.0, 2.172881874255836, 21.470765645615757, 25.584655596874654, 27.75005767121911, -0.01600000075995922, 0.43200002051889896, 0.9600000455975533, 0.0, 0.0, 0.0, 0.0, 0.0, 1.6483379986493175E9, 0.0, 2022-03-26 18:39:58.649
62.0, -2.221500573679805, 9.469426687806845, 26.50093108601868, 13.68055403791368, -0.01600000075995922, 0.43200002051889896, 0.9600000455975533, 0.0, 0.0, 0.0, 0.0, 0.0, 1.6483379986629412E9, 0.0, 2022-03-26 18:39:58.662
62.0, -1.1406694864854217, 11.26083876658231, 23.72218541894108, 10.583916874602437, -0.01600000075995922, 0.43200002051889896, 0.9600000455975533, 0.0, 0.0, 0.0, 0.0, 0.0, 1.6483379986629412E9, 0.0, 2022-03-26 18:39:58.662
63.0, 1.970927276648581, 14.656667926348746, 20.651727555319667, 15.66270101442933, -0.01600000075995922, 0.43200002051889896, 0.9600000455975533, 0.0, 0.0, 0.0, 0.0, 0.0, 1.6483379986786337E9, 0.0, 2022-03-26 18:39:58.678
63.0, 5.796844931319356, 17.528911092318594, 29.470411650836468, 24.94139280449599, -0.01600000075995922, 0.43200002051889896, 0.9600000455975533, 0.0, 0.0, 0.0, 0.0, 0.0, 1.6483379986786337E9, 0.0, 2022-03-26 18:39:58.678
64.0, 4.1662485506385565, 17.64484799094498, 18.729418978095055, 16.421900705434382, -0.01600000075995922, 0.43200002051889896, 0.9600000455975533, 0.0, 0.0, 0.0, 0.0, 0.0, 1.6483379986793306E9, 0.0, 2022-03-26 18:39:58.679
64.0, 3.818437854759395, 13.026071545667946, 13.616975738666952, 9.488126187585294, -0.01600000075995922, 0.43200002051889896, 0.9600000455975533, 0.0, 0.0, 0.0, 0.0, 0.0, 1.6483379986793306E9, 0.0, 2022-03-26 18:39:58.679
65.0, 2.6852481681853533, 14.821223524399102, 17.70468639023602, 16.54905730392784, -0.01600000075995922, 0.43200002051889896, 0.9600000455975533, 0.0, 0.0, 0.0, 0.0, 0.0, 1.6483379986929212E9, 0.0, 2022-03-26 18:39:58.692
65.0, -6.514905722811818, 10.415621376596391, 0.482447094283998, 4.0465717520564795, -0.01600000075995922, 0.43200002051889896, 0.9600000455975533, 0.0, 0.0, 0.0, 0.0, 0.0, 1.6483379986929212E9, 0.0, 2022-03-26 18:39:58.692
66.0, 0.9611542886123061, 14.331296630203724, 15.943193511106074, 7.457360511645675, -0.01600000075995922, 0.43200002051889896, 0.9600000455975533, 0.0, 0.0, 0.0, 0.0, 0.0, 1.6483379987086172E9, 0.0, 2022-03-26 18:39:58.708
66.0, 6.279292025603354, 8.687787597067654, 18.677060378715396, 18.9725124752149, -0.01600000075995922, 0.43200002051889896, 0.9600000455975533, 0.0, 0.0, 0.0, 0.0, 0.0, 1.6483379987086172E9, 0.0, 2022-03-26 18:39:58.708
67.0, 3.990473252721131, 8.785024995915592, 7.689234308898449, 7.711673708632588, -0.01600000075995922, 0.43200002051889896, 0.9600000455975533, 0.0, 0.0, 0.0, 0.0, 0.0, 1.6483379987093177E9, 0.0, 2022-03-26 18:39:58.709
67.0, 8.8560830950737, 14.791304324753582, 18.10859558545053, 7.535898410715163, -0.01600000075995922, 0.43200002051889896, 0.9600000455975533, 0.0, 0.0, 0.0, 0.0, 0.0, 1.6483379987093177E9, 0.0, 2022-03-26 18:39:58.709
68.0, 11.515151963569224, 17.76078488957137, 20.633028055541217, 18.87901497632265, -0.01600000075995922, 0.43200002051889896, 0.9600000455975533, 0.0, 0.0, 0.0, 0.0, 0.0, 1.64833799872297E9, 0.0, 2022-03-26 18:39:58.722
68.0, 1.888649477623403, 13.003632145933807, 13.400061541236937, 14.267718330956995, -0.01600000075995922, 0.43200002051889896, 0.9600000455975533, 0.0, 0.0, 0.0, 0.0, 0.0, 1.64833799872297E9, 0.0, 2022-03-26 18:39:58.722
69.0, 6.182054626755416, 5.684647932648659, 8.86356289498508, 4.932928041554987, -0.01600000075995922, 0.43200002051889896, 0.9600000455975533, 0.0, 0.0, 0.0, 0.0, 0.0, 1.648337998738602E9, 0.0, 2022-03-26 18:39:58.738
69.0, 6.698160820640624, 7.042231616564095, 7.442400911822915, 10.692373973317444, -0.01600000075995922, 0.43200002051889896, 0.9600000455975533, 0.0, 0.0, 0.0, 0.0, 0.0, 1.648337998738602E9, 0.0, 2022-03-26 18:39:58.738
70.0, 9.28991148993373, 16.309703706763685, 14.391135029494762, 16.642554802820086, -0.01600000075995922, 0.43200002051889896, 0.944000044837594, 0.0, 0.0, 0.0, 0.0, 0.0, 1.6483379987394192E9, 0.0, 2022-03-26 18:39:58.739
70.0, 14.959599822759628, 17.839322788640857, 23.34819542337209, 19.170727172866464, -0.01600000075995922, 0.43200002051889896, 0.944000044837594, 0.0, 0.0, 0.0, 0.0, 0.0, 1.6483379987394192E9, 0.0, 2022-03-26 18:39:58.739
71.0, 7.109549815766513, 7.218006914481521, 15.464486316777766, 11.24961906671524, -0.01600000075995922, 0.41600001975893974, 0.944000044837594, 0.0, 0.0, 0.0, 0.0, 0.0, 1.6483379987693374E9, 0.0, 2022-03-26 18:39:58.769
71.0, 13.616975738666952, 14.271458230912685, 19.499838368967175, 23.957799116149545, -0.01600000075995922, 0.41600001975893974, 0.944000044837594, 0.0, 0.0, 0.0, 0.0, 0.0, 1.6483379987693374E9, 0.0, 2022-03-26 18:39:58.769
72.0, 9.719999984838068, 8.265178902074695, 22.005571339279413, 22.14394763763994, -0.01600000075995922, 0.41600001975893974, 0.944000044837594, 0.0, 0.0, 0.0, 0.0, 0.0, 1.6483379987701008E9, 0.0, 2022-03-26 18:39:58.770
72.0, 8.766325496137142, 11.560030763037503, 21.489465145394206, 16.683693702332675, -0.01600000075995922, 0.41600001975893974, 0.944000044837594, 0.0, 0.0, 0.0, 0.0, 0.0, 1.6483379987701008E9, 0.0, 2022-03-26 18:39:58.770
73.0, 3.911935353651643, 16.825809900648892, 26.62808768451214, 16.49669870454818, -0.01600000075995922, 0.41600001975893974, 0.944000044837594, 0.0, 0.0, 0.0, 0.0, 0.0, 1.6483379987707393E9, 0.0, 2022-03-26 18:39:58.770
73.0, 13.433720640838146, 23.445432822220027, 30.719538236036897, 19.817729865200818, -0.01600000075995922, 0.41600001975893974, 0.944000044837594, 0.0, 0.0, 0.0, 0.0, 0.0, 1.6483379987707393E9, 0.0, 2022-03-26 18:39:58.770
74.0, 9.331050389446318, 19.241785272024572, 31.78540972340852, 28.385840663686395, -0.01600000075995922, 0.41600001975893974, 0.944000044837594, 0.0, 0.0, 0.0, 0.0, 0.0, 1.6483379987829497E9, 0.0, 2022-03-26 18:39:58.782
74.0, 2.703947667963803, 14.46219312865287, 26.691665983758867, 20.53205075673759, -0.01600000075995922, 0.41600001975893974, 0.944000044837594, 0.0, 0.0, 0.0, 0.0, 0.0, 1.6483379987829497E9, 0.0, 2022-03-26 18:39:58.782
75.0, 6.9412543177604675, 15.887095011770725, 19.548457068391144, 26.878660981543362, -0.01600000075995922, 0.41600001975893974, 0.944000044837594, 0.0, 0.0, 0.0, 0.0, 0.0, 1.648337998798571E9, 0.0, 2022-03-26 18:39:58.798
75.0, 4.297145049087703, 15.075536721386015, 19.37642167042941, 18.329249682836235, -0.01600000075995922, 0.41600001975893974, 0.944000044837594, 0.0, 0.0, 0.0, 0.0, 0.0, 1.648337998798571E9, 0.0, 2022-03-26 18:39:58.798
76.0, 1.9597075767815113, 9.518045387230814, 25.82400919403881, 11.399215064942837, -0.01600000075995922, 0.41600001975893974, 0.944000044837594, 0.0, 0.0, 0.0, 0.0, 0.0, 1.648337998799353E9, 0.0, 2022-03-26 18:39:58.799
76.0, 4.6075567454099655, 10.0790303805843, 13.942347034811974, 16.44808000512421, -0.01600000075995922, 0.41600001975893974, 0.944000044837594, 0.0, 0.0, 0.0, 0.0, 0.0, 1.648337998799353E9, 0.0, 2022-03-26 18:39:58.799
77.0, 5.2919584373012185, 7.3451635129749775, 14.753905325196683, 10.602616374380887, -0.01600000075995922, 0.41600001975893974, 0.944000044837594, 0.0, 0.0, 0.0, 0.0, 0.0, 1.6483379988130584E9, 0.0, 2022-03-26 18:39:58.813
77.0, 2.9246017653495073, 5.396675636060536, 9.398368588648736, 3.4481877591460943, -0.01600000075995922, 0.41600001975893974, 0.944000044837594, 0.0, 0.0, 0.0, 0.0, 0.0, 1.6483379988130584E9, 0.0, 2022-03-26 18:39:58.813
78.0, -0.018699499778449535, 5.0526048401370645, -4.001692952588201, -3.1564755626022816, -0.01600000075995922, 0.41600001975893974, 0.944000044837594, 0.0, 0.0, 0.0, 0.0, 0.0, 1.6483379988285732E9, 0.0, 2022-03-26 18:39:58.828
78.0, 7.049711416475475, 10.89806847088039, 5.336837236769497, 3.949334353208542, -0.01600000075995922, 0.41600001975893974, 0.944000044837594, 0.0, 0.0, 0.0, 0.0, 0.0, 1.6483379988285732E9, 0.0, 2022-03-26 18:39:58.828
79.0, 5.875382830388844, 7.670534809119999, 19.436260069720447, 6.986133117228746, -0.01600000075995922, 0.41600001975893974, 0.944000044837594, 0.0, 0.0, 0.0, 0.0, 0.0, 1.648337998829296E9, 0.0, 2022-03-26 18:39:58.829
79.0, 6.03245862852782, 1.0770911872386932, 11.799384360201657, 4.065271251834929, -0.01600000075995922, 0.41600001975893974, 0.944000044837594, 0.0, 0.0, 0.0, 0.0, 0.0, 1.648337998829296E9, 0.0, 2022-03-26 18:39:58.829
80.0, 5.329357436858118, 3.3210311606526375, 10.146348579786718, 10.09398998040706, -0.01600000075995922, 0.41600001975893974, 0.944000044837594, 0.0, 0.0, 0.0, 0.0, 0.0, 1.6483379988429196E9, 0.0, 2022-03-26 18:39:58.842
80.0, 0.1047171987593174, 6.817837619222701, 10.84570987150073, -0.7292804913595319, -0.01600000075995922, 0.41600001975893974, 0.944000044837594, 0.0, 0.0, 0.0, 0.0, 0.0, 1.6483379988429196E9, 0.0, 2022-03-26 18:39:58.842
81.0, 2.3075182726606727, 1.847510578110814, 6.275552125647664, -6.103516727685928, -0.01600000075995922, 0.41600001975893974, 0.944000044837594, 0.0, 0.0, 0.0, 0.0, 0.0, 1.6483379988585827E9, 0.0, 2022-03-26 18:39:58.858
81.0, 3.1489957626909018, 3.496806458570063, 5.273258937522769, 4.072751051746309, -0.01600000075995922, 0.41600001975893974, 0.944000044837594, 0.0, 0.0, 0.0, 0.0, 0.0, 1.6483379988585827E9, 0.0, 2022-03-26 18:39:58.858
82.0, 2.7151673678308725, 7.098330115899444, 8.010865705087781, 3.21257406193763, -0.01600000075995922, 0.41600001975893974, 0.944000044837594, 0.0, 0.0, 0.0, 0.0, 0.0, 1.6483379988592992E9, 0.0, 2022-03-26 18:39:58.859
82.0, -0.8489572899416089, 8.564370898529887, 9.65642168559134, 2.3860561717301607, -0.01600000075995922, 0.41600001975893974, 0.944000044837594, 0.0, 0.0, 0.0, 0.0, 0.0, 1.6483379988592992E9, 0.0, 2022-03-26 18:39:58.859
83.0, 3.9194151535630226, 13.452420140616596, 15.131635220721364, 14.335036530159414, -0.01600000075995922, 0.41600001975893974, 0.944000044837594, 0.0, 0.0, 0.0, 0.0, 0.0, 1.6483379988729203E9, 0.0, 2022-03-26 18:39:58.872
83.0, 2.7189072677865624, 10.703593673184514, 16.406941105611622, 12.04995765723288, -0.01600000075995922, 0.41600001975893974, 0.944000044837594, 0.0, 0.0, 0.0, 0.0, 0.0, 1.6483379988729203E9, 0.0, 2022-03-26 18:39:58.872
84.0, 1.2566063851118088, 8.755105796270072, 16.06287030968815, 12.427687552757561, -0.01600000075995922, 0.41600001975893974, 0.944000044837594, 0.0, 0.0, 0.0, 0.0, 0.0, 1.648337998888648E9, 0.0, 2022-03-26 18:39:58.888
84.0, 2.3972758715972304, 8.975759893655777, 9.974313181824982, 10.669934573583305, -0.01600000075995922, 0.41600001975893974, 0.944000044837594, 0.0, 0.0, 0.0, 0.0, 0.0, 1.648337998888648E9, 0.0, 2022-03-26 18:39:58.888
85.0, 4.723493644036353, 10.04537128098309, 11.313197365961969, 16.05913040973246, -0.01600000075995922, 0.41600001975893974, 0.944000044837594, 0.0, 0.0, 0.0, 0.0, 0.0, 1.6483379988893745E9, 0.0, 2022-03-26 18:39:58.889
85.0, 2.737606767565012, 8.336237001232803, 17.65980759076774, 7.23670641425997, -0.01600000075995922, 0.41600001975893974, 0.944000044837594, 0.0, 0.0, 0.0, 0.0, 0.0, 1.6483379988893745E9, 0.0, 2022-03-26 18:39:58.889
86.0, 4.383162748068571, 10.636275473982096, 11.305717566050589, 1.1743285860866308, -0.01600000075995922, 0.41600001975893974, 0.944000044837594, 0.0, 0.0, 0.0, 0.0, 0.0, 1.6483379989029741E9, 0.0, 2022-03-26 18:39:58.902
86.0, 4.356983448378742, 11.530111563391984, 15.917014211416245, 6.911335118114948, -0.01600000075995922, 0.41600001975893974, 0.944000044837594, 0.0, 0.0, 0.0, 0.0, 0.0, 1.6483379989029741E9, 0.0, 2022-03-26 18:39:58.902
87.0, -0.2580530969426036, 7.692974208854139, 4.00917275249958, 6.470026923343539, -0.01600000075995922, 0.41600001975893974, 0.944000044837594, 0.0, 0.0, 0.0, 0.0, 0.0, 1.6483379989187608E9, 0.0, 2022-03-26 18:39:58.918
87.0, 1.9260484771803021, 10.961646770127118, 5.598630233667791, 0.8377375900745392, -0.01600000075995922, 0.41600001975893974, 0.944000044837594, 0.0, 0.0, 0.0, 0.0, 0.0, 1.6483379989187608E9, 0.0, 2022-03-26 18:39:58.918
88.0, 14.46593302860856, 13.721692937426269, 21.051896850578487, -5.344317036680877, -0.01600000075995922, 0.41600001975893974, 0.944000044837594, 0.0, 0.0, 0.0, 0.0, 0.0, 1.6483379989193995E9, 0.0, 2022-03-26 18:39:58.919
88.0, 10.03789148107171, 11.451573664322495, 16.219946107827127, 11.492712563835084, -0.01600000075995922, 0.41600001975893974, 0.944000044837594, 0.0, 0.0, 0.0, 0.0, 0.0, 1.6483379989193995E9, 0.0, 2022-03-26 18:39:58.919
89.0, 9.402108488604426, 8.411035000346601, 7.214267014525831, 4.3644632482901216, -0.01600000075995922, 0.41600001975893974, 0.944000044837594, 0.0, 0.0, 0.0, 0.0, 0.0, 1.6483379989328873E9, 0.0, 2022-03-26 18:39:58.932
89.0, 6.612143121659756, 11.343116565607488, 6.791658319532871, -1.4323816830292344, -0.01600000075995922, 0.41600001975893974, 0.944000044837594, 0.0, 0.0, 0.0, 0.0, 0.0, 1.6483379989328873E9, 0.0, 2022-03-26 18:39:58.932
90.0, 8.175421303138137, 13.568357039242983, 3.343470560386777, 5.538791834376752, -0.01600000075995922, 0.41600001975893974, 0.944000044837594, 0.0, 0.0, 0.0, 0.0, 0.0, 1.6483379989486897E9, 0.0, 2022-03-26 18:39:58.948
90.0, 10.666194673627615, 11.548811063170433, -4.499099646694958, -1.3351442841812968, -0.01600000075995922, 0.41600001975893974, 0.944000044837594, 0.0, 0.0, 0.0, 0.0, 0.0, 1.6483379989486897E9, 0.0, 2022-03-26 18:39:58.948
91.0, 6.470026923343539, 11.904101558960974, -4.147549050860107, -5.886602530255914, -0.01600000075995922, 0.43200002051889896, 0.944000044837594, 0.0, 0.0, 0.0, 0.0, 0.0, 1.6483379989493756E9, 0.0, 2022-03-26 18:39:58.949
91.0, 5.662208532914519, 10.299684477970004, 9.559184286743402, -1.4585609827190638, -0.01600000075995922, 0.43200002051889896, 0.944000044837594, 0.0, 0.0, 0.0, 0.0, 0.0, 1.6483379989493756E9, 0.0, 2022-03-26 18:39:58.949
92.0, -1.533358981832862, 8.624209297820926, 19.34650247078389, 7.9098884062841535, -0.01600000075995922, 0.43200002051889896, 0.944000044837594, 0.0, 0.0, 0.0, 0.0, 0.0, 1.6483379989629257E9, 0.0, 2022-03-26 18:39:58.962
92.0, -6.215713726356626, 0.13837629836052656, 16.53035780414939, -3.2798922611400485, -0.01600000075995922, 0.43200002051889896, 0.944000044837594, 0.0, 0.0, 0.0, 0.0, 0.0, 1.6483379989629257E9, 0.0, 2022-03-26 18:39:58.962
93.0, -6.866456318646669, -9.540484786964953, 9.918214682489634, -3.6015236573293805, -0.01600000075995922, 0.43200002051889896, 0.944000044837594, 0.0, 0.0, 0.0, 0.0, 0.0, 1.6483379989786415E9, 0.0, 2022-03-26 18:39:58.978
93.0, -2.5206925701349974, -8.220300102606416, 13.048510945402086, 6.627102721482515, -0.01600000075995922, 0.43200002051889896, 0.944000044837594, 0.0, 0.0, 0.0, 0.0, 0.0, 1.6483379989786415E9, 0.0, 2022-03-26 18:39:58.978
94.0, -10.793351272121072, -7.2628857139497995, 20.318876459263265, 8.732666396535933, -0.01600000075995922, 0.43200002051889896, 0.944000044837594, 0.0, 0.0, 0.0, 0.0, 0.0, 1.6483379989793835E9, 0.0, 2022-03-26 18:39:58.979
94.0, -5.318137736991048, -7.094590215943754, 28.741131159476936, 11.952720258384943, -0.01600000075995922, 0.43200002051889896, 0.944000044837594, 0.0, 0.0, 0.0, 0.0, 0.0, 1.6483379989793835E9, 0.0, 2022-03-26 18:39:58.979
95.0, -6.215713726356626, -16.46677950490266, 15.984332410618663, 15.374728717841208, -0.01600000075995922, 0.43200002051889896, 0.944000044837594, 0.0, 0.0, 0.0, 0.0, 0.0, 1.6483379989929223E9, 0.0, 2022-03-26 18:39:58.992
95.0, -5.7370065320283175, -10.711073473095894, 19.540977268479764, 13.69925353769213, -0.01600000075995922, 0.43200002051889896, 0.944000044837594, 0.0, 0.0, 0.0, 0.0, 0.0, 1.6483379989929223E9, 0.0, 2022-03-26 18:39:58.992
96.0, -5.550011534243822, -13.979746034368873, 21.37352824676782, 13.931127334944904, -0.01600000075995922, 0.43200002051889896, 0.944000044837594, 0.0, 0.0, 0.0, 0.0, 0.0, 1.6483379990086217E9, 0.0, 2022-03-26 18:39:59.008
96.0, -0.8938360894098878, -10.363262777216733, 20.210419360548258, 24.649680607952178, -0.01600000075995922, 0.43200002051889896, 0.944000044837594, 0.0, 0.0, 0.0, 0.0, 0.0, 1.6483379990086217E9, 0.0, 2022-03-26 18:39:59.008
97.0, -2.7151673678308725, -13.523478239774704, 20.307656759396195, 23.606248520314693, -0.01600000075995922, 0.43200002051889896, 0.944000044837594, 0.0, 0.0, 0.0, 0.0, 0.0, 1.648337999009353E9, 0.0, 2022-03-26 18:39:59.009
97.0, -2.0382454758509994, -16.51539820432663, 18.94259327556938, 14.623008826747537, -0.01600000075995922, 0.43200002051889896, 0.944000044837594, 0.0, 0.0, 0.0, 0.0, 0.0, 1.648337999009353E9, 0.0, 2022-03-26 18:39:59.009
98.0, -0.523585993796587, -10.49789917562157, 17.37557519413531, 22.282323936000466, -0.01600000075995922, 0.43200002051889896, 0.944000044837594, 0.0, 0.0, 0.0, 0.0, 0.0, 1.6483379990401845E9, 0.0, 2022-03-26 18:39:59.040
98.0, 0.6582223922014236, -10.920507870614529, 12.180854155682027, 21.201492848806083, -0.01600000075995922, 0.43200002051889896, 0.944000044837594, 0.0, 0.0, 0.0, 0.0, 0.0, 1.6483379990401845E9, 0.0, 2022-03-26 18:39:59.040
99.0, 2.0382454758509994, -6.215713726356626, 25.498637897893786, 23.7521046185866, -0.01600000075995922, 0.43200002051889896, 0.944000044837594, 0.0, 0.0, 0.0, 0.0, 0.0, 1.6483379990410454E9, 0.0, 2022-03-26 18:39:59.041
99.0, 0.6619622921571136, -11.350596365518868, 17.405494393780828, 20.737745254300535, -0.01600000075995922, 0.43200002051889896, 0.944000044837594, 0.0, 0.0, 0.0, 0.0, 0.0, 1.6483379990410454E9, 0.0, 2022-03-26 18:39:59.041
100.0, 0.3253712961450219, -12.128495556302369, 22.345902235247195, 32.26785681769252, -0.01600000075995922, 0.43200002051889896, 0.944000044837594, 0.0, 0.0, 0.0, 0.0, 0.0, 1.6483379990414927E9, 0.0, 2022-03-26 18:39:59.041
100.0, 3.4107887595891953, -2.7151673678308725, 33.199091906659305, 33.67405920103192, -0.01600000075995922, 0.43200002051889896, 0.944000044837594, 0.0, 0.0, 0.0, 0.0, 0.0, 1.6483379990414927E9, 0.0, 2022-03-26 18:39:59.041
0.0, 486.9424540307373, 43.100477039348334, 798.8968590847217, 390.7784064700827, -0.01600000075995922, 0.43200002051889896, 0.944000044837594, 0.0, 0.0, 0.0, 0.0, 0.0, 1.6483379990423577E9, 0.0, 2022-03-26 18:39:59.042
1.0, 487.1481485283002, 35.044732534792274, 790.8411145801656, 381.2117423834279, -0.01600000075995922, 0.43200002051889896, 0.944000044837594, 0.0, 0.0, 0.0, 0.0, 0.0, 1.6483379990529287E9, 0.0, 2022-03-26 18:39:59.052
1.0, 489.18265410419554, 40.43766827089712, 788.4213993088342, 380.93872968666255, -0.01600000075995922, 0.43200002051889896, 0.944000044837594, 0.0, 0.0, 0.0, 0.0, 0.0, 1.6483379990529287E9, 0.0, 2022-03-26 18:39:59.052
2.0, 486.9648934304714, 38.2947055962868, 778.2152123297565, 375.71034954860806, -0.01600000075995922, 0.43200002051889896, 0.944000044837594, 0.0, 0.0, 0.0, 0.0, 0.0, 1.6483379990679307E9, 0.0, 2022-03-26 18:39:59.067
2.0, 484.98274645395577, 34.37529044272378, 779.958005709108, 379.1772368075326, -0.01600000075995922, 0.43200002051889896, 0.944000044837594, 0.0, 0.0, 0.0, 0.0, 0.0, 1.6483379990679307E9, 0.0, 2022-03-26 18:39:59.067
3.0, 491.6098491754383, 36.03206612309441, 785.8483481393196, 387.4872945090756, -0.01600000075995922, 0.43200002051889896, 0.944000044837594, 0.0, 0.0, 0.0, 0.0, 0.0, 1.6483379990835583E9, 0.0, 2022-03-26 18:39:59.083
3.0, 488.453373612836, 42.640469344798476, 784.9395524500869, 382.60672506690025, -0.01600000075995922, 0.43200002051889896, 0.944000044837594, 0.0, 0.0, 0.0, 0.0, 0.0, 1.6483379990835583E9, 0.0, 2022-03-26 18:39:59.083
4.0, 488.06816391739994, 39.869203477632254, 779.3297025165521, 371.63385859690607, -0.01600000075995922, 0.43200002051889896, 0.944000044837594, 0.0, 0.0, 0.0, 0.0, 0.0, 1.64833799908433E9, 0.0, 2022-03-26 18:39:59.084
4.0, 495.5629234286025, 38.84073098981753, 786.0615224367939, 395.1877485178411, -0.01600000075995922, 0.43200002051889896, 0.944000044837594, 0.0, 0.0, 0.0, 0.0, 0.0, 1.64833799908433E9, 0.0, 2022-03-26 18:39:59.084
5.0, 494.5980292400345, 45.5949903097935, 787.2358510228805, 391.7470405586064, -0.01600000075995922, 0.43200002051889896, 0.944000044837594, 0.0, 0.0, 0.0, 0.0, 0.0, 1.6483379990979931E9, 0.0, 2022-03-26 18:39:59.097
5.0, 495.533004228957, 43.56422463385388, 785.7286713407375, 383.4482025569305, -0.01600000075995922, 0.43200002051889896, 0.944000044837594, 0.0, 0.0, 0.0, 0.0, 0.0, 1.6483379990979931E9, 0.0, 2022-03-26 18:39:59.097
6.0, 495.58162292838097, 44.315944524947554, 782.7255316763185, 384.79830644093454, -0.01600000075995922, 0.43200002051889896, 0.944000044837594, 0.0, 0.0, 0.0, 0.0, 0.0, 1.648337999130197E9, 0.0, 2022-03-26 18:39:59.130
6.0, 497.65726740378886, 46.5972834979184, 786.940398926381, 387.08712521381676, -0.01600000075995922, 0.43200002051889896, 0.944000044837594, 0.0, 0.0, 0.0, 0.0, 0.0, 1.648337999130197E9, 0.0, 2022-03-26 18:39:59.130
7.0, 494.96079953573644, 44.49171982286498, 791.390879873652, 380.74799478892237, -0.01600000075995922, 0.43200002051889896, 0.944000044837594, 0.0, 0.0, 0.0, 0.0, 0.0, 1.6483379991307497E9, 0.0, 2022-03-26 18:39:59.130
7.0, 502.07408925145864, 53.23560591926798, 789.3301949980669, 387.9959209030494, -0.01600000075995922, 0.43200002051889896, 0.944000044837594, 0.0, 0.0, 0.0, 0.0, 0.0, 1.6483379991307497E9, 0.0, 2022-03-26 18:39:59.130
8.0, 500.6753666680306, 54.701646701898426, 789.6742657939903, 390.4866942735389, -0.01600000075995922, 0.43200002051889896, 0.944000044837594, 0.0, 0.0, 0.0, 0.0, 0.0, 1.6483379991314983E9, 0.0, 2022-03-26 18:39:59.131
8.0, 502.7846702430397, 56.49679868062958, 795.4860703251325, 400.5245857546106, -0.01600000075995922, 0.43200002051889896, 0.944000044837594, 0.0, 0.0, 0.0, 0.0, 0.0, 1.6483379991314983E9, 0.0, 2022-03-26 18:39:59.131
9.0, 503.73460483178496, 54.735305801499635, 792.9915570546873, 389.60781778395176, -0.01600000075995922, 0.43200002051889896, 0.944000044837594, 0.0, 0.0, 0.0, 0.0, 0.0, 1.648337999132248E9, 0.0, 2022-03-26 18:39:59.132
9.0, 503.1362208388746, 55.887194987852126, 788.7579903048463, 393.777806234546, -0.01600000075995922, 0.43200002051889896, 0.944000044837594, 0.0, 0.0, 0.0, 0.0, 0.0, 1.648337999132248E9, 0.0, 2022-03-26 18:39:59.132
10.0, 496.8307495135814, 47.61079638591036, 780.6012685014866, 383.2462479593232, -0.01600000075995922, 0.43200002051889896, 0.944000044837594, 0.0, 0.0, 0.0, 0.0, 0.0, 1.6483379991428938E9, 0.0, 2022-03-26 18:39:59.142
10.0, 490.4093412896618, 51.40679484093562, 771.3150969115086, 375.2578216539696, -0.01600000075995922, 0.43200002051889896, 0.944000044837594, 0.0, 0.0, 0.0, 0.0, 0.0, 1.6483379991428938E9, 0.0, 2022-03-26 18:39:59.142
11.0, 498.2294720970094, 52.738199225161225, 785.0704489485361, 386.7729736175388, -0.01600000075995922, 0.41600001975893974, 0.944000044837594, 0.0, 0.0, 0.0, 0.0, 0.0, 1.6483379991579163E9, 0.0, 2022-03-26 18:39:59.157
11.0, 498.99615158792585, 48.755205772351474, 785.7735501402058, 381.90736377518624, -0.01600000075995922, 0.41600001975893974, 0.944000044837594, 0.0, 0.0, 0.0, 0.0, 0.0, 1.6483379991579163E9, 0.0, 2022-03-26 18:39:59.157
12.0, 497.2757976083085, 46.55240469845012, 788.9262858028524, 378.52649421524256, -0.01600000075995922, 0.41600001975893974, 0.944000044837594, 0.0, 0.0, 0.0, 0.0, 0.0, 1.6483379991736686E9, 0.0, 2022-03-26 18:39:59.173
12.0, 498.44264639448375, 49.8210772597231, 789.5059702959843, 385.1535969367251, -0.01600000075995922, 0.41600001975893974, 0.944000044837594, 0.0, 0.0, 0.0, 0.0, 0.0, 1.6483379991736686E9, 0.0, 2022-03-26 18:39:59.173
13.0, 496.55399691686034, 43.26877253735438, 784.4309260561131, 382.82737916428596, -0.01600000075995922, 0.41600001975893974, 0.944000044837594, 0.0, 0.0, 0.0, 0.0, 0.0, 1.648337999174404E9, 0.0, 2022-03-26 18:39:59.174
13.0, 490.5028387885541, 36.40231621870771, 784.7488175523467, 380.19822949543595, -0.01600000075995922, 0.41600001975893974, 0.944000044837594, 0.0, 0.0, 0.0, 0.0, 0.0, 1.648337999174404E9, 0.0, 2022-03-26 18:39:59.174
14.0, 491.7931042732671, 40.94255476491526, 785.6052546421997, 376.6602841373533, -0.01600000075995922, 0.41600001975893974, 0.944000044837594, 0.0, 0.0, 0.0, 0.0, 0.0, 1.648337999187879E9, 0.0, 2022-03-26 18:39:59.187
14.0, 489.76233859732747, 40.95003456482664, 788.4550584084354, 368.5746204331517, -0.01600000075995922, 0.41600001975893974, 0.944000044837594, 0.0, 0.0, 0.0, 0.0, 0.0, 1.648337999187879E9, 0.0, 2022-03-26 18:39:59.187
15.0, 496.7110727149993, 52.682100725825876, 793.0813146536238, 392.2631467524916, -0.01600000075995922, 0.41600001975893974, 0.944000044837594, 0.0, 0.0, 0.0, 0.0, 0.0, 1.648337999203696E9, 0.0, 2022-03-26 18:39:59.203
15.0, 491.03390458226204, 49.929534358438104, 793.6236001471989, 387.446155609563, -0.01600000075995922, 0.41600001975893974, 0.944000044837594, 0.0, 0.0, 0.0, 0.0, 0.0, 1.648337999203696E9, 0.0, 2022-03-26 18:39:59.203
16.0, 490.21860639192164, 49.20773366698995, 793.7918956452049, 393.7852860344574, -0.01600000075995922, 0.41600001975893974, 0.944000044837594, 0.0, 0.0, 0.0, 0.0, 0.0, 1.6483379992043495E9, 0.0, 2022-03-26 18:39:59.204
16.0, 493.00109195895493, 56.313543582800776, 799.9926497717388, 395.25132681708783, -0.01600000075995922, 0.41600001975893974, 0.944000044837594, 0.0, 0.0, 0.0, 0.0, 0.0, 1.6483379992043495E9, 0.0, 2022-03-26 18:39:59.204
17.0, 492.43262716569006, 50.15018845582381, 796.4584443136118, 384.2186219478026, -0.01600000075995922, 0.41600001975893974, 0.944000044837594, 0.0, 0.0, 0.0, 0.0, 0.0, 1.648337999217959E9, 0.0, 2022-03-26 18:39:59.217
17.0, 486.6432620342821, 46.268172301817685, 790.4671245845966, 390.1949820769951, -0.01600000075995922, 0.41600001975893974, 0.944000044837594, 0.0, 0.0, 0.0, 0.0, 0.0, 1.648337999217959E9, 0.0, 2022-03-26 18:39:59.217
18.0, 488.9769596066326, 49.21521346690133, 791.0206297780387, 389.4133429862559, -0.01600000075995922, 0.41600001975893974, 0.944000044837594, 0.0, 0.0, 0.0, 0.0, 0.0, 1.6483379992337656E9, 0.0, 2022-03-26 18:39:59.233
18.0, 484.91542825475335, 42.98080024076626, 792.8008221569471, 378.11884512007236, -0.01600000075995922, 0.41600001975893974, 0.944000044837594, 0.0, 0.0, 0.0, 0.0, 0.0, 1.6483379992337656E9, 0.0, 2022-03-26 18:39:59.233
19.0, 482.58173068240285, 45.56507111014798, 792.8644004561938, 382.4459093688056, -0.01600000075995922, 0.41600001975893974, 0.944000044837594, 0.0, 0.0, 0.0, 0.0, 0.0, 1.6483379992344298E9, 0.0, 2022-03-26 18:39:59.234
19.0, 490.58511658757925, 54.18928040796891, 797.662692099344, 393.8189451340586, -0.01600000075995922, 0.41600001975893974, 0.944000044837594, 0.0, 0.0, 0.0, 0.0, 0.0, 1.6483379992344298E9, 0.0, 2022-03-26 18:39:59.234
20.0, 489.62396229896694, 45.123762915376574, 788.6495332061313, 379.2595146065578, -0.01600000075995922, 0.41600001975893974, 0.9280000440776348, 0.0, 0.0, 0.0, 0.0, 0.0, 1.6483379992478888E9, 0.0, 2022-03-26 18:39:59.247
20.0, 489.3434698022902, 51.31329734204337, 783.5146505669691, 379.1884565073997, -0.01600000075995922, 0.41600001975893974, 0.9280000440776348, 0.0, 0.0, 0.0, 0.0, 0.0, 1.6483379992478888E9, 0.0, 2022-03-26 18:39:59.247
21.0, 494.3474559430033, 53.886348511558026, 788.6570130060427, 391.1411767657846, -0.01600000075995922, 0.41600001975893974, 0.9280000440776348, 0.0, 0.0, 0.0, 0.0, 0.0, 1.6483379992636526E9, 0.0, 2022-03-26 18:39:59.263
21.0, 494.7513651382178, 47.068510892335325, 785.276143446099, 387.27412021160126, -0.01600000075995922, 0.41600001975893974, 0.9280000440776348, 0.0, 0.0, 0.0, 0.0, 0.0, 1.6483379992636526E9, 0.0, 2022-03-26 18:39:59.263
22.0, 485.6484486460686, 42.677868344355375, 785.3546813451685, 376.8771983347833, -0.01600000075995922, 0.41600001975893974, 0.9280000440776348, 0.0, 0.0, 0.0, 0.0, 0.0, 1.6483379992643323E9, 0.0, 2022-03-26 18:39:59.264
22.0, 482.20774068683386, 45.76702570775524, 779.3147429167293, 368.3502264358103, -0.01600000075995922, 0.41600001975893974, 0.9280000440776348, 0.0, 0.0, 0.0, 0.0, 0.0, 1.6483379992643323E9, 0.0, 2022-03-26 18:39:59.264
23.0, 485.18096115160733, 45.097583615686744, 779.5503566139378, 376.76126143615693, -0.01600000075995922, 0.41600001975893974, 0.9280000440776348, 0.0, 0.0, 0.0, 0.0, 0.0, 1.6483379992779312E9, 0.0, 2022-03-26 18:39:59.277
23.0, 490.36072259023786, 45.116283115465194, 781.7232384881936, 375.9945819452405, -0.01600000075995922, 0.41600001975893974, 0.9280000440776348, 0.0, 0.0, 0.0, 0.0, 0.0, 1.6483379992779312E9, 0.0, 2022-03-26 18:39:59.277
24.0, 493.4237006539479, 50.14270865591243, 789.0197833017446, 384.68610944226384, -0.01600000075995922, 0.41600001975893974, 0.9280000440776348, 0.0, 0.0, 0.0, 0.0, 0.0, 1.648337999293619E9, 0.0, 2022-03-26 18:39:59.293
24.0, 494.0146048469469, 55.42718729330227, 792.7185443579219, 393.49731373786926, -0.01600000075995922, 0.41600001975893974, 0.9280000440776348, 0.0, 0.0, 0.0, 0.0, 0.0, 1.648337999293619E9, 0.0, 2022-03-26 18:39:59.293
25.0, 488.54313121177256, 49.076837168540806, 783.0172438728623, 378.49657501559705, -0.01600000075995922, 0.41600001975893974, 0.9280000440776348, 0.0, 0.0, 0.0, 0.0, 0.0, 1.648337999294318E9, 0.0, 2022-03-26 18:39:59.294
25.0, 489.2350127035752, 48.49341277545318, 780.9303796975873, 376.3311729412526, -0.01600000075995922, 0.41600001975893974, 0.9280000440776348, 0.0, 0.0, 0.0, 0.0, 0.0, 1.648337999294318E9, 0.0, 2022-03-26 18:39:59.294
26.0, 501.14285416249186, 52.53624462755397, 793.6123804473318, 386.0287335263565, -0.01600000075995922, 0.41600001975893974, 0.9280000440776348, 0.0, 0.0, 0.0, 0.0, 0.0, 1.648337999307978E9, 0.0, 2022-03-26 18:39:59.307
26.0, 490.4280407894403, 45.505232710856944, 785.8782673389651, 386.2493876237422, -0.01600000075995922, 0.41600001975893974, 0.9280000440776348, 0.0, 0.0, 0.0, 0.0, 0.0, 1.648337999307978E9, 0.0, 2022-03-26 18:39:59.307
27.0, 493.02727125864476, 49.65278176171705, 793.0962742534466, 385.3031929349527, -0.01600000075995922, 0.41600001975893974, 0.9280000440776348, 0.0, 0.0, 0.0, 0.0, 0.0, 1.6483379993236556E9, 0.0, 2022-03-26 18:39:59.323
27.0, 489.5566440997645, 46.43272789986804, 790.0744350892492, 389.60781778395176, -0.01600000075995922, 0.41600001975893974, 0.9280000440776348, 0.0, 0.0, 0.0, 0.0, 0.0, 1.6483379993236556E9, 0.0, 2022-03-26 18:39:59.323
28.0, 492.0848164698109, 49.62286256207153, 790.8037155806087, 391.17109596543014, -0.01600000075995922, 0.41600001975893974, 0.9280000440776348, 0.0, 0.0, 0.0, 0.0, 0.0, 1.6483379993243525E9, 0.0, 2022-03-26 18:39:59.324
28.0, 489.418267801404, 51.863062635529786, 794.7231307341717, 384.7758670412004, -0.01600000075995922, 0.41600001975893974, 0.9280000440776348, 0.0, 0.0, 0.0, 0.0, 0.0, 1.6483379993243525E9, 0.0, 2022-03-26 18:39:59.324
29.0, 490.50657868850976, 49.892135358881205, 791.9855239666067, 383.42950305715203, -0.01600000075995922, 0.41600001975893974, 0.9280000440776348, 0.0, 0.0, 0.0, 0.0, 0.0, 1.648337999337993E9, 0.0, 2022-03-26 18:39:59.337
29.0, 486.3029311383143, 47.81275098351762, 786.2709568343125, 388.4746280973777, -0.01600000075995922, 0.41600001975893974, 0.9280000440776348, 0.0, 0.0, 0.0, 0.0, 0.0, 1.648337999337993E9, 0.0, 2022-03-26 18:39:59.337
30.0, 489.25745210330933, 49.66400146158412, 783.335135369096, 385.4415692333132, -0.01600000075995922, 0.41600001975893974, 0.944000044837594, 0.0, 0.0, 0.0, 0.0, 0.0, 1.6483379993536391E9, 0.0, 2022-03-26 18:39:59.353
30.0, 483.4980061715469, 48.07454398041591, 796.8137348094024, 384.0241471501067, -0.01600000075995922, 0.41600001975893974, 0.944000044837594, 0.0, 0.0, 0.0, 0.0, 0.0, 1.6483379993536391E9, 0.0, 2022-03-26 18:39:59.353
31.0, 487.29400462657213, 50.87198914727196, 793.5114031485282, 386.34662502259016, -0.01600000075995922, 0.41600001975893974, 0.944000044837594, 0.0, 0.0, 0.0, 0.0, 0.0, 1.648337999354387E9, 0.0, 2022-03-26 18:39:59.354
31.0, 487.4585602246225, 49.4134281645529, 781.8690945864655, 381.23418178316206, -0.01600000075995922, 0.41600001975893974, 0.944000044837594, 0.0, 0.0, 0.0, 0.0, 0.0, 1.648337999354387E9, 0.0, 2022-03-26 18:39:59.354
32.0, 485.5998299466446, 43.52682563429698, 780.6648468007334, 379.60358540248126, -0.01600000075995922, 0.41600001975893974, 0.944000044837594, 0.0, 0.0, 0.0, 0.0, 0.0, 1.648337999367953E9, 0.0, 2022-03-26 18:39:59.367
32.0, 488.21028011571616, 49.98563285777345, 786.0877017364837, 380.4375830926001, -0.01600000075995922, 0.41600001975893974, 0.944000044837594, 0.0, 0.0, 0.0, 0.0, 0.0, 1.648337999367953E9, 0.0, 2022-03-26 18:39:59.367
33.0, 487.1593682281673, 46.16345510305837, 781.4913646909408, 378.4778755158186, -0.01600000075995922, 0.41600001975893974, 0.944000044837594, 0.0, 0.0, 0.0, 0.0, 0.0, 1.6483379993837342E9, 0.0, 2022-03-26 18:39:59.383
33.0, 490.0764901936054, 49.862216159235686, 776.5098179499619, 375.7627081479877, -0.01600000075995922, 0.41600001975893974, 0.944000044837594, 0.0, 0.0, 0.0, 0.0, 0.0, 1.6483379993837342E9, 0.0, 2022-03-26 18:39:59.383
34.0, 493.2703647557646, 49.25261246645823, 781.6110414895229, 377.82713292352855, -0.01600000075995922, 0.41600001975893974, 0.944000044837594, 0.0, 0.0, 0.0, 0.0, 0.0, 1.6483379993843691E9, 0.0, 2022-03-26 18:39:59.384
34.0, 497.5749896047637, 45.77450550766662, 786.4317725324072, 389.484401085414, -0.01600000075995922, 0.41600001975893974, 0.944000044837594, 0.0, 0.0, 0.0, 0.0, 0.0, 1.6483379993843691E9, 0.0, 2022-03-26 18:39:59.384
35.0, 488.8236237084493, 45.830604007001966, 782.3552815807052, 381.2977600824088, -0.01600000075995922, 0.41600001975893974, 0.944000044837594, 0.0, 0.0, 0.0, 0.0, 0.0, 1.6483379993980434E9, 0.0, 2022-03-26 18:39:59.398
35.0, 482.821084279567, 44.34212382463738, 789.3862934974022, 375.04838725645095, -0.01600000075995922, 0.41600001975893974, 0.944000044837594, 0.0, 0.0, 0.0, 0.0, 0.0, 1.6483379993980434E9, 0.0, 2022-03-26 18:39:59.398
36.0, 483.9991527656093, 41.002393164206296, 786.4953508316539, 378.8069867119193, -0.01600000075995922, 0.41600001975893974, 0.944000044837594, 0.0, 0.0, 0.0, 0.0, 0.0, 1.6483379994136136E9, 0.0, 2022-03-26 18:39:59.413
36.0, 484.72843325696886, 41.17816846212372, 783.7951430636458, 376.1479178434238, -0.01600000075995922, 0.41600001975893974, 0.944000044837594, 0.0, 0.0, 0.0, 0.0, 0.0, 1.6483379994136136E9, 0.0, 2022-03-26 18:39:59.413
37.0, 490.1550280926749, 48.84870327124372, 787.2695101224817, 379.15853730775416, -0.01600000075995922, 0.41600001975893974, 0.944000044837594, 0.0, 0.0, 0.0, 0.0, 0.0, 1.6483379994143705E9, 0.0, 2022-03-26 18:39:59.414
37.0, 491.39667487796396, 54.13318190863356, 791.5703950715251, 384.79456654097885, -0.01600000075995922, 0.41600001975893974, 0.944000044837594, 0.0, 0.0, 0.0, 0.0, 0.0, 1.6483379994143705E9, 0.0, 2022-03-26 18:39:59.414
38.0, 491.77066487353295, 53.24682561913505, 789.2778363986872, 386.16710982471704, -0.01600000075995922, 0.41600001975893974, 0.944000044837594, 0.0, 0.0, 0.0, 0.0, 0.0, 1.6483379994279716E9, 0.0, 2022-03-26 18:39:59.427
38.0, 481.47098039556295, 44.82083101896569, 778.7911569229327, 374.19195016659796, -0.01600000075995922, 0.41600001975893974, 0.944000044837594, 0.0, 0.0, 0.0, 0.0, 0.0, 1.6483379994279716E9, 0.0, 2022-03-26 18:39:59.427
39.0, 487.10326972883195, 46.35419000079855, 777.7552046352066, 379.8429389996454, -0.01600000075995922, 0.41600001975893974, 0.944000044837594, 0.0, 0.0, 0.0, 0.0, 0.0, 1.6483379994435835E9, 0.0, 2022-03-26 18:39:59.443
39.0, 491.5350511763245, 53.65447471430525, 779.3259626165964, 389.94440877996385, -0.01600000075995922, 0.41600001975893974, 0.944000044837594, 0.0, 0.0, 0.0, 0.0, 0.0, 1.6483379994435835E9, 0.0, 2022-03-26 18:39:59.443
40.0, 487.114489428699, 45.853043406736106, 778.6864397241734, 374.8389528589323, -0.01600000075995922, 0.41600001975893974, 0.944000044837594, 0.0, 0.0, 0.0, 0.0, 0.0, 1.6483379994443128E9, 0.0, 2022-03-26 18:39:59.444
40.0, 496.00049172341824, 54.697906801942736, 783.3650545687415, 380.3291259938851, -0.01600000075995922, 0.41600001975893974, 0.944000044837594, 0.0, 0.0, 0.0, 0.0, 0.0, 1.6483379994443128E9, 0.0, 2022-03-26 18:39:59.444
41.0, 497.8218230018392, 50.6363754500635, 778.8285559224896, 380.7068558894098, -0.01600000075995922, 0.41600001975893974, 0.944000044837594, 0.0, 0.0, 0.0, 0.0, 0.0, 1.6483379994580371E9, 0.0, 2022-03-26 18:39:59.458
41.0, 492.3877483662218, 49.469526663888246, 785.1003681481816, 385.4864480327815, -0.01600000075995922, 0.41600001975893974, 0.944000044837594, 0.0, 0.0, 0.0, 0.0, 0.0, 1.6483379994580371E9, 0.0, 2022-03-26 18:39:59.458
42.0, 491.3106571789831, 51.485332740005106, 779.3259626165964, 377.46062272787094, -0.01600000075995922, 0.41600001975893974, 0.944000044837594, 0.0, 0.0, 0.0, 0.0, 0.0, 1.6483379994733312E9, 0.0, 2022-03-26 18:39:59.473
42.0, 493.10954905766994, 55.46832619281486, 780.3469553044997, 375.5495338505134, -0.01600000075995922, 0.41600001975893974, 0.944000044837594, 0.0, 0.0, 0.0, 0.0, 0.0, 1.6483379994733312E9, 0.0, 2022-03-26 18:39:59.473
43.0, 484.50777915958315, 47.64445548551157, 773.6039156843908, 373.19713677838445, -0.01600000075995922, 0.41600001975893974, 0.944000044837594, 0.0, 0.0, 0.0, 0.0, 0.0, 1.648337999488598E9, 0.0, 2022-03-26 18:39:59.488
43.0, 493.1993066566065, 53.85268941195682, 781.3006297932006, 378.45917601604015, -0.01600000075995922, 0.41600001975893974, 0.944000044837594, 0.0, 0.0, 0.0, 0.0, 0.0, 1.648337999488598E9, 0.0, 2022-03-26 18:39:59.488
44.0, 494.6803070390597, 60.016044538933784, 788.230664411094, 381.1893029836938, -0.01600000075995922, 0.41600001975893974, 0.944000044837594, 0.0, 0.0, 0.0, 0.0, 0.0, 1.648337999489324E9, 0.0, 2022-03-26 18:39:59.489
44.0, 490.3382831905037, 51.64614843809977, 786.9516186262481, 378.0590067207813, -0.01600000075995922, 0.41600001975893974, 0.944000044837594, 0.0, 0.0, 0.0, 0.0, 0.0, 1.648337999489324E9, 0.0, 2022-03-26 18:39:59.489
45.0, 494.10810234583914, 55.81987678864971, 783.3164358693175, 385.624824331142, -0.01600000075995922, 0.41600001975893974, 0.944000044837594, 0.0, 0.0, 0.0, 0.0, 0.0, 1.648337999503646E9, 0.0, 2022-03-26 18:39:59.503
45.0, 495.21137283276767, 56.46687948098406, 791.8920264677145, 387.072165613994, -0.01600000075995922, 0.41600001975893974, 0.944000044837594, 0.0, 0.0, 0.0, 0.0, 0.0, 1.648337999503646E9, 0.0, 2022-03-26 18:39:59.503
46.0, 494.9458399359137, 56.1564677846618, 785.6875324412249, 389.8434314811602, -0.01600000075995922, 0.41600001975893974, 0.944000044837594, 0.0, 0.0, 0.0, 0.0, 0.0, 1.6483379995043695E9, 0.0, 2022-03-26 18:39:59.504
46.0, 503.7271250318736, 62.9743054038845, 795.3364743269049, 392.5997377485037, -0.01600000075995922, 0.41600001975893974, 0.944000044837594, 0.0, 0.0, 0.0, 0.0, 0.0, 1.6483379995043695E9, 0.0, 2022-03-26 18:39:59.504
47.0, 493.5583370523527, 59.35034234682098, 783.5146505669691, 383.82967235241085, -0.01600000075995922, 0.41600001975893974, 0.944000044837594, 0.0, 0.0, 0.0, 0.0, 0.0, 1.6483379995179086E9, 0.0, 2022-03-26 18:39:59.517
47.0, 492.0885563697666, 59.68319344287738, 780.982738296967, 378.82568621169776, -0.01600000075995922, 0.41600001975893974, 0.944000044837594, 0.0, 0.0, 0.0, 0.0, 0.0, 1.6483379995179086E9, 0.0, 2022-03-26 18:39:59.517
48.0, 495.050557134673, 57.7122661662288, 784.3972669565119, 384.86188474018127, -0.01600000075995922, 0.41600001975893974, 0.944000044837594, 0.0, 0.0, 0.0, 0.0, 0.0, 1.6483379995336268E9, 0.0, 2022-03-26 18:39:59.533
48.0, 493.87996844854206, 63.46797219803557, 787.9800911140628, 382.4496492687613, -0.01600000075995922, 0.41600001975893974, 0.944000044837594, 0.0, 0.0, 0.0, 0.0, 0.0, 1.6483379995336268E9, 0.0, 2022-03-26 18:39:59.533
49.0, 492.32790996693075, 60.83882252918556, 786.7309645288624, 379.9513960983604, -0.01600000075995922, 0.41600001975893974, 0.944000044837594, 0.0, 0.0, 0.0, 0.0, 0.0, 1.6483379995343182E9, 0.0, 2022-03-26 18:39:59.534
49.0, 496.0491104228422, 60.730365430470556, 800.4451776663773, 391.57874506060034, -0.01600000075995922, 0.41600001975893974, 0.944000044837594, 0.0, 0.0, 0.0, 0.0, 0.0, 1.6483379995343182E9, 0.0, 2022-03-26 18:39:59.534
50.0, 497.7133659031242, 67.95211224490777, 789.4872707962058, 388.3773906985298, -0.01600000075995922, 0.41600001975893974, 0.944000044837594, 0.0, 0.0, 0.0, 0.0, 0.0, 1.6483379995479584E9, 0.0, 2022-03-26 18:39:59.547
50.0, 497.36181530728936, 69.10026153130457, 793.7320572459139, 391.72834105882794, -0.01600000075995922, 0.41600001975893974, 0.944000044837594, 0.0, 0.0, 0.0, 0.0, 0.0, 1.6483379995479584E9, 0.0, 2022-03-26 18:39:59.547
51.0, 496.03415082301944, 58.62480175541714, 795.8937194203027, 396.0441856076941, -0.01600000075995922, 0.43200002051889896, 0.944000044837594, 0.0, 0.0, 0.0, 0.0, 0.0, 1.6483379995635931E9, 0.0, 2022-03-26 18:39:59.563
51.0, 488.0457245176658, 55.24767209542915, 779.0492100198753, 379.79432030022144, -0.01600000075995922, 0.43200002051889896, 0.944000044837594, 0.0, 0.0, 0.0, 0.0, 0.0, 1.6483379995635931E9, 0.0, 2022-03-26 18:39:59.563
52.0, 479.601030417718, 49.58546356251463, 762.3094178182073, 361.4239317178726, -0.01600000075995922, 0.43200002051889896, 0.944000044837594, 0.0, 0.0, 0.0, 0.0, 0.0, 1.6483379995643263E9, 0.0, 2022-03-26 18:39:59.564
52.0, 493.8350896490738, 61.579322720412165, 766.8758356641047, 376.78370083589107, -0.01600000075995922, 0.43200002051889896, 0.944000044837594, 0.0, 0.0, 0.0, 0.0, 0.0, 1.6483379995643263E9, 0.0, 2022-03-26 18:39:59.564
53.0, 491.69212697446346, 67.59682174911723, 762.6834078137763, 378.4816154157743, -0.01600000075995922, 0.43200002051889896, 0.944000044837594, 0.0, 0.0, 0.0, 0.0, 0.0, 1.6483379995779061E9, 0.0, 2022-03-26 18:39:59.577
53.0, 493.59199615195394, 78.28171592252329, 768.7944043413736, 374.45748306345195, -0.01600000075995922, 0.43200002051889896, 0.944000044837594, 0.0, 0.0, 0.0, 0.0, 0.0, 1.6483379995779061E9, 0.0, 2022-03-26 18:39:59.577
54.0, 491.56497037597, 79.17555201193318, 764.5496178916655, 372.1761440904811, -0.01600000075995922, 0.43200002051889896, 0.944000044837594, 0.0, 0.0, 0.0, 0.0, 0.0, 1.64833799959363E9, 0.0, 2022-03-26 18:39:59.593
54.0, 499.23550518509, 82.33950737444684, 749.2796063725837, 379.63724450208247, -0.01600000075995922, 0.43200002051889896, 0.944000044837594, 0.0, 0.0, 0.0, 0.0, 0.0, 1.64833799959363E9, 0.0, 2022-03-26 18:39:59.593
55.0, 493.77525124978274, 78.73798371711746, 745.3751508188434, 370.53432800993323, -0.01600000075995922, 0.43200002051889896, 0.944000044837594, 0.0, 0.0, 0.0, 0.0, 0.0, 1.648337999594303E9, 0.0, 2022-03-26 18:39:59.594
55.0, 490.8581292843446, 76.89421303896233, 736.3058934262954, 356.7565365731716, -0.01600000075995922, 0.43200002051889896, 0.944000044837594, 0.0, 0.0, 0.0, 0.0, 0.0, 1.648337999594303E9, 0.0, 2022-03-26 18:39:59.594
56.0, 494.73640553839505, 73.32634848123416, 739.6231846869923, 370.78116140700877, -0.01600000075995922, 0.43200002051889896, 0.944000044837594, 0.0, 0.0, 0.0, 0.0, 0.0, 1.6483379996079457E9, 0.0, 2022-03-26 18:39:59.607
56.0, 495.0580369345844, 70.60370131349191, 739.361391690094, 371.03173470404, -0.01600000075995922, 0.43200002051889896, 0.944000044837594, 0.0, 0.0, 0.0, 0.0, 0.0, 1.6483379996079457E9, 0.0, 2022-03-26 18:39:59.607
57.0, 489.96055329497904, 65.74557127105072, 735.2288022390567, 356.00481668207794, -0.01600000075995922, 0.43200002051889896, 0.944000044837594, 0.0, 0.0, 0.0, 0.0, 0.0, 1.6483379996236048E9, 0.0, 2022-03-26 18:39:59.623
57.0, 489.80347749684006, 60.98467862745747, 734.8847314431332, 362.5833007041365, -0.01600000075995922, 0.43200002051889896, 0.944000044837594, 0.0, 0.0, 0.0, 0.0, 0.0, 1.6483379996236048E9, 0.0, 2022-03-26 18:39:59.623
58.0, 489.25745210330933, 58.28073095949367, 737.1623305161484, 361.78670201357454, -0.01600000075995922, 0.43200002051889896, 0.944000044837594, 0.0, 0.0, 0.0, 0.0, 0.0, 1.6483379996243408E9, 0.0, 2022-03-26 18:39:59.624
58.0, 491.02268488239497, 66.26167746493593, 740.4871015767567, 360.4590375293046, -0.01600000075995922, 0.43200002051889896, 0.944000044837594, 0.0, 0.0, 0.0, 0.0, 0.0, 1.6483379996243408E9, 0.0, 2022-03-26 18:39:59.624
59.0, 490.6075559873134, 62.69007300725207, 743.2845467436127, 364.71504367887974, -0.01600000075995922, 0.43200002051889896, 0.944000044837594, 0.0, 0.0, 0.0, 0.0, 0.0, 1.648337999637962E9, 0.0, 2022-03-26 18:39:59.637
59.0, 494.9084409363568, 63.8644015933387, 736.7958203204907, 366.90288515295833, -0.01600000075995922, 0.43200002051889896, 0.944000044837594, 0.0, 0.0, 0.0, 0.0, 0.0, 1.648337999637962E9, 0.0, 2022-03-26 18:39:59.637
60.0, 494.57932974025607, 64.9377528806217, 741.5417533642612, 363.6641317913309, -0.01600000075995922, 0.43200002051889896, 0.944000044837594, 0.0, 0.0, 0.0, 0.0, 0.0, 1.6483379996535952E9, 0.0, 2022-03-26 18:39:59.653
60.0, 494.96453943569213, 66.93111955700442, 747.5816917927004, 363.0657477984205, -0.01600000075995922, 0.43200002051889896, 0.944000044837594, 0.0, 0.0, 0.0, 0.0, 0.0, 1.6483379996535952E9, 0.0, 2022-03-26 18:39:59.653
61.0, 489.94933359511197, 62.98926500370726, 750.1173439626582, 365.9866096638143, -0.01600000075995922, 0.43200002051889896, 0.944000044837594, 0.0, 0.0, 0.0, 0.0, 0.0, 1.6483379996544244E9, 0.0, 2022-03-26 18:39:59.654
61.0, 493.6106956517324, 65.45011917455122, 750.951341652777, 380.35156539361924, -0.01600000075995922, 0.43200002051889896, 0.944000044837594, 0.0, 0.0, 0.0, 0.0, 0.0, 1.6483379996544244E9, 0.0, 2022-03-26 18:39:59.654
62.0, 490.87682878412306, 64.22343198908493, 751.9947737404145, 372.01158849243075, -0.03200000151991844, 0.43200002051889896, 0.944000044837594, 0.0, 0.0, 0.0, 0.0, 0.0, 1.6483379996680646E9, 0.0, 2022-03-26 18:39:59.668
62.0, 492.903854560107, 63.71854549506679, 742.087778757792, 379.2856939062476, -0.03200000151991844, 0.43200002051889896, 0.944000044837594, 0.0, 0.0, 0.0, 0.0, 0.0, 1.6483379996680646E9, 0.0, 2022-03-26 18:39:59.668
63.0, 498.06491649895906, 65.0125508797355, 754.534165810328, 381.0771059850231, -0.03200000151991844, 0.43200002051889896, 0.944000044837594, 0.0, 0.0, 0.0, 0.0, 0.0, 1.6483379996833417E9, 0.0, 2022-03-26 18:39:59.683
63.0, 491.02642478235066, 67.34250855213031, 750.5474324575625, 372.587533085607, -0.03200000151991844, 0.43200002051889896, 0.944000044837594, 0.0, 0.0, 0.0, 0.0, 0.0, 1.6483379996833417E9, 0.0, 2022-03-26 18:39:59.683
64.0, 493.820130049251, 66.35891486378387, 755.2297872020863, 381.174343383871, -0.03200000151991844, 0.43200002051889896, 0.944000044837594, 0.0, 0.0, 0.0, 0.0, 0.0, 1.6483379996986217E9, 0.0, 2022-03-26 18:39:59.698
64.0, 495.24877183232456, 58.789357353467494, 749.7807529666461, 382.7750205649063, -0.03200000151991844, 0.43200002051889896, 0.944000044837594, 0.0, 0.0, 0.0, 0.0, 0.0, 1.6483379996986217E9, 0.0, 2022-03-26 18:39:59.698
65.0, 501.9431927530095, 65.09482867876068, 753.4346352233551, 385.6921425303444, -0.03200000151991844, 0.43200002051889896, 0.944000044837594, 0.0, 0.0, 0.0, 0.0, 0.0, 1.6483379996993067E9, 0.0, 2022-03-26 18:39:59.699
65.0, 490.1587679926306, 52.83917652396485, 735.7449084329419, 370.22765621356666, -0.03200000151991844, 0.43200002051889896, 0.944000044837594, 0.0, 0.0, 0.0, 0.0, 0.0, 1.6483379996993067E9, 0.0, 2022-03-26 18:39:59.699
66.0, 496.8681485131383, 58.29195065936074, 745.8762974129058, 386.5822387197986, -0.03200000151991844, 0.43200002051889896, 0.944000044837594, 0.0, 0.0, 0.0, 0.0, 0.0, 1.6483379997135727E9, 0.0, 2022-03-26 18:39:59.713
66.0, 508.29728277772665, 75.8320814515464, 759.3249776535667, 400.57320445403457, -0.03200000151991844, 0.43200002051889896, 0.944000044837594, 0.0, 0.0, 0.0, 0.0, 0.0, 1.6483379997135727E9, 0.0, 2022-03-26 18:39:59.713
67.0, 506.5844085980207, 68.18024614220485, 764.3102642945014, 397.7421001875773, -0.03200000151991844, 0.43200002051889896, 0.944000044837594, 0.0, 0.0, 0.0, 0.0, 0.0, 1.64833799971435E9, 0.0, 2022-03-26 18:39:59.714
67.0, 506.25529740191996, 73.58066167822108, 771.8536425051279, 405.3004379980266, -0.03200000151991844, 0.43200002051889896, 0.944000044837594, 0.0, 0.0, 0.0, 0.0, 0.0, 1.64833799971435E9, 0.0, 2022-03-26 18:39:59.714
68.0, 504.7630773195997, 68.96188523294404, 761.6549353259616, 404.8927889028564, -0.03200000151991844, 0.43200002051889896, 0.944000044837594, 0.0, 0.0, 0.0, 0.0, 0.0, 1.648337999727975E9, 0.0, 2022-03-26 18:39:59.727
68.0, 496.95416621211916, 68.29992294078693, 754.6164436093532, 399.90750226192176, -0.03200000151991844, 0.43200002051889896, 0.944000044837594, 0.0, 0.0, 0.0, 0.0, 0.0, 1.648337999727975E9, 0.0, 2022-03-26 18:39:59.727
69.0, 499.6057552807033, 65.21450547734275, 755.3532039006241, 397.87673658598214, -0.03200000151991844, 0.43200002051889896, 0.944000044837594, 0.0, 0.0, 0.0, 0.0, 0.0, 1.648337999743618E9, 0.0, 2022-03-26 18:39:59.743
69.0, 493.9398068478331, 59.72807224234566, 758.3189445654862, 401.99062653724104, -0.03200000151991844, 0.43200002051889896, 0.944000044837594, 0.0, 0.0, 0.0, 0.0, 0.0, 1.648337999743618E9, 0.0, 2022-03-26 18:39:59.743
70.0, 499.9311265768483, 73.52082327893004, 769.9537733276375, 403.4903264194727, -0.03200000151991844, 0.43200002051889896, 0.9760000463575125, 0.0, 0.0, 0.0, 0.0, 0.0, 1.6483379997443364E9, 0.0, 2022-03-26 18:39:59.744
70.0, 505.77285030763596, 80.10304720094427, 775.7543581589125, 402.3384372331202, -0.03200000151991844, 0.43200002051889896, 0.9760000463575125, 0.0, 0.0, 0.0, 0.0, 0.0, 1.6483379997443364E9, 0.0, 2022-03-26 18:39:59.744
71.0, 505.5035775108263, 83.68213145853952, 781.2669706935994, 416.4528196658939, -0.03200000151991844, 0.3840000182390213, 0.9760000463575125, 0.0, 0.0, 0.0, 0.0, 0.0, 1.6483379997579095E9, 0.0, 2022-03-26 18:39:59.757
71.0, 507.9719114815816, 86.36363972676918, 789.2591368989088, 417.78048415016383, -0.03200000151991844, 0.3840000182390213, 0.9760000463575125, 0.0, 0.0, 0.0, 0.0, 0.0, 1.6483379997579095E9, 0.0, 2022-03-26 18:39:59.757
72.0, 511.4275790406391, 87.08544041821733, 784.2813300578855, 412.7839778093621, -0.04800000227987766, 0.3840000182390213, 0.9760000463575125, 0.0, 0.0, 0.0, 0.0, 0.0, 1.6483379997736173E9, 0.0, 2022-03-26 18:39:59.773
72.0, 512.972157722339, 85.81387443328276, 788.4139195089228, 418.9024541368708, -0.04800000227987766, 0.3840000182390213, 0.9760000463575125, 0.0, 0.0, 0.0, 0.0, 0.0, 1.6483379997736173E9, 0.0, 2022-03-26 18:39:59.773
73.0, 505.1969057144597, 84.56848774803802, 783.1107413717546, 415.13637488149107, -0.04800000227987766, 0.3840000182390213, 0.9760000463575125, 0.0, 0.0, 0.0, 0.0, 0.0, 1.6483379997743268E9, 0.0, 2022-03-26 18:39:59.774
73.0, 516.192211584188, 99.29995367350057, 794.3491407386027, 420.1553206220269, -0.04800000227987766, 0.3840000182390213, 0.9760000463575125, 0.0, 0.0, 0.0, 0.0, 0.0, 1.6483379997743268E9, 0.0, 2022-03-26 18:39:59.774
74.0, 511.11716734431684, 93.44701024284586, 792.0229229661636, 418.54342374112457, -0.04800000227987766, 0.3840000182390213, 0.9760000463575125, 0.0, 0.0, 0.0, 0.0, 0.0, 1.6483379997879114E9, 0.0, 2022-03-26 18:39:59.787
74.0, 513.1516729202121, 93.19269704585895, 792.0565820657648, 416.8604687610641, -0.04800000227987766, 0.3840000182390213, 0.9760000463575125, 0.0, 0.0, 0.0, 0.0, 0.0, 1.6483379997879114E9, 0.0, 2022-03-26 18:39:59.787
75.0, 514.7673097010702, 95.58997291745618, 784.4421457559802, 409.7808381449431, -0.04800000227987766, 0.3840000182390213, 0.9760000463575125, 0.0, 0.0, 0.0, 0.0, 0.0, 1.648337999803708E9, 0.0, 2022-03-26 18:39:59.803
75.0, 511.59213463868946, 87.51926881307736, 786.1998987351544, 402.80966462753713, -0.04800000227987766, 0.3840000182390213, 0.9760000463575125, 0.0, 0.0, 0.0, 0.0, 0.0, 1.648337999803708E9, 0.0, 2022-03-26 18:39:59.803
76.0, 516.5624616798013, 85.60444003576413, 788.5410761074163, 402.95552072580904, -0.04800000227987766, 0.3840000182390213, 0.9760000463575125, 0.0, 0.0, 0.0, 0.0, 0.0, 1.6483379998044035E9, 0.0, 2022-03-26 18:39:59.804
76.0, 519.027055750601, 94.13141193473712, 801.1520187580027, 405.1919808993116, -0.04800000227987766, 0.3840000182390213, 0.9760000463575125, 0.0, 0.0, 0.0, 0.0, 0.0, 1.6483379998044035E9, 0.0, 2022-03-26 18:39:59.804
77.0, 516.300668682903, 90.3204538798891, 794.6371130351909, 402.7124272286892, -0.04800000227987766, 0.3840000182390213, 0.9760000463575125, 0.0, 0.0, 0.0, 0.0, 0.0, 1.648337999817963E9, 0.0, 2022-03-26 18:39:59.817
77.0, 505.29788301326334, 81.93185827927664, 783.5557894664817, 394.97831412032247, -0.04800000227987766, 0.3840000182390213, 0.9760000463575125, 0.0, 0.0, 0.0, 0.0, 0.0, 1.648337999817963E9, 0.0, 2022-03-26 18:39:59.817
78.0, 502.9903647406027, 76.58006144268438, 775.6085020606406, 391.3730505630374, -0.04800000227987766, 0.3840000182390213, 0.9760000463575125, 0.0, 0.0, 0.0, 0.0, 0.0, 1.6483379998336072E9, 0.0, 2022-03-26 18:39:59.833
78.0, 497.81060330197215, 71.6471334011294, 773.3234231877141, 373.8403995707631, -0.04800000227987766, 0.3840000182390213, 0.9760000463575125, 0.0, 0.0, 0.0, 0.0, 0.0, 1.6483379998336072E9, 0.0, 2022-03-26 18:39:59.833
79.0, 487.0471712294966, 46.02507880469784, 745.6519034155644, 354.81926839612424, -0.04800000227987766, 0.3840000182390213, 0.9760000463575125, 0.0, 0.0, 0.0, 0.0, 0.0, 1.6483379998343132E9, 0.0, 2022-03-26 18:39:59.834
79.0, 499.10460868664086, 69.07034233165905, 775.8291561580263, 392.31550535187125, -0.04800000227987766, 0.3840000182390213, 0.9760000463575125, 0.0, 0.0, 0.0, 0.0, 0.0, 1.6483379998343132E9, 0.0, 2022-03-26 18:39:59.834
80.0, 504.3180292248726, 80.19654469983652, 790.9645312787034, 388.1754361009225, -0.04800000227987766, 0.3840000182390213, 0.9600000455975533, 0.0, 0.0, 0.0, 0.0, 0.0, 1.6483379998478785E9, 0.0, 2022-03-26 18:39:59.847
80.0, 504.8715344183147, 84.35157355060801, 798.8594600851648, 389.42456268612295, -0.04800000227987766, 0.3840000182390213, 0.9600000455975533, 0.0, 0.0, 0.0, 0.0, 0.0, 1.6483379998478785E9, 0.0, 2022-03-26 18:39:59.847
81.0, 507.25759059004486, 91.31152736814693, 806.9675631891005, 398.3666634801775, -0.04800000227987766, 0.41600001975893974, 0.9600000455975533, 0.0, 0.0, 0.0, 0.0, 0.0, 1.6483379998799644E9, 0.0, 2022-03-26 18:39:59.879
81.0, 502.99410464055836, 92.08942655893043, 805.5351815060712, 390.1089643780142, -0.04800000227987766, 0.41600001975893974, 0.9600000455975533, 0.0, 0.0, 0.0, 0.0, 0.0, 1.6483379998799644E9, 0.0, 2022-03-26 18:39:59.879
82.0, 508.52541667502373, 102.23577513871714, 807.9062780779786, 392.8802302451804, -0.04800000227987766, 0.41600001975893974, 0.9600000455975533, 0.0, 0.0, 0.0, 0.0, 0.0, 1.648337999880686E9, 0.0, 2022-03-26 18:39:59.880
82.0, 511.2031850432977, 96.6184454052709, 802.7788752387278, 385.8828774280846, -0.04800000227987766, 0.41600001975893974, 0.9600000455975533, 0.0, 0.0, 0.0, 0.0, 0.0, 1.648337999880686E9, 0.0, 2022-03-26 18:39:59.880
83.0, 492.92629395984113, 83.91400525579229, 786.9927575257607, 357.6615923624486, -0.04800000227987766, 0.41600001975893974, 0.9600000455975533, 0.0, 0.0, 0.0, 0.0, 0.0, 1.6483379998814864E9, 0.0, 2022-03-26 18:39:59.881
83.0, 491.10122278146446, 78.82774131605402, 792.8307413565926, 364.16153848543763, -0.04800000227987766, 0.41600001975893974, 0.9600000455975533, 0.0, 0.0, 0.0, 0.0, 0.0, 1.6483379998814864E9, 0.0, 2022-03-26 18:39:59.881
84.0, 499.81892957817763, 83.91400525579229, 802.124392746482, 379.9513960983604, -0.04800000227987766, 0.41600001975893974, 0.9600000455975533, 0.0, 0.0, 0.0, 0.0, 0.0, 1.6483379998822305E9, 0.0, 2022-03-26 18:39:59.882
84.0, 503.154920338653, 84.31417455105111, 799.5176824773662, 381.8512652758509, -0.04800000227987766, 0.41600001975893974, 0.9600000455975533, 0.0, 0.0, 0.0, 0.0, 0.0, 1.6483379998822305E9, 0.0, 2022-03-26 18:39:59.882
85.0, 501.59164215717465, 82.33950737444684, 797.4682173016481, 375.1344049554318, -0.04800000227987766, 0.41600001975893974, 0.9600000455975533, 0.0, 0.0, 0.0, 0.0, 0.0, 1.648337999892933E9, 0.0, 2022-03-26 18:39:59.892
85.0, 493.6705340510234, 77.32430153386667, 792.4904104606248, 358.7648628493771, -0.04800000227987766, 0.41600001975893974, 0.9600000455975533, 0.0, 0.0, 0.0, 0.0, 0.0, 1.648337999892933E9, 0.0, 2022-03-26 18:39:59.892
86.0, 496.02667102310807, 81.08664088929072, 791.4207990732975, 367.7967212423682, -0.04800000227987766, 0.41600001975893974, 0.9600000455975533, 0.0, 0.0, 0.0, 0.0, 0.0, 1.648337999907956E9, 0.0, 2022-03-26 18:39:59.907
86.0, 495.1664940332994, 77.11860703630373, 788.3840003092773, 363.6454322915524, -0.04800000227987766, 0.41600001975893974, 0.9600000455975533, 0.0, 0.0, 0.0, 0.0, 0.0, 1.648337999907956E9, 0.0, 2022-03-26 18:39:59.907
87.0, 492.6121423635632, 85.63809913536534, 794.5174362366088, 362.5122426049784, -0.04800000227987766, 0.41600001975893974, 0.9600000455975533, 0.0, 0.0, 0.0, 0.0, 0.0, 1.6483379999236245E9, 0.0, 2022-03-26 18:39:59.923
87.0, 493.8612689487636, 84.2057174523361, 799.6897178753279, 364.8459401773289, -0.04800000227987766, 0.41600001975893974, 0.9600000455975533, 0.0, 0.0, 0.0, 0.0, 0.0, 1.6483379999236245E9, 0.0, 2022-03-26 18:39:59.923
88.0, 490.9703262830153, 84.48994984896854, 799.6784981754608, 365.4368443703279, -0.04800000227987766, 0.41600001975893974, 0.9600000455975533, 0.0, 0.0, 0.0, 0.0, 0.0, 1.6483379999243476E9, 0.0, 2022-03-26 18:39:59.924
88.0, 490.8693489842117, 90.97493637213483, 802.7339964392595, 360.1374061331153, -0.04800000227987766, 0.41600001975893974, 0.9600000455975533, 0.0, 0.0, 0.0, 0.0, 0.0, 1.6483379999243476E9, 0.0, 2022-03-26 18:39:59.924
89.0, 493.1918268566951, 87.17519801715389, 804.0728806233965, 355.208217991516, -0.04800000227987766, 0.41600001975893974, 0.9600000455975533, 0.0, 0.0, 0.0, 0.0, 0.0, 1.6483379999379995E9, 0.0, 2022-03-26 18:39:59.937
89.0, 487.8587295198813, 82.578860971611, 790.4072861853056, 343.29289673268795, -0.04800000227987766, 0.41600001975893974, 0.9600000455975533, 0.0, 0.0, 0.0, 0.0, 0.0, 1.6483379999379995E9, 0.0, 2022-03-26 18:39:59.937
90.0, 488.9694798067212, 90.09231998259202, 797.2774824039079, 346.44189249537885, -0.04800000227987766, 0.41600001975893974, 0.944000044837594, 0.0, 0.0, 0.0, 0.0, 0.0, 1.6483379999536028E9, 0.0, 2022-03-26 18:39:59.953
90.0, 488.778744908981, 100.96420915378258, 820.4349429295398, 351.9769444297999, -0.04800000227987766, 0.41600001975893974, 0.944000044837594, 0.0, 0.0, 0.0, 0.0, 0.0, 1.6483379999536028E9, 0.0, 2022-03-26 18:39:59.953
91.0, 494.6803070390597, 101.22600215068087, 820.7378748259507, 365.41814487054944, -0.04800000227987766, 0.3840000182390213, 0.944000044837594, 0.0, 0.0, 0.0, 0.0, 0.0, 1.6483379999544103E9, 0.0, 2022-03-26 18:39:59.954
91.0, 488.5356514118612, 101.07640615245327, 813.7891407082789, 363.8062479896471, -0.04800000227987766, 0.3840000182390213, 0.944000044837594, 0.0, 0.0, 0.0, 0.0, 0.0, 1.6483379999544103E9, 0.0, 2022-03-26 18:39:59.954
92.0, 480.034858812578, 93.85091943806037, 807.5734269819222, 346.81588249094784, -0.06400000303983688, 0.3840000182390213, 0.944000044837594, 0.0, 0.0, 0.0, 0.0, 0.0, 1.6483379999679694E9, 0.0, 2022-03-26 18:39:59.967
92.0, 488.99191920645535, 101.04648695280775, 814.3015070022084, 357.9757439587265, -0.06400000303983688, 0.3840000182390213, 0.944000044837594, 0.0, 0.0, 0.0, 0.0, 0.0, 1.6483379999679694E9, 0.0, 2022-03-26 18:39:59.967
93.0, 487.47725972440094, 108.37669086595997, 815.2140425913967, 359.63625953905284, -0.06400000303983688, 0.3840000182390213, 0.944000044837594, 0.0, 0.0, 0.0, 0.0, 0.0, 1.648337999983785E9, 0.0, 2022-03-26 18:39:59.983
93.0, 479.8890027143061, 96.61470550531521, 811.0328344409354, 345.51065740641207, -0.06400000303983688, 0.3840000182390213, 0.944000044837594, 0.0, 0.0, 0.0, 0.0, 0.0, 1.648337999983785E9, 0.0, 2022-03-26 18:39:59.983
94.0, 485.43527434859425, 105.97941499436274, 820.8687713243999, 363.0545280985534, -0.06400000303983688, 0.3840000182390213, 0.944000044837594, 0.0, 0.0, 0.0, 0.0, 0.0, 1.648337999984324E9, 0.0, 2022-03-26 18:39:59.984
94.0, 493.6742739509791, 118.14530955022201, 837.3692099289037, 377.41574392840266, -0.06400000303983688, 0.3840000182390213, 0.944000044837594, 0.0, 0.0, 0.0, 0.0, 0.0, 1.648337999984324E9, 0.0, 2022-03-26 18:39:59.984
95.0, 482.6303493818268, 101.33445924939588, 812.9813223178498, 351.9021464306861, -0.06400000303983688, 0.3840000182390213, 0.944000044837594, 0.0, 0.0, 0.0, 0.0, 0.0, 1.6483379999979992E9, 0.0, 2022-03-26 18:39:59.997
95.0, 485.91398154292256, 103.33904562564567, 817.9628690588288, 353.06151541695, -0.06400000303983688, 0.3840000182390213, 0.944000044837594, 0.0, 0.0, 0.0, 0.0, 0.0, 1.6483379999979992E9, 0.0, 2022-03-26 18:39:59.997
96.0, 492.61588226351887, 117.24773356085643, 834.3922495641746, 376.38353154063225, -0.06400000303983688, 0.3840000182390213, 0.944000044837594, 0.0, 0.0, 0.0, 0.0, 0.0, 1.6483380000136468E9, 0.0, 2022-03-26 18:40:00.013
96.0, 502.7510111434385, 134.2642783592455, 855.3394292159937, 383.4033237574622, -0.06400000303983688, 0.3840000182390213, 0.944000044837594, 0.0, 0.0, 0.0, 0.0, 0.0, 1.6483380000136468E9, 0.0, 2022-03-26 18:40:00.013
97.0, 495.4282870301977, 128.83394362358376, 856.035050607752, 384.4691952448338, -0.06400000303983688, 0.3840000182390213, 0.944000044837594, 0.0, 0.0, 0.0, 0.0, 0.0, 1.6483380000142772E9, 0.0, 2022-03-26 18:40:00.014
97.0, 514.4494182048365, 159.89007285563275, 890.0905796042643, 407.8510497678071, -0.06400000303983688, 0.3840000182390213, 0.944000044837594, 0.0, 0.0, 0.0, 0.0, 0.0, 1.6483380000142772E9, 0.0, 2022-03-26 18:40:00.014
98.0, 515.8294412884861, 174.26250838534907, 891.8857315829955, 410.2745049390942, -0.06400000303983688, 0.3840000182390213, 0.944000044837594, 0.0, 0.0, 0.0, 0.0, 0.0, 1.6483380000450275E9, 0.0, 2022-03-26 18:40:00.045
98.0, 511.26676334254444, 184.80154646048322, 896.7924803248607, 405.3752359971404, -0.06400000303983688, 0.3840000182390213, 0.944000044837594, 0.0, 0.0, 0.0, 0.0, 0.0, 1.6483380000450275E9, 0.0, 2022-03-26 18:40:00.045
99.0, 519.6740584429353, 204.6753748250194, 931.9662394081242, 428.1587065272033, -0.06400000303983688, 0.3840000182390213, 0.944000044837594, 0.0, 0.0, 0.0, 0.0, 0.0, 1.648338000045725E9, 0.0, 2022-03-26 18:40:00.045
99.0, 531.7576751997694, 224.77733708685264, 952.748863461893, 448.4289642870426, -0.06400000303983688, 0.3840000182390213, 0.944000044837594, 0.0, 0.0, 0.0, 0.0, 0.0, 1.648338000045725E9, 0.0, 2022-03-26 18:40:00.045
100.0, 531.1555513069034, 232.1673793992959, 946.2414375389926, 445.52306202147156, -0.06400000303983688, 0.3840000182390213, 0.9600000455975533, 0.0, 0.0, 0.0, 0.0, 0.0, 1.6483380000464337E9, 0.0, 2022-03-26 18:40:00.046
100.0, 531.6454782010987, 242.55682147620246, 951.3950196779333, 443.2791220480576, -0.06400000303983688, 0.3840000182390213, 0.9600000455975533, 0.0, 0.0, 0.0, 0.0, 0.0, 1.6483380000464337E9, 0.0, 2022-03-26 18:40:00.046
0.0, 540.6717267441563, 246.1695648333989, 961.0514413635246, 452.92245408380404, -0.06400000303983688, 0.3840000182390213, 0.9600000455975533, 0.0, 0.0, 0.0, 0.0, 0.0, 1.6483380000471735E9, 0.0, 2022-03-26 18:40:00.047
1.0, 527.9560668948106, 232.1262404997833, 952.6254467633553, 445.4912728718482, -0.06400000303983688, 0.3680000174790621, 0.9600000455975533, 0.0, 0.0, 0.0, 0.0, 0.0, 1.6483380000578773E9, 0.0, 2022-03-26 18:40:00.057
1.0, 527.0360515057109, 222.3800612152554, 944.4724648599513, 445.98493966599926, -0.06400000303983688, 0.3680000174790621, 0.9600000455975533, 0.0, 0.0, 0.0, 0.0, 0.0, 1.6483380000578773E9, 0.0, 2022-03-26 18:40:00.057
2.0, 529.1864939802326, 206.07409740844741, 924.3293636986054, 478.5856475797482, -0.06400000303983688, 0.3680000174790621, 0.9600000455975533, 0.0, 0.0, 0.0, 0.0, 0.0, 1.6483380000729113E9, 0.0, 2022-03-26 18:40:00.072
2.0, 528.6105493870564, 212.58900313125923, 923.8356969044544, 458.47246561804786, -0.06400000303983688, 0.3680000174790621, 0.9600000455975533, 0.0, 0.0, 0.0, 0.0, 0.0, 1.6483380000729113E9, 0.0, 2022-03-26 18:40:00.072
3.0, 522.0619845646434, 206.76597890025005, 912.503800038714, 423.95318902703, -0.06400000303983688, 0.3680000174790621, 0.9600000455975533, 0.0, 0.0, 0.0, 0.0, 0.0, 1.6483380000886946E9, 0.0, 2022-03-26 18:40:00.088
3.0, 525.4952127239667, 191.3725506826304, 902.9072167524137, 429.2900262637995, -0.06400000303983688, 0.3680000174790621, 0.9600000455975533, 0.0, 0.0, 0.0, 0.0, 0.0, 1.6483380000886946E9, 0.0, 2022-03-26 18:40:00.088
4.0, 521.8824693667702, 174.468202882912, 900.708155578468, 437.95537446113303, -0.06400000303983688, 0.3680000174790621, 0.9600000455975533, 0.0, 0.0, 0.0, 0.0, 0.0, 1.6483380000894432E9, 0.0, 2022-03-26 18:40:00.089
4.0, 527.7840314968489, 171.08733332296833, 909.2089481777512, 445.58851027069613, -0.06400000303983688, 0.3680000174790621, 0.9600000455975533, 0.0, 0.0, 0.0, 0.0, 0.0, 1.6483380000894432E9, 0.0, 2022-03-26 18:40:00.089
5.0, 524.309664438013, 158.18841837579384, 889.9409836060368, 426.4439623975195, -0.06400000303983688, 0.3680000174790621, 0.9600000455975533, 0.0, 0.0, 0.0, 0.0, 0.0, 1.6483380001028829E9, 0.0, 2022-03-26 18:40:00.102
5.0, 523.501846047584, 150.84325486281887, 878.3024149439298, 439.29425864527, -0.06400000303983688, 0.3680000174790621, 0.9600000455975533, 0.0, 0.0, 0.0, 0.0, 0.0, 1.6483380001028829E9, 0.0, 2022-03-26 18:40:00.102
6.0, 514.3577906559221, 132.45790668064728, 866.6900255815126, 435.6702955882065, -0.06400000303983688, 0.3680000174790621, 0.9600000455975533, 0.0, 0.0, 0.0, 0.0, 0.0, 1.6483380001186268E9, 0.0, 2022-03-26 18:40:00.118
6.0, 505.1950357644819, 110.75152733782306, 841.8383903759532, 419.4802686800249, -0.06400000303983688, 0.3680000174790621, 0.9600000455975533, 0.0, 0.0, 0.0, 0.0, 0.0, 1.6483380001186268E9, 0.0, 2022-03-26 18:40:00.118
7.0, 498.3996375449933, 92.14178515831009, 824.7283480786718, 422.3225926463492, -0.06400000303983688, 0.3680000174790621, 0.9600000455975533, 0.0, 0.0, 0.0, 0.0, 0.0, 1.6483380001193316E9, 0.0, 2022-03-26 18:40:00.119
7.0, 505.98041475517675, 89.86044618533924, 831.733180695679, 433.7330274111591, -0.06400000303983688, 0.3680000174790621, 0.9600000455975533, 0.0, 0.0, 0.0, 0.0, 0.0, 1.6483380001193316E9, 0.0, 2022-03-26 18:40:00.119
8.0, 496.7466017645784, 84.11595985339954, 820.9734885231592, 422.82747914036736, -0.06400000303983688, 0.3680000174790621, 0.9600000455975533, 0.0, 0.0, 0.0, 0.0, 0.0, 1.648338000132903E9, 0.0, 2022-03-26 18:40:00.132
8.0, 493.5452474025078, 75.50671015540138, 807.3789521842264, 411.0580139798112, -0.06400000303983688, 0.3680000174790621, 0.9600000455975533, 0.0, 0.0, 0.0, 0.0, 0.0, 1.648338000132903E9, 0.0, 2022-03-26 18:40:00.132
9.0, 494.00525509705767, 65.9363061687909, 807.0012222887017, 420.75183466495946, -0.06400000303983688, 0.3680000174790621, 0.9600000455975533, 0.0, 0.0, 0.0, 0.0, 0.0, 1.6483380001487105E9, 0.0, 2022-03-26 18:40:00.148
9.0, 491.7987141232006, 59.148387749213725, 801.1183596584015, 415.97972232149914, -0.06400000303983688, 0.3680000174790621, 0.9600000455975533, 0.0, 0.0, 0.0, 0.0, 0.0, 1.6483380001487105E9, 0.0, 2022-03-26 18:40:00.148
10.0, 478.8324809768237, 46.22329350234941, 779.0566898197867, 388.44657884771004, -0.06400000303983688, 0.3680000174790621, 0.9600000455975533, 0.0, 0.0, 0.0, 0.0, 0.0, 1.6483380001493535E9, 0.0, 2022-03-26 18:40:00.149
10.0, 476.34544750628993, 41.58955745724961, 770.3464628229849, 391.04206941695884, -0.06400000303983688, 0.3680000174790621, 0.9600000455975533, 0.0, 0.0, 0.0, 0.0, 0.0, 1.6483380001493535E9, 0.0, 2022-03-26 18:40:00.149
11.0, 485.93081109272316, 48.05210458068177, 771.4833924095146, 396.89501284761354, -0.06400000303983688, 0.35200001671910286, 0.9600000455975533, 0.0, 0.0, 0.0, 0.0, 0.0, 1.6483380001630473E9, 0.0, 2022-03-26 18:40:00.163
11.0, 497.9545894502662, 61.119315025862306, 788.1895255115815, 389.6807458330877, -0.06400000303983688, 0.35200001671910286, 0.9600000455975533, 0.0, 0.0, 0.0, 0.0, 0.0, 1.6483380001630473E9, 0.0, 2022-03-26 18:40:00.163
12.0, 504.9257629676722, 55.87223538802937, 791.4320187731646, 395.93385855900124, -0.03200000151991844, 0.35200001671910286, 0.9600000455975533, 0.0, 0.0, 0.0, 0.0, 0.0, 1.648338000178627E9, 0.0, 2022-03-26 18:40:00.178
12.0, 508.53102652495727, 57.28591757128015, 791.8957663676701, 405.3284872476943, -0.03200000151991844, 0.35200001671910286, 0.9600000455975533, 0.0, 0.0, 0.0, 0.0, 0.0, 1.648338000178627E9, 0.0, 2022-03-26 18:40:00.178
13.0, 497.08693266054615, 55.083116497378796, 783.6231076656841, 390.1370136276819, -0.03200000151991844, 0.35200001671910286, 0.9600000455975533, 0.0, 0.0, 0.0, 0.0, 0.0, 1.6483380001794064E9, 0.0, 2022-03-26 18:40:00.179
13.0, 490.45609003910795, 43.36600993620232, 766.9356740633957, 378.95097286021337, -0.03200000151991844, 0.35200001671910286, 0.9600000455975533, 0.0, 0.0, 0.0, 0.0, 0.0, 1.6483380001794064E9, 0.0, 2022-03-26 18:40:00.179
14.0, 495.4039776804857, 45.19482101453468, 782.6245543775149, 392.6427465979941, -0.03200000151991844, 0.35200001671910286, 0.9600000455975533, 0.0, 0.0, 0.0, 0.0, 0.0, 1.648338000192898E9, 0.0, 2022-03-26 18:40:00.192
14.0, 494.82429318735376, 40.32173137227073, 772.5193446972407, 382.14858732232824, -0.03200000151991844, 0.35200001671910286, 0.9600000455975533, 0.0, 0.0, 0.0, 0.0, 0.0, 1.648338000192898E9, 0.0, 2022-03-26 18:40:00.192
15.0, 484.00850251549855, 34.2930126436986, 767.4405605574138, 369.95651346677914, -0.03200000151991844, 0.35200001671910286, 0.9600000455975533, 0.0, 0.0, 0.0, 0.0, 0.0, 1.6483380002086475E9, 0.0, 2022-03-26 18:40:00.208
15.0, 472.2427772548981, 14.617398976814002, 748.7597602787428, 358.10103060724214, -0.03200000151991844, 0.35200001671910286, 0.9600000455975533, 0.0, 0.0, 0.0, 0.0, 0.0, 1.6483380002086475E9, 0.0, 2022-03-26 18:40:00.208
16.0, 473.1590527440421, 23.028433977160603, 758.285285465885, 361.6389759653248, -0.03200000151991844, 0.35200001671910286, 0.9600000455975533, 0.0, 0.0, 0.0, 0.0, 0.0, 1.648338000209346E9, 0.0, 2022-03-26 18:40:00.209
16.0, 473.8397145359777, 25.313512850087136, 756.9127421821468, 358.1833084062673, -0.03200000151991844, 0.35200001671910286, 0.9600000455975533, 0.0, 0.0, 0.0, 0.0, 0.0, 1.648338000209346E9, 0.0, 2022-03-26 18:40:00.209
17.0, 477.6581523907371, 13.921777585055679, 746.0221535111777, 358.6620156005956, -0.03200000151991844, 0.35200001671910286, 0.9600000455975533, 0.0, 0.0, 0.0, 0.0, 0.0, 1.6483380002229E9, 0.0, 2022-03-26 18:40:00.222
17.0, 480.5154359568842, 26.674836433958262, 765.4920726804994, 368.8158439802937, -0.03200000151991844, 0.35200001671910286, 0.9600000455975533, 0.0, 0.0, 0.0, 0.0, 0.0, 1.6483380002229E9, 0.0, 2022-03-26 18:40:00.222
18.0, 482.63595923176035, 28.084778717253357, 765.8211838766001, 355.666355736088, -0.03200000151991844, 0.35200001671910286, 0.9600000455975533, 0.0, 0.0, 0.0, 0.0, 0.0, 1.6483380002383916E9, 0.0, 2022-03-26 18:40:00.238
18.0, 481.6261862437241, 23.52584067126736, 757.006239681039, 349.3421849110164, -0.03200000151991844, 0.35200001671910286, 0.9600000455975533, 0.0, 0.0, 0.0, 0.0, 0.0, 1.6483380002383916E9, 0.0, 2022-03-26 18:40:00.238
19.0, 482.38538593472913, 27.90900341933593, 764.5346582918428, 360.4160286798142, -0.03200000151991844, 0.35200001671910286, 0.9600000455975533, 0.0, 0.0, 0.0, 0.0, 0.0, 1.64833800025366E9, 0.0, 2022-03-26 18:40:00.253
19.0, 467.3622078127228, 8.083793754223734, 751.3290715483017, 338.67599023738876, -0.03200000151991844, 0.35200001671910286, 0.9600000455975533, 0.0, 0.0, 0.0, 0.0, 0.0, 1.64833800025366E9, 0.0, 2022-03-26 18:40:00.253
20.0, 474.8719269237481, 23.664216969627887, 760.3646698412485, 345.957575451117, -0.03200000151991844, 0.35200001671910286, 0.9280000440776348, 0.0, 0.0, 0.0, 0.0, 0.0, 1.648338000254392E9, 0.0, 2022-03-26 18:40:00.254
20.0, 490.82260023476556, 35.467341229785234, 773.1326882899739, 361.54173856647685, -0.03200000151991844, 0.35200001671910286, 0.9280000440776348, 0.0, 0.0, 0.0, 0.0, 0.0, 1.648338000254392E9, 0.0, 2022-03-26 18:40:00.254
21.0, 493.1151589076035, 43.36227003624663, 791.4095793734305, 361.31734456913546, -0.03200000151991844, 0.35200001671910286, 0.9280000440776348, 0.0, 0.0, 0.0, 0.0, 0.0, 1.648338000268731E9, 0.0, 2022-03-26 18:40:00.268
21.0, 487.92791766906157, 41.503539758268744, 781.2183519941755, 342.894597387407, -0.03200000151991844, 0.35200001671910286, 0.9280000440776348, 0.0, 0.0, 0.0, 0.0, 0.0, 1.648338000268731E9, 0.0, 2022-03-26 18:40:00.268
22.0, 496.27911427011713, 44.49545972282067, 791.6414531706832, 351.20091518899426, -0.03200000151991844, 0.35200001671910286, 0.9280000440776348, 0.0, 0.0, 0.0, 0.0, 0.0, 1.648338000269361E9, 0.0, 2022-03-26 18:40:00.269
22.0, 489.4799761506729, 36.32003841968253, 783.0359433726408, 349.3721041106619, -0.03200000151991844, 0.35200001671910286, 0.9280000440776348, 0.0, 0.0, 0.0, 0.0, 0.0, 1.648338000269361E9, 0.0, 2022-03-26 18:40:00.269
23.0, 486.85456638177857, 39.001546687912196, 773.1401680898853, 386.52427027048543, -0.03200000151991844, 0.35200001671910286, 0.9280000440776348, 0.0, 0.0, 0.0, 0.0, 0.0, 1.64833800028303E9, 0.0, 2022-03-26 18:40:00.283
23.0, 488.94143055705354, 36.89224311290309, 768.0950430496596, 467.2350512142293, -0.03200000151991844, 0.35200001671910286, 0.9280000440776348, 0.0, 0.0, 0.0, 0.0, 0.0, 1.64833800028303E9, 0.0, 2022-03-26 18:40:00.283
24.0, 497.01213466143236, 36.993220411706716, 769.6919803307392, 573.7548817521892, -0.03200000151991844, 0.35200001671910286, 0.9280000440776348, 0.0, 0.0, 0.0, 0.0, 0.0, 1.6483380002987065E9, 0.0, 2022-03-26 18:40:00.298
24.0, 502.24051479948685, 37.32607150776312, 773.0317109911703, 680.5776441865601, -0.03200000151991844, 0.35200001671910286, 0.9280000440776348, 0.0, 0.0, 0.0, 0.0, 0.0, 1.6483380002987065E9, 0.0, 2022-03-26 18:40:00.298
25.0, 484.618106208276, 19.011781424749643, 752.4099026354961, 754.2574132136069, -0.03200000151991844, 0.35200001671910286, 0.9280000440776348, 0.0, 0.0, 0.0, 0.0, 0.0, 1.6483380002994323E9, 0.0, 2022-03-26 18:40:00.299
25.0, 482.2881485358812, 11.266448616515845, 742.5664859521203, 825.872757465113, -0.03200000151991844, 0.35200001671910286, 0.9280000440776348, 0.0, 0.0, 0.0, 0.0, 0.0, 1.6483380002994323E9, 0.0, 2022-03-26 18:40:00.299
26.0, 510.0382062071003, 45.64734890917316, 781.4726651911624, 897.2150890198536, -0.03200000151991844, 0.35200001671910286, 0.9280000440776348, 0.0, 0.0, 0.0, 0.0, 0.0, 1.6483380003129551E9, 0.0, 2022-03-26 18:40:00.312
26.0, 511.01432009553537, 45.57629081001505, 774.3518956755288, 915.5555584025569, -0.03200000151991844, 0.35200001671910286, 0.9280000440776348, 0.0, 0.0, 0.0, 0.0, 0.0, 1.6483380003129551E9, 0.0, 2022-03-26 18:40:00.312
27.0, 499.2149357353337, 22.519807583186775, 762.9190215109847, 913.3639770285226, -0.03200000151991844, 0.35200001671910286, 0.9280000440776348, 0.0, 0.0, 0.0, 0.0, 0.0, 1.64833800032862E9, 0.0, 2022-03-26 18:40:00.328
27.0, 511.01805999549106, 35.54961902881041, 777.7514647352509, 919.811564552132, -0.03200000151991844, 0.35200001671910286, 0.9280000440776348, 0.0, 0.0, 0.0, 0.0, 0.0, 1.64833800032862E9, 0.0, 2022-03-26 18:40:00.328
28.0, 508.43004922615364, 41.79525195481256, 776.9922650442459, 896.7363818255253, -0.03200000151991844, 0.35200001671910286, 0.9280000440776348, 0.0, 0.0, 0.0, 0.0, 0.0, 1.6483380003293476E9, 0.0, 2022-03-26 18:40:00.329
28.0, 508.1046779300086, 40.31051167240366, 778.1030153310858, 885.4119647596963, -0.03200000151991844, 0.35200001671910286, 0.9280000440776348, 0.0, 0.0, 0.0, 0.0, 0.0, 1.6483380003293476E9, 0.0, 2022-03-26 18:40:00.329
29.0, 505.42690956173465, 33.33559825504199, 757.8514570710249, 861.764577339869, -0.03200000151991844, 0.35200001671910286, 0.9280000440776348, 0.0, 0.0, 0.0, 0.0, 0.0, 1.648338000342934E9, 0.0, 2022-03-26 18:40:00.342
29.0, 503.4709418849088, 37.99177369987592, 759.310018053744, 833.3899563760497, -0.03200000151991844, 0.35200001671910286, 0.9280000440776348, 0.0, 0.0, 0.0, 0.0, 0.0, 1.648338000342934E9, 0.0, 2022-03-26 18:40:00.342
30.0, 500.09381222492084, 33.773166549857706, 765.5556509797461, 811.7284558326937, -0.03200000151991844, 0.35200001671910286, 0.9920000471174717, 0.0, 0.0, 0.0, 0.0, 0.0, 1.6483380003586168E9, 0.0, 2022-03-26 18:40:00.358
30.0, 494.3605455928482, 24.644070758018643, 764.145708696451, 783.3164358693175, -0.03200000151991844, 0.35200001671910286, 0.9920000471174717, 0.0, 0.0, 0.0, 0.0, 0.0, 1.6483380003586168E9, 0.0, 2022-03-26 18:40:00.358
31.0, 468.1588065032847, -3.263062711339444, 734.3723651492037, 729.7386291041039, -0.03200000151991844, 0.35200001671910286, 0.9920000471174717, 0.0, 0.0, 0.0, 0.0, 0.0, 1.6483380003593364E9, 0.0, 2022-03-26 18:40:00.359
31.0, 483.8439469174482, 24.056906464975327, 763.4575671046041, 732.4575363718905, -0.03200000151991844, 0.35200001671910286, 0.9920000471174717, 0.0, 0.0, 0.0, 0.0, 0.0, 1.6483380003593364E9, 0.0, 2022-03-26 18:40:00.359
32.0, 491.9258707216941, 27.467695224564523, 762.5338118155487, 719.8503336212598, 0.0, 0.35200001671910286, 0.9920000471174717, 0.0, 0.0, 0.0, 0.0, 0.0, 1.6483380003729672E9, 0.0, 2022-03-26 18:40:00.372
32.0, 489.37899885186926, 20.447903007734567, 765.0619841855951, 698.4431462748908, 0.0, 0.35200001671910286, 0.9920000471174717, 0.0, 0.0, 0.0, 0.0, 0.0, 1.6483380003729672E9, 0.0, 2022-03-26 18:40:00.372
33.0, 496.57456636661664, 29.14691030466929, 773.7161126830615, 690.9371670638211, 0.0, 0.35200001671910286, 0.9920000471174717, 0.0, 0.0, 0.0, 0.0, 0.0, 1.6483380003887308E9, 0.0, 2022-03-26 18:40:00.388
33.0, 502.31905269855633, 36.993220411706716, 770.9149276162498, 679.4743736996315, 0.0, 0.35200001671910286, 0.9920000471174717, 0.0, 0.0, 0.0, 0.0, 0.0, 1.6483380003887308E9, 0.0, 2022-03-26 18:40:00.388
34.0, 495.7630080762319, 23.832512467633933, 769.5685636322014, 658.5047546480782, 0.0, 0.35200001671910286, 0.9920000471174717, 0.0, 0.0, 0.0, 0.0, 0.0, 1.6483380003893735E9, 0.0, 2022-03-26 18:40:00.389
34.0, 492.56539361411706, 28.526086912024766, 778.2002527299337, 621.4535657870583, 0.0, 0.35200001671910286, 0.9920000471174717, 0.0, 0.0, 0.0, 0.0, 0.0, 1.6483380003893735E9, 0.0, 2022-03-26 18:40:00.389
35.0, 481.85432014102116, 18.862185426522046, 763.771718700882, 590.0870248586871, 0.0, 0.35200001671910286, 0.9920000471174717, 0.0, 0.0, 0.0, 0.0, 0.0, 1.6483380004029422E9, 0.0, 2022-03-26 18:40:00.402
35.0, 488.7731350590475, 17.8785917381756, 765.9371207752265, 617.1377212381922, 0.0, 0.35200001671910286, 0.9920000471174717, 0.0, 0.0, 0.0, 0.0, 0.0, 1.6483380004029422E9, 0.0, 2022-03-26 18:40:00.402
36.0, 492.8047472112812, 27.684609421994537, 780.8294023987837, 717.4193986500613, 0.0, 0.35200001671910286, 0.9920000471174717, 0.0, 0.0, 0.0, 0.0, 0.0, 1.6483380004349725E9, 0.0, 2022-03-26 18:40:00.434
36.0, 493.09271950786933, 16.831419750582427, 753.7413070197217, 762.7843851125799, 0.0, 0.35200001671910286, 0.9920000471174717, 0.0, 0.0, 0.0, 0.0, 0.0, 1.6483380004349725E9, 0.0, 2022-03-26 18:40:00.434
37.0, 478.7726425775327, 14.770734874997288, 748.7522804788314, 821.7626074138097, 0.0, 0.35200001671910286, 0.9920000471174717, 0.0, 0.0, 0.0, 0.0, 0.0, 1.6483380004357483E9, 0.0, 2022-03-26 18:40:00.435
37.0, 499.9329965268262, 12.792327798437327, 752.6118572331034, 869.4126727492549, 0.0, 0.35200001671910286, 0.9920000471174717, 0.0, 0.0, 0.0, 0.0, 0.0, 1.6483380004357483E9, 0.0, 2022-03-26 18:40:00.435
38.0, 504.2862400752492, 20.496521707158536, 761.9728268221952, 910.8956430577673, 0.0, 0.35200001671910286, 0.9920000471174717, 0.0, 0.0, 0.0, 0.0, 0.0, 1.648338000436499E9, 0.0, 2022-03-26 18:40:00.436
38.0, 508.811519021634, 28.245594415348023, 763.0199988097884, 956.1970512210391, 0.0, 0.35200001671910286, 0.9920000471174717, 0.0, 0.0, 0.0, 0.0, 0.0, 1.648338000436499E9, 0.0, 2022-03-26 18:40:00.436
39.0, 503.1867094882764, 19.49048861907795, 760.8022381360643, 993.5100330789573, 0.0, 0.35200001671910286, 0.9920000471174717, 0.0, 0.0, 0.0, 0.0, 0.0, 1.6483380004372344E9, 0.0, 2022-03-26 18:40:00.437
39.0, 512.0053935837932, 26.674836433958262, 761.9316879226826, 1037.921345052775, 0.0, 0.35200001671910286, 0.9920000471174717, 0.0, 0.0, 0.0, 0.0, 0.0, 1.6483380004372344E9, 0.0, 2022-03-26 18:40:00.437
40.0, 518.7521731038578, 32.972827959340066, 769.3254701350816, 1090.7436920269392, 0.0, 0.35200001671910286, 0.944000044837594, 0.0, 0.0, 0.0, 0.0, 0.0, 1.6483380004636953E9, 0.0, 2022-03-26 18:40:00.463
40.0, 522.0956436642446, 31.52174677653238, 774.4753123740666, 1114.578074444551, 0.0, 0.35200001671910286, 0.944000044837594, 0.0, 0.0, 0.0, 0.0, 0.0, 1.6483380004636953E9, 0.0, 2022-03-26 18:40:00.463
41.0, 522.813704455737, 27.400377025362104, 765.435974181164, 1110.7371971900575, 0.0, 0.3200000151991844, 0.944000044837594, 0.0, 0.0, 0.0, 0.0, 0.0, 1.6483380004643936E9, 0.0, 2022-03-26 18:40:00.464
41.0, 514.709341251757, 22.164517087396234, 770.0098718269728, 1112.7642229660414, 0.0, 0.3200000151991844, 0.944000044837594, 0.0, 0.0, 0.0, 0.0, 0.0, 1.6483380004643936E9, 0.0, 2022-03-26 18:40:00.464
42.0, 538.0313573754393, 47.117129591759294, 788.4064397090115, 1125.7005369127728, -0.03200000151991844, 0.3200000151991844, 0.944000044837594, 0.0, 0.0, 0.0, 0.0, 0.0, 1.6483380004787655E9, 0.0, 2022-03-26 18:40:00.478
42.0, 528.0570441936143, 43.504386234562844, 785.5229768431745, 1114.1666854494251, -0.03200000151991844, 0.3200000151991844, 0.944000044837594, 0.0, 0.0, 0.0, 0.0, 0.0, 1.6483380004787655E9, 0.0, 2022-03-26 18:40:00.478
43.0, 526.9911727062427, 38.8145516901277, 791.7499102693982, 1103.5977281746455, -0.03200000151991844, 0.3200000151991844, 0.944000044837594, 0.0, 0.0, 0.0, 0.0, 0.0, 1.6483380004794023E9, 0.0, 2022-03-26 18:40:00.479
43.0, 516.1903416342102, 32.972827959340066, 777.9272400331683, 1077.4595673843287, -0.03200000151991844, 0.3200000151991844, 0.944000044837594, 0.0, 0.0, 0.0, 0.0, 0.0, 1.6483380004794023E9, 0.0, 2022-03-26 18:40:00.479
44.0, 519.3991757961921, 35.09709113417193, 781.513804090675, 1067.709648199845, -0.03200000151991844, 0.3200000151991844, 0.944000044837594, 0.0, 0.0, 0.0, 0.0, 0.0, 1.6483380004928937E9, 0.0, 2022-03-26 18:40:00.492
44.0, 515.408702543471, 38.29844549624249, 784.950772149954, 1053.1726570720784, -0.03200000151991844, 0.3200000151991844, 0.944000044837594, 0.0, 0.0, 0.0, 0.0, 0.0, 1.6483380004928937E9, 0.0, 2022-03-26 18:40:00.492
45.0, 510.45707500213757, 29.835051896516234, 780.8032230990939, 1032.457351217512, -0.03200000151991844, 0.3200000151991844, 0.944000044837594, 0.0, 0.0, 0.0, 0.0, 0.0, 1.64833800052498E9, 0.0, 2022-03-26 18:40:00.524
45.0, 506.6947356467135, 19.647564417216927, 769.8415763289668, 1025.703091897536, -0.03200000151991844, 0.3200000151991844, 0.944000044837594, 0.0, 0.0, 0.0, 0.0, 0.0, 1.64833800052498E9, 0.0, 2022-03-26 18:40:00.524
46.0, 511.2162746931426, 34.28179294383153, 781.1136347954161, 1022.2923031379469, -0.03200000151991844, 0.3200000151991844, 0.944000044837594, 0.0, 0.0, 0.0, 0.0, 0.0, 1.648338000525666E9, 0.0, 2022-03-26 18:40:00.525
46.0, 506.4105032500811, 37.96559440018609, 786.3794139330275, 1005.5936498357914, -0.03200000151991844, 0.3200000151991844, 0.944000044837594, 0.0, 0.0, 0.0, 0.0, 0.0, 1.648338000525666E9, 0.0, 2022-03-26 18:40:00.525
47.0, 528.9508802830242, 51.055244245100766, 796.8099949094467, 1002.3848156738095, -0.03200000151991844, 0.3200000151991844, 0.944000044837594, 0.0, 0.0, 0.0, 0.0, 0.0, 1.6483380005263777E9, 0.0, 2022-03-26 18:40:00.526
47.0, 531.9764593471773, 51.85558283561841, 799.1249929820187, 990.0319261201657, -0.03200000151991844, 0.3200000151991844, 0.944000044837594, 0.0, 0.0, 0.0, 0.0, 0.0, 1.6483380005263777E9, 0.0, 2022-03-26 18:40:00.526
48.0, 530.7647317615338, 55.516944892238826, 794.7717494335957, 971.0519338450395, -0.03200000151991844, 0.3200000151991844, 0.944000044837594, 0.0, 0.0, 0.0, 0.0, 0.0, 1.6483380005271456E9, 0.0, 2022-03-26 18:40:00.527
48.0, 522.1442623636685, 38.72105419123545, 780.4591523031704, 947.1315337284468, -0.03200000151991844, 0.3200000151991844, 0.944000044837594, 0.0, 0.0, 0.0, 0.0, 0.0, 1.6483380005271456E9, 0.0, 2022-03-26 18:40:00.527
49.0, 510.7749664983712, 25.433189648669213, 776.3228229521774, 933.0620300951414, -0.03200000151991844, 0.3200000151991844, 0.944000044837594, 0.0, 0.0, 0.0, 0.0, 0.0, 1.6483380005379171E9, 0.0, 2022-03-26 18:40:00.537
49.0, 509.5856783124618, 18.383478232193738, 779.3110030167736, 913.913742322009, -0.03200000151991844, 0.3200000151991844, 0.944000044837594, 0.0, 0.0, 0.0, 0.0, 0.0, 1.6483380005379171E9, 0.0, 2022-03-26 18:40:00.537
50.0, 522.5556513587944, 32.587618263904005, 786.1512800357305, 904.036666539032, -0.03200000151991844, 0.3200000151991844, 0.9920000471174717, 0.0, 0.0, 0.0, 0.0, 0.0, 1.6483380005528922E9, 0.0, 2022-03-26 18:40:00.552
50.0, 525.9215613189153, 42.37493644794449, 791.5554354717024, 907.8214452941902, -0.03200000151991844, 0.3200000151991844, 0.9920000471174717, 0.0, 0.0, 0.0, 0.0, 0.0, 1.6483380005528922E9, 0.0, 2022-03-26 18:40:00.552
51.0, 516.2875790330581, 42.300138448830694, 796.8137348094024, 898.236081707757, -0.03200000151991844, 0.3200000151991844, 0.9920000471174717, 0.0, 0.0, 0.0, 0.0, 0.0, 1.6483380005685852E9, 0.0, 2022-03-26 18:40:00.568
51.0, 516.5568518298678, 41.398822559509426, 793.2159510520287, 876.8438539612107, -0.03200000151991844, 0.3200000151991844, 0.9920000471174717, 0.0, 0.0, 0.0, 0.0, 0.0, 1.6483380005685852E9, 0.0, 2022-03-26 18:40:00.568
52.0, 513.2208610693924, 37.434528606478125, 785.7062319410034, 866.5366896833293, 0.01600000075995922, 0.3200000151991844, 0.9920000471174717, 0.0, 0.0, 0.0, 0.0, 0.0, 1.6483380005692785E9, 0.0, 2022-03-26 18:40:00.569
52.0, 506.5974982478656, 33.855444348882884, 779.7897102111019, 860.1452006590553, 0.01600000075995922, 0.3200000151991844, 0.9920000471174717, 0.0, 0.0, 0.0, 0.0, 0.0, 1.6483380005692785E9, 0.0, 2022-03-26 18:40:00.569
53.0, 509.1144509180449, 46.731919896323234, 799.2970283799805, 873.0964742056094, 0.01600000075995922, 0.3200000151991844, 0.9920000471174717, 0.0, 0.0, 0.0, 0.0, 0.0, 1.6483380005828948E9, 0.0, 2022-03-26 18:40:00.582
53.0, 520.6296028816141, 41.1108502629213, 795.4000526261516, 891.807193683926, 0.01600000075995922, 0.3200000151991844, 0.9920000471174717, 0.0, 0.0, 0.0, 0.0, 0.0, 1.6483380005828948E9, 0.0, 2022-03-26 18:40:00.582
54.0, 509.3725040149875, 30.949542083311826, 786.6299872300588, 903.8870705408044, 0.01600000075995922, 0.3200000151991844, 0.9920000471174717, 0.0, 0.0, 0.0, 0.0, 0.0, 1.6483380005996618E9, 0.0, 2022-03-26 18:40:00.599
54.0, 495.4077175804414, 23.94470946630463, 788.062368913088, 915.8397907991894, 0.01600000075995922, 0.3200000151991844, 0.9920000471174717, 0.0, 0.0, 0.0, 0.0, 0.0, 1.6483380005996618E9, 0.0, 2022-03-26 18:40:00.599
55.0, 528.0832234933041, 41.3352442602627, 790.4596447846852, 941.2748503978364, 0.01600000075995922, 0.3200000151991844, 0.9920000471174717, 0.0, 0.0, 0.0, 0.0, 0.0, 1.6483380006136165E9, 0.0, 2022-03-26 18:40:00.613
55.0, 535.7649780022912, 48.706587072927505, 804.4693100186996, 978.0941654616036, 0.01600000075995922, 0.3200000151991844, 0.9920000471174717, 0.0, 0.0, 0.0, 0.0, 0.0, 1.6483380006136165E9, 0.0, 2022-03-26 18:40:00.613
56.0, 532.1522346450947, 39.98140047630295, 799.0427151829936, 996.1130034481175, 0.01600000075995922, 0.3200000151991844, 0.9920000471174717, 0.0, 0.0, 0.0, 0.0, 0.0, 1.6483380006142972E9, 0.0, 2022-03-26 18:40:00.614
56.0, 529.8858552719466, 40.34043087204918, 801.1931576575153, 1015.2762508210726, 0.01600000075995922, 0.3200000151991844, 0.9920000471174717, 0.0, 0.0, 0.0, 0.0, 0.0, 1.6483380006142972E9, 0.0, 2022-03-26 18:40:00.614
57.0, 536.3783215950243, 41.23052706150338, 798.6687251874246, 1025.0261700055562, 0.01600000075995922, 0.3200000151991844, 0.9920000471174717, 0.0, 0.0, 0.0, 0.0, 0.0, 1.648338000628567E9, 0.0, 2022-03-26 18:40:00.628
57.0, 533.162007633131, 40.91263556526974, 790.8373746802099, 1026.054642493371, 0.01600000075995922, 0.3200000151991844, 0.9920000471174717, 0.0, 0.0, 0.0, 0.0, 0.0, 1.648338000628567E9, 0.0, 2022-03-26 18:40:00.628
58.0, 534.9534197119065, 45.886702506337315, 799.5663011767901, 1018.1746732867323, 0.01600000075995922, 0.3200000151991844, 0.9920000471174717, 0.0, 0.0, 0.0, 0.0, 0.0, 1.6483380006292822E9, 0.0, 2022-03-26 18:40:00.629
58.0, 531.7483254498802, 42.73770674364641, 783.4622919675894, 1008.9894789955579, 0.01600000075995922, 0.3200000151991844, 0.9920000471174717, 0.0, 0.0, 0.0, 0.0, 0.0, 1.6483380006292822E9, 0.0, 2022-03-26 18:40:00.629
59.0, 530.001792170573, 29.685455898288637, 773.9816455799155, 993.3604370807298, 0.01600000075995922, 0.3200000151991844, 0.9920000471174717, 0.0, 0.0, 0.0, 0.0, 0.0, 1.6483380006428933E9, 0.0, 2022-03-26 18:40:00.642
59.0, 519.4777136952616, 30.504493988584727, 770.3128037233837, 965.0306949163787, 0.01600000075995922, 0.3200000151991844, 0.9920000471174717, 0.0, 0.0, 0.0, 0.0, 0.0, 1.6483380006428933E9, 0.0, 2022-03-26 18:40:00.642
60.0, 523.5542046469636, 45.75580600788817, 785.3060626457445, 962.4763432466425, 0.01600000075995922, 0.3200000151991844, 1.0240000486373901, 0.0, 0.0, 0.0, 0.0, 0.0, 1.6483380006585724E9, 0.0, 2022-03-26 18:40:00.658
60.0, 527.3015844025649, 50.23620615480468, 795.7104643224739, 961.747062755283, 0.01600000075995922, 0.3200000151991844, 1.0240000486373901, 0.0, 0.0, 0.0, 0.0, 0.0, 1.6483380006585724E9, 0.0, 2022-03-26 18:40:00.658
61.0, 590.4684946541674, 45.97272020531818, 784.1205143597908, 960.6961508677341, 0.01600000075995922, 0.3200000151991844, 1.0240000486373901, 0.0, 0.0, 0.0, 0.0, 0.0, 1.6483380006592844E9, 0.0, 2022-03-26 18:40:00.659
61.0, 609.4223076296039, 35.63563672779128, 781.1959125944413, 992.163669094909, 0.01600000075995922, 0.3200000151991844, 1.0240000486373901, 0.0, 0.0, 0.0, 0.0, 0.0, 1.6483380006592844E9, 0.0, 2022-03-26 18:40:00.659
62.0, 412.4829158629291, 28.642023810651153, 782.6208144775592, 985.9554351684637, 0.03200000151991844, 0.3200000151991844, 1.0240000486373901, 0.0, 0.0, 0.0, 0.0, 0.0, 1.64833800067287E9, 0.0, 2022-03-26 18:40:00.672
62.0, 540.0808225511573, 26.072712541092187, 778.6976594240405, 1053.0155812739395, 0.03200000151991844, 0.3200000151991844, 1.0240000486373901, 0.0, 0.0, 0.0, 0.0, 0.0, 1.64833800067287E9, 0.0, 2022-03-26 18:40:00.672
63.0, 560.4370980099775, 16.25547515740618, 770.0734501262195, 1109.9779974990524, 0.03200000151991844, 0.3200000151991844, 1.0240000486373901, 0.0, 0.0, 0.0, 0.0, 0.0, 1.64833800068857E9, 0.0, 2022-03-26 18:40:00.688
63.0, 355.8028620844707, 20.25716810999438, 780.8705412982963, 1169.984692288097, 0.03200000151991844, 0.3200000151991844, 1.0240000486373901, 0.0, 0.0, 0.0, 0.0, 0.0, 1.64833800068857E9, 0.0, 2022-03-26 18:40:00.688
64.0, 165.5784606882371, -8.394205450545996, 745.6406837156974, 1320.4969660048373, 0.03200000151991844, 0.3200000151991844, 1.0240000486373901, 0.0, 0.0, 0.0, 0.0, 0.0, 1.6483380006893258E9, 0.0, 2022-03-26 18:40:00.689
64.0, 301.11243508243933, -42.94714114116505, 699.5538965617307, 1475.5719176675193, 0.03200000151991844, 0.3200000151991844, 1.0240000486373901, 0.0, 0.0, 0.0, 0.0, 0.0, 1.6483380006893258E9, 0.0, 2022-03-26 18:40:00.689
65.0, 473.66767913801596, -63.950419292319566, 675.1248700511642, 1511.7068310393952, 0.03200000151991844, 0.3200000151991844, 1.0240000486373901, 0.0, 0.0, 0.0, 0.0, 0.0, 1.6483380007028852E9, 0.0, 2022-03-26 18:40:00.702
65.0, 617.115281838458, -87.21633691666648, 656.0513802771457, 1574.5109709952958, 0.03200000151991844, 0.3200000151991844, 1.0240000486373901, 0.0, 0.0, 0.0, 0.0, 0.0, 1.6483380007028852E9, 0.0, 2022-03-26 18:40:00.702
66.0, 515.1749587962404, -92.64293175237253, 636.6076404075138, 1595.4992895466276, 0.03200000151991844, 0.3200000151991844, 1.0240000486373901, 0.0, 0.0, 0.0, 0.0, 0.0, 1.6483380007185452E9, 0.0, 2022-03-26 18:40:00.718
66.0, 639.7323268204927, -92.67659085197374, 642.9991294317879, 1616.5773656968959, 0.03200000151991844, 0.3200000151991844, 1.0240000486373901, 0.0, 0.0, 0.0, 0.0, 0.0, 1.6483380007185452E9, 0.0, 2022-03-26 18:40:00.718
67.0, 649.9347738996148, -88.7272564987652, 645.6731579001062, 1631.6678620181046, 0.03200000151991844, 0.3200000151991844, 1.0240000486373901, 0.0, 0.0, 0.0, 0.0, 0.0, 1.648338000719288E9, 0.0, 2022-03-26 18:40:00.719
67.0, 449.0348280798644, -85.95599063159898, 647.1691178823821, 1621.9516019332223, 0.03200000151991844, 0.3200000151991844, 1.0240000486373901, 0.0, 0.0, 0.0, 0.0, 0.0, 1.648338000719288E9, 0.0, 2022-03-26 18:40:00.719
68.0, 664.7952663735487, -78.96985751437023, 651.754235228058, 1610.6795434667729, 0.03200000151991844, 0.3200000151991844, 1.0240000486373901, 0.0, 0.0, 0.0, 0.0, 0.0, 1.6483380007328928E9, 0.0, 2022-03-26 18:40:00.732
68.0, 718.9396679820493, -61.89347431669012, 653.1978366109543, 1598.895118706394, 0.03200000151991844, 0.3200000151991844, 1.0240000486373901, 0.0, 0.0, 0.0, 0.0, 0.0, 1.6483380007328928E9, 0.0, 2022-03-26 18:40:00.732
69.0, 805.8044543028809, -60.07588293822482, 660.4756819247268, 1590.6785585037433, 0.03200000151991844, 0.3200000151991844, 1.0240000486373901, 0.0, 0.0, 0.0, 0.0, 0.0, 1.6483380007649148E9, 0.0, 2022-03-26 18:40:00.764
69.0, 844.3983518956229, -51.76208533672616, 665.9134964602999, 1569.4957651547156, 0.03200000151991844, 0.3200000151991844, 1.0240000486373901, 0.0, 0.0, 0.0, 0.0, 0.0, 1.6483380007649148E9, 0.0, 2022-03-26 18:40:00.764
70.0, 826.2860164102167, -36.69402841525152, 674.0103798643686, 1546.2074081306346, 0.03200000151991844, 0.3200000151991844, 1.008000047877431, 0.0, 0.0, 0.0, 0.0, 0.0, 1.648338000765692E9, 0.0, 2022-03-26 18:40:00.765
70.0, 949.6073474991135, -35.011073435191065, 681.9389677704312, 1545.321051841136, 0.03200000151991844, 0.3200000151991844, 1.008000047877431, 0.0, 0.0, 0.0, 0.0, 0.0, 1.648338000765692E9, 0.0, 2022-03-26 18:40:00.765
71.0, 1072.2779359957203, -27.96136201871559, 683.5022459519096, 1540.3469849000685, 0.03200000151991844, 0.27200001291930676, 1.008000047877431, 0.0, 0.0, 0.0, 0.0, 0.0, 1.6483380007664125E9, 0.0, 2022-03-26 18:40:00.766
71.0, 1192.4689708217047, -26.540200035553426, 682.0436849691905, 1548.3204516055994, 0.03200000151991844, 0.27200001291930676, 1.008000047877431, 0.0, 0.0, 0.0, 0.0, 0.0, 1.6483380007664125E9, 0.0, 2022-03-26 18:40:00.766
72.0, 1350.6237300978974, -20.26464790990576, 694.5798296206631, 1564.7311326111667, 0.09600000455975533, 0.27200001291930676, 1.008000047877431, 0.0, 0.0, 0.0, 0.0, 0.0, 1.6483380007671807E9, 0.0, 2022-03-26 18:40:00.767
