%OpenBCI Raw EEG Data
%Number of channels = 4
%Sample Rate = 200.0 Hz
%First Column = SampleIndex
%Last Column = Timestamp 
%Other Columns = EEG data in microvolts followed by Accel Data (in G) interleaved with Aux Data
0, -456.68, -545.38, -1426.66, -1330.47, 0.000, 0.000, 0.000, 16:01:30.966, 1602450090966
1, -416.20, -510.51, -1380.90, -1655.98, 0.000, 0.000, 0.000, 16:01:30.980, 1602450090980
2, -403.82, -505.94, -1385.80, -1601.91, 0.000, 0.000, 0.000, 16:01:30.980, 1602450090980
3, -426.90, -536.94, -1415.85, -1282.25, 0.000, 0.000, 0.000, 16:01:30.995, 1602450090995
4, -414.13, -518.63, -1384.60, -1476.64, 0.000, 0.000, 0.000, 16:01:30.995, 1602450090995
5, -401.63, -502.38, -1384.24, -1634.33, 0.000, 0.000, 0.000, 16:01:30.996, 1602450090996
6, -392.17, -494.62, -1373.59, -1293.31, 0.000, 0.000, 0.000, 16:01:30.996, 1602450090996
7, -399.53, -501.01, -1374.44, -1267.65, 0.000, 0.000, 0.000, 16:01:31.009, 1602450091009
8, -368.57, -463.80, -1331.69, -1580.09, 0.000, 0.000, 0.000, 16:01:31.009, 1602450091009
9, -376.83, -479.28, -1355.11, -1360.91, 0.000, 0.000, 0.000, 16:01:31.025, 1602450091025
10, -390.67, -499.52, -1372.38, -1140.94, 0.000, 0.000, 0.000, 16:01:31.025, 1602450091025
11, -358.08, -467.37, -1332.56, -1468.28, 0.000, 0.000, 0.000, 16:01:31.026, 1602450091026
12, -364.16, -466.70, -1342.19, -1424.65, 0.000, 0.000, 0.000, 16:01:31.026, 1602450091026
13, -395.31, -510.03, -1388.51, -1111.89, 0.000, 0.000, 0.000, 16:01:31.039, 1602450091039
14, -368.99, -496.04, -1351.70, -1307.65, 0.000, 0.000, 0.000, 16:01:31.039, 1602450091039
15, -352.90, -468.88, -1356.43, -1473.11, 0.000, 0.000, 0.000, 16:01:31.055, 1602450091055
16, -369.20, -472.82, -1350.02, -1136.95, 0.000, 0.000, 0.000, 16:01:31.055, 1602450091055
17, -371.15, -482.51, -1331.27, -1113.53, 0.000, 0.000, 0.000, 16:01:31.056, 1602450091056
18, -320.90, -428.44, -1281.21, -1416.89, 0.000, 0.000, 0.000, 16:01:31.056, 1602450091056
19, -338.21, -443.89, -1325.31, -1204.65, 0.000, 0.000, 0.000, 16:01:31.069, 1602450091069
20, -354.84, -464.58, -1350.18, -981.83, 0.000, 0.000, 0.000, 16:01:31.069, 1602450091069
21, -316.17, -434.89, -1308.26, -1332.41, 0.000, 0.000, 0.000, 16:01:31.085, 1602450091085
22, -301.74, -413.41, -1280.22, -1254.31, 0.000, 0.000, 0.000, 16:01:31.085, 1602450091085
23, -338.87, -455.09, -1319.71, -941.95, 0.000, 0.000, 0.000, 16:01:31.086, 1602450091086
24, -317.84, -436.58, -1296.10, -1157.26, 0.000, 0.000, 0.000, 16:01:31.086, 1602450091086
25, -304.69, -406.03, -1277.30, -1311.61, 0.000, 0.000, 0.000, 16:01:31.099, 1602450091099
26, -314.09, -431.03, -1298.86, -987.59, 0.000, 0.000, 0.000, 16:01:31.099, 1602450091099
27, -314.83, -435.01, -1301.64, -965.33, 0.000, 0.000, 0.000, 16:01:31.115, 1602450091115
28, -287.30, -404.49, -1276.45, -1294.27, 0.000, 0.000, 0.000, 16:01:31.115, 1602450091115
29, -290.80, -419.09, -1280.80, -1063.51, 0.000, 0.000, 0.000, 16:01:31.116, 1602450091116
30, -306.41, -435.43, -1297.67, -837.33, 0.000, 0.000, 0.000, 16:01:31.116, 1602450091116
31, -277.66, -396.05, -1263.36, -1197.37, 0.000, 0.000, 0.000, 16:01:31.130, 1602450091130
32, -269.90, -388.91, -1266.99, -1140.72, 0.000, 0.000, 0.000, 16:01:31.130, 1602450091130
33, -297.94, -425.09, -1285.17, -809.81, 0.000, 0.000, 0.000, 16:01:31.145, 1602450091145
34, -269.76, -392.99, -1253.27, -1024.03, 0.000, 0.000, 0.000, 16:01:31.145, 1602450091145
35, -256.72, -364.51, -1249.13, -1192.77, 0.000, 0.000, 0.000, 16:01:31.146, 1602450091146
36, -277.00, -395.90, -1287.93, -865.32, 0.000, 0.000, 0.000, 16:01:31.146, 1602450091146
37, -290.21, -411.53, -1285.01, -856.88, 0.000, 0.000, 0.000, 16:01:31.159, 1602450091159
38, -251.62, -369.90, -1232.06, -1180.01, 0.000, 0.000, 0.000, 16:01:31.159, 1602450091159
39, -254.67, -377.32, -1247.36, -949.43, 0.000, 0.000, 0.000, 16:01:31.175, 1602450091175
40, -273.67, -403.12, -1277.08, -735.66, 0.000, 0.000, 0.000, 16:01:31.175, 1602450091175
41, -240.77, -349.01, -1221.59, -1079.76, 0.000, 0.000, 0.000, 16:01:31.176, 1602450091176
42, -230.17, -358.40, -1231.59, -1031.50, 0.000, 0.000, 0.000, 16:01:31.176, 1602450091176
43, -261.56, -397.41, -1274.76, -705.90, 0.000, 0.000, 0.000, 16:01:31.189, 1602450091189
44, -250.06, -364.32, -1230.57, -929.07, 0.000, 0.000, 0.000, 16:01:31.189, 1602450091189
45, -221.07, -346.90, -1203.96, -1085.18, 0.000, 0.000, 0.000, 16:01:31.205, 1602450091205
46, -259.97, -381.28, -1254.88, -772.30, 0.000, 0.000, 0.000, 16:01:31.205, 1602450091205
47, -260.70, -398.31, -1256.22, -761.08, 0.000, 0.000, 0.000, 16:01:31.207, 1602450091207
48, -214.95, -327.69, -1192.67, -1076.98, 0.000, 0.000, 0.000, 16:01:31.207, 1602450091207
49, -233.29, -351.88, -1219.01, -852.73, 0.000, 0.000, 0.000, 16:01:31.219, 1602450091219
50, -259.41, -388.70, -1248.89, -643.02, 0.000, 0.000, 0.000, 16:01:31.219, 1602450091219
51, -220.82, -348.93, -1208.22, -1008.74, 0.000, 0.000, 0.000, 16:01:31.235, 1602450091235
52, -215.37, -340.46, -1211.12, -944.48, 0.000, 0.000, 0.000, 16:01:31.235, 1602450091235
53, -246.26, -380.13, -1237.42, -619.74, 0.000, 0.000, 0.000, 16:01:31.236, 1602450091236
54, -233.07, -348.29, -1216.80, -847.60, 0.000, 0.000, 0.000, 16:01:31.236, 1602450091236
55, -192.24, -318.30, -1188.03, -1003.31, 0.000, 0.000, 0.000, 16:01:31.249, 1602450091249
56, -217.66, -353.86, -1219.64, -678.76, 0.000, 0.000, 0.000, 16:01:31.249, 1602450091249
57, -221.75, -349.04, -1224.20, -667.09, 0.000, 0.000, 0.000, 16:01:31.265, 1602450091265
58, -200.93, -341.01, -1172.51, -1009.52, 0.000, 0.000, 0.000, 16:01:31.265, 1602450091265
59, -201.16, -311.29, -1174.61, -763.92, 0.000, 0.000, 0.000, 16:01:31.265, 1602450091265
60, -218.49, -325.89, -1192.61, -544.90, 0.000, 0.000, 0.000, 16:01:31.265, 1602450091265
61, -182.94, -301.78, -1172.53, -912.80, 0.000, 0.000, 0.000, 16:01:31.279, 1602450091279
62, -192.19, -302.32, -1176.80, -863.68, 0.000, 0.000, 0.000, 16:01:31.279, 1602450091279
63, -211.14, -337.62, -1203.84, -537.24, 0.000, 0.000, 0.000, 16:01:31.311, 1602450091311
64, -201.32, -331.19, -1191.26, -770.98, 0.000, 0.000, 0.000, 16:01:31.311, 1602450091311
65, -169.94, -316.37, -1172.50, -931.84, 0.000, 0.000, 0.000, 16:01:31.312, 1602450091312
66, -197.19, -325.58, -1197.40, -599.26, 0.000, 0.000, 0.000, 16:01:31.312, 1602450091312
67, -194.53, -323.10, -1180.21, -586.47, 0.000, 0.000, 0.000, 16:01:31.313, 1602450091313
68, -175.54, -305.46, -1146.64, -931.71, 0.000, 0.000, 0.000, 16:01:31.313, 1602450091313
69, -185.90, -309.00, -1177.40, -703.70, 0.000, 0.000, 0.000, 16:01:31.313, 1602450091313
70, -201.09, -324.94, -1196.55, -490.40, 0.000, 0.000, 0.000, 16:01:31.313, 1602450091313
71, -172.25, -302.25, -1171.68, -859.52, 0.000, 0.000, 0.000, 16:01:31.324, 1602450091324
72, -174.09, -307.49, -1180.29, -812.19, 0.000, 0.000, 0.000, 16:01:31.324, 1602450091324
73, -205.68, -323.65, -1184.43, -475.31, 0.000, 0.000, 0.000, 16:01:31.339, 1602450091339
74, -201.52, -324.18, -1171.04, -720.65, 0.000, 0.000, 0.000, 16:01:31.339, 1602450091339
75, -169.73, -301.92, -1147.84, -876.53, 0.000, 0.000, 0.000, 16:01:31.355, 1602450091355
76, -164.75, -293.65, -1161.55, -530.34, 0.000, 0.000, 0.000, 16:01:31.355, 1602450091355
77, -184.21, -308.49, -1181.23, -541.89, 0.000, 0.000, 0.000, 16:01:31.356, 1602450091356
78, -159.05, -273.74, -1145.34, -873.68, 0.000, 0.000, 0.000, 16:01:31.356, 1602450091356
79, -166.73, -306.94, -1150.24, -646.40, 0.000, 0.000, 0.000, 16:01:31.369, 1602450091369
80, -196.18, -306.55, -1184.10, -432.23, 0.000, 0.000, 0.000, 16:01:31.369, 1602450091369
81, -173.86, -299.28, -1173.73, -817.94, 0.000, 0.000, 0.000, 16:01:31.385, 1602450091385
82, -158.09, -303.55, -1154.39, -751.91, 0.000, 0.000, 0.000, 16:01:31.385, 1602450091385
83, -183.06, -339.28, -1195.04, -433.65, 0.000, 0.000, 0.000, 16:01:31.386, 1602450091386
84, -167.00, -307.45, -1175.23, -667.73, 0.000, 0.000, 0.000, 16:01:31.386, 1602450091386
85, -145.21, -246.75, -1121.49, -807.48, 0.000, 0.000, 0.000, 16:01:31.399, 1602450091399
86, -158.64, -277.96, -1143.53, -482.07, 0.000, 0.000, 0.000, 16:01:31.399, 1602450091399
87, -171.80, -300.10, -1170.47, -491.93, 0.000, 0.000, 0.000, 16:01:31.415, 1602450091415
88, -142.11, -278.14, -1157.43, -839.59, 0.000, 0.000, 0.000, 16:01:31.415, 1602450091415
89, -156.31, -295.10, -1166.76, -606.77, 0.000, 0.000, 0.000, 16:01:31.416, 1602450091416
90, -182.57, -310.59, -1155.75, -394.80, 0.000, 0.000, 0.000, 16:01:31.416, 1602450091416
91, -127.45, -258.89, -1105.39, -748.43, 0.000, 0.000, 0.000, 16:01:31.429, 1602450091429
92, -118.14, -232.41, -1115.99, -685.72, 0.000, 0.000, 0.000, 16:01:31.429, 1602450091429
93, -160.02, -307.83, -1159.73, -378.70, 0.000, 0.000, 0.000, 16:01:31.445, 1602450091445
94, -145.58, -301.42, -1135.71, -620.46, 0.000, 0.000, 0.000, 16:01:31.445, 1602450091445
95, -120.97, -245.75, -1134.43, -770.58, 0.000, 0.000, 0.000, 16:01:31.447, 1602450091447
96, -158.82, -329.46, -1194.02, -472.48, 0.000, 0.000, 0.000, 16:01:31.447, 1602450091447
97, -172.94, -376.87, -1210.81, -491.92, 0.000, 0.000, 0.000, 16:01:31.460, 1602450091460
98, -131.26, -300.90, -1132.27, -802.92, 0.000, 0.000, 0.000, 16:01:31.460, 1602450091460
99, -111.98, -193.17, -1088.52, -523.27, 0.000, 0.000, 0.000, 16:01:31.475, 1602450091475
100, -143.59, -235.28, -1108.99, -316.48, 0.000, 0.000, 0.000, 16:01:31.475, 1602450091475
101, -128.53, -245.65, -1086.86, -709.33, 0.000, 0.000, 0.000, 16:01:31.476, 1602450091476
102, -139.49, -256.00, -1087.16, -655.16, 0.000, 0.000, 0.000, 16:01:31.476, 1602450091476
103, -160.13, -270.07, -1125.75, -328.25, 0.000, 0.000, 0.000, 16:01:31.490, 1602450091490
104, -159.95, -281.73, -1117.18, -579.13, 0.000, 0.000, 0.000, 16:01:31.490, 1602450091490
105, -138.79, -234.49, -1074.97, -729.58, 0.000, 0.000, 0.000, 16:01:31.505, 1602450091505
106, -164.10, -271.07, -1091.88, -402.64, 0.000, 0.000, 0.000, 16:01:31.505, 1602450091505
107, -138.28, -252.66, -1092.61, -389.69, 0.000, 0.000, 0.000, 16:01:31.507, 1602450091507
108, -92.70, -200.66, -1047.72, -725.76, 0.000, 0.000, 0.000, 16:01:31.507, 1602450091507
109, -97.96, -223.05, -1062.36, -490.22, 0.000, 0.000, 0.000, 16:01:31.519, 1602450091519
110, -118.84, -242.28, -1079.17, -278.59, 0.000, 0.000, 0.000, 16:01:31.519, 1602450091519
111, -74.86, -211.39, -1045.62, -656.42, 0.000, 0.000, 0.000, 16:01:31.534, 1602450091534
112, -78.46, -209.86, -1032.85, -589.98, 0.000, 0.000, 0.000, 16:01:31.534, 1602450091534
113, -83.01, -166.77, -1016.31, -230.63, 0.000, 0.000, 0.000, 16:01:31.535, 1602450091535
114, -64.65, -176.84, -1026.66, -487.64, 0.000, 0.000, 0.000, 16:01:31.535, 1602450091535
115, -31.37, -107.79, -982.31, -626.45, 0.000, 0.000, 0.000, 16:01:31.549, 1602450091549
116, -57.16, -171.15, -1026.50, -319.61, 0.000, 0.000, 0.000, 16:01:31.549, 1602450091549
117, -29.54, -104.83, -984.28, -284.56, 0.000, 0.000, 0.000, 16:01:31.565, 1602450091565
118, 31.70, -85.87, -947.99, -619.25, 0.000, 0.000, 0.000, 16:01:31.565, 1602450091565
119, -8.77, -125.30, -947.85, -398.71, 0.000, 0.000, 0.000, 16:01:31.565, 1602450091565
120, -93.46, -137.05, -980.96, -204.66, 0.000, 0.000, 0.000, 16:01:31.565, 1602450091565
121, 47.18, -111.13, -939.64, -552.43, 0.000, 0.000, 0.000, 16:01:31.579, 1602450091579
122, -14.11, -158.82, -1044.14, -544.51, 0.000, 0.000, 0.000, 16:01:31.579, 1602450091579
123, -53.31, -146.21, -1023.17, -196.78, 0.000, 0.000, 0.000, 16:01:31.595, 1602450091595
124, -11.12, -95.68, -952.97, -415.13, 0.000, 0.000, 0.000, 16:01:31.595, 1602450091595
125, -5.22, -123.32, -977.94, -605.75, 0.000, 0.000, 0.000, 16:01:31.596, 1602450091596
126, -45.00, -186.71, -1036.58, -297.59, 0.000, 0.000, 0.000, 16:01:31.596, 1602450091596
127, -63.46, -158.77, -1027.11, -302.68, 0.000, 0.000, 0.000, 16:01:31.609, 1602450091609
128, -52.36, -168.27, -1029.46, -659.49, 0.000, 0.000, 0.000, 16:01:31.609, 1602450091609
129, -72.98, -201.63, -1061.14, -439.26, 0.000, 0.000, 0.000, 16:01:31.625, 1602450091625
130, -89.50, -211.67, -1084.50, -230.29, 0.000, 0.000, 0.000, 16:01:31.625, 1602450091625
131, -57.50, -184.67, -1045.41, -599.64, 0.000, 0.000, 0.000, 16:01:31.625, 1602450091625
132, -79.84, -213.70, -1074.58, -565.58, 0.000, 0.000, 0.000, 16:01:31.625, 1602450091625
133, -114.91, -255.60, -1113.39, -254.45, 0.000, 0.000, 0.000, 16:01:31.639, 1602450091639
134, -87.30, -225.02, -1097.14, -482.25, 0.000, 0.000, 0.000, 16:01:31.639, 1602450091639
135, -70.71, -202.85, -1072.75, -640.17, 0.000, 0.000, 0.000, 16:01:31.655, 1602450091655
136, -102.85, -249.78, -1109.76, -332.55, 0.000, 0.000, 0.000, 16:01:31.655, 1602450091655
137, -111.81, -257.39, -1103.83, -334.97, 0.000, 0.000, 0.000, 16:01:31.656, 1602450091656
138, -96.07, -231.95, -1088.45, -672.26, 0.000, 0.000, 0.000, 16:01:31.656, 1602450091656
139, -105.06, -245.18, -1111.65, -456.59, 0.000, 0.000, 0.000, 16:01:31.669, 1602450091669
140, -128.03, -276.90, -1135.32, -260.79, 0.000, 0.000, 0.000, 16:01:31.669, 1602450091669
141, -104.29, -242.45, -1093.54, -608.58, 0.000, 0.000, 0.000, 16:01:31.685, 1602450091685
142, -107.26, -240.27, -1097.45, -561.89, 0.000, 0.000, 0.000, 16:01:31.685, 1602450091685
143, -128.34, -272.97, -1122.80, -259.43, 0.000, 0.000, 0.000, 16:01:31.687, 1602450091687
144, -119.53, -247.85, -1101.24, -473.45, 0.000, 0.000, 0.000, 16:01:31.687, 1602450091687
145, -113.38, -247.14, -1109.49, -648.81, 0.000, 0.000, 0.000, 16:01:31.716, 1602450091716
146, -124.94, -260.73, -1132.77, -346.76, 0.000, 0.000, 0.000, 16:01:31.716, 1602450091716
147, -128.83, -279.26, -1129.58, -333.78, 0.000, 0.000, 0.000, 16:01:31.717, 1602450091717
148, -104.22, -249.25, -1099.29, -653.10, 0.000, 0.000, 0.000, 16:01:31.717, 1602450091717
149, -113.69, -258.27, -1115.02, -449.09, 0.000, 0.000, 0.000, 16:01:31.717, 1602450091717
150, -136.27, -277.44, -1140.99, -255.40, 0.000, 0.000, 0.000, 16:01:31.717, 1602450091717
151, -117.40, -256.35, -1102.97, -595.45, 0.000, 0.000, 0.000, 16:01:31.730, 1602450091730
152, -119.82, -254.45, -1117.65, -559.56, 0.000, 0.000, 0.000, 16:01:31.730, 1602450091730
153, -149.15, -290.05, -1150.89, -273.15, 0.000, 0.000, 0.000, 16:01:31.745, 1602450091745
154, -135.12, -270.94, -1125.83, -470.36, 0.000, 0.000, 0.000, 16:01:31.745, 1602450091745
155, -129.40, -262.14, -1133.86, -639.82, 0.000, 0.000, 0.000, 16:01:31.746, 1602450091746
156, -129.15, -276.22, -1149.13, -347.07, 0.000, 0.000, 0.000, 16:01:31.746, 1602450091746
157, -135.26, -282.91, -1134.87, -333.11, 0.000, 0.000, 0.000, 16:01:31.759, 1602450091759
158, -115.03, -243.78, -1102.94, -632.95, 0.000, 0.000, 0.000, 16:01:31.759, 1602450091759
159, -125.17, -271.36, -1121.09, -455.21, 0.000, 0.000, 0.000, 16:01:31.775, 1602450091775
160, -144.72, -289.46, -1118.72, -254.93, 0.000, 0.000, 0.000, 16:01:31.775, 1602450091775
161, -111.18, -246.19, -1099.14, -558.34, 0.000, 0.000, 0.000, 16:01:31.776, 1602450091776
162, -110.07, -253.57, -1110.95, -542.45, 0.000, 0.000, 0.000, 16:01:31.776, 1602450091776
163, -142.40, -280.00, -1135.12, -266.69, 0.000, 0.000, 0.000, 16:01:31.789, 1602450091789
164, -111.46, -251.56, -1114.29, -436.26, 0.000, 0.000, 0.000, 16:01:31.789, 1602450091789
165, -115.59, -246.72, -1116.79, -607.71, 0.000, 0.000, 0.000, 16:01:31.805, 1602450091805
166, -135.83, -278.53, -1143.95, -355.24, 0.000, 0.000, 0.000, 16:01:31.805, 1602450091805
167, -136.70, -284.99, -1130.35, -326.29, 0.000, 0.000, 0.000, 16:01:31.806, 1602450091806
168, -115.89, -277.18, -1106.76, -600.86, 0.000, 0.000, 0.000, 16:01:31.806, 1602450091806
169, -115.92, -261.68, -1120.39, -453.19, 0.000, 0.000, 0.000, 16:01:31.819, 1602450091819
170, -120.09, -280.52, -1140.52, -273.55, 0.000, 0.000, 0.000, 16:01:31.819, 1602450091819
171, -109.48, -260.00, -1115.86, -523.73, 0.000, 0.000, 0.000, 16:01:31.835, 1602450091835
172, -99.06, -240.74, -1098.76, -519.89, 0.000, 0.000, 0.000, 16:01:31.835, 1602450091835
173, -116.08, -267.06, -1124.41, -289.94, 0.000, 0.000, 0.000, 16:01:31.836, 1602450091836
174, -117.78, -269.43, -1119.02, -419.68, 0.000, 0.000, 0.000, 16:01:31.836, 1602450091836
175, -95.07, -246.87, -1108.26, -567.10, 0.000, 0.000, 0.000, 16:01:31.866, 1602450091866
176, -125.03, -273.32, -1127.16, -362.44, 0.000, 0.000, 0.000, 16:01:31.866, 1602450091866
177, -130.31, -279.51, -1132.45, -325.59, 0.000, 0.000, 0.000, 16:01:31.867, 1602450091867
178, -99.77, -254.50, -1124.00, -574.78, 0.000, 0.000, 0.000, 16:01:31.867, 1602450091867
179, -112.27, -254.47, -1110.30, -437.40, 0.000, 0.000, 0.000, 16:01:31.867, 1602450091867
180, -124.52, -278.59, -1118.18, -267.12, 0.000, 0.000, 0.000, 16:01:31.867, 1602450091867
181, -103.55, -251.43, -1107.72, -512.34, 0.000, 0.000, 0.000, 16:01:31.880, 1602450091880
182, -108.95, -257.92, -1118.90, -516.47, 0.000, 0.000, 0.000, 16:01:31.880, 1602450091880
183, -120.68, -269.10, -1125.38, -283.62, 0.000, 0.000, 0.000, 16:01:31.894, 1602450091894
184, -120.91, -258.12, -1114.55, -414.29, 0.000, 0.000, 0.000, 16:01:31.894, 1602450091894
185, -105.71, -242.83, -1102.16, -559.33, 0.000, 0.000, 0.000, 16:01:31.895, 1602450091895
186, -124.61, -274.34, -1143.54, -357.24, 0.000, 0.000, 0.000, 16:01:31.895, 1602450091895
187, -131.77, -282.24, -1140.63, -321.86, 0.000, 0.000, 0.000, 16:01:31.909, 1602450091909
188, -117.81, -265.67, -1128.98, -573.67, 0.000, 0.000, 0.000, 16:01:31.909, 1602450091909
189, -116.05, -254.97, -1111.61, -433.16, 0.000, 0.000, 0.000, 16:01:31.925, 1602450091925
190, -126.10, -277.32, -1132.70, -262.26, 0.000, 0.000, 0.000, 16:01:31.925, 1602450091925
191, -101.27, -254.57, -1126.45, -510.11, 0.000, 0.000, 0.000, 16:01:31.929, 1602450091929
192, -104.12, -246.51, -1103.87, -505.12, 0.000, 0.000, 0.000, 16:01:31.929, 1602450091929
193, -125.87, -274.64, -1126.78, -276.02, 0.000, 0.000, 0.000, 16:01:31.955, 1602450091955
194, -115.21, -274.03, -1124.01, -413.01, 0.000, 0.000, 0.000, 16:01:31.955, 1602450091955
195, -115.68, -251.44, -1111.21, -562.79, 0.000, 0.000, 0.000, 16:01:31.956, 1602450091956
196, -118.39, -259.62, -1124.10, -343.39, 0.000, 0.000, 0.000, 16:01:31.956, 1602450091956
197, -125.55, -264.28, -1121.87, -309.80, 0.000, 0.000, 0.000, 16:01:31.957, 1602450091957
198, -104.63, -248.44, -1114.03, -561.13, 0.000, 0.000, 0.000, 16:01:31.957, 1602450091957
199, -102.55, -257.88, -1127.30, -430.00, 0.000, 0.000, 0.000, 16:01:31.969, 1602450091969
200, -126.67, -285.51, -1152.75, -271.03, 0.000, 0.000, 0.000, 16:01:31.969, 1602450091969
0, -99.75, -248.45, -1106.12, -496.86, 0.000, 0.000, 0.000, 16:01:31.970, 1602450091970
1, -103.99, -254.43, -1103.18, -498.22, 0.000, 0.000, 0.000, 16:01:31.984, 1602450091984
2, -124.81, -267.53, -1132.41, -275.15, 0.000, 0.000, 0.000, 16:01:31.984, 1602450091984
3, -109.12, -236.41, -1105.76, -389.20, 0.000, 0.000, 0.000, 16:01:32.016, 1602450092016
4, -105.92, -245.17, -1106.40, -543.74, 0.000, 0.000, 0.000, 16:01:32.016, 1602450092016
5, -109.10, -255.44, -1122.26, -341.75, 0.000, 0.000, 0.000, 16:01:32.017, 1602450092017
6, -121.47, -267.45, -1125.92, -304.72, 0.000, 0.000, 0.000, 16:01:32.017, 1602450092017
7, -95.04, -248.55, -1103.26, -538.54, 0.000, 0.000, 0.000, 16:01:32.018, 1602450092018
8, -103.25, -259.82, -1115.28, -425.72, 0.000, 0.000, 0.000, 16:01:32.018, 1602450092018
9, -117.07, -266.74, -1137.47, -259.15, 0.000, 0.000, 0.000, 16:01:32.019, 1602450092019
10, -93.81, -232.03, -1093.74, -456.41, 0.000, 0.000, 0.000, 16:01:32.019, 1602450092019
11, -89.00, -232.36, -1094.29, -495.33, 0.000, 0.000, 0.000, 16:01:32.029, 1602450092029
12, -94.25, -246.35, -1107.90, -340.46, 0.000, 0.000, 0.000, 16:01:32.029, 1602450092029
13, -96.03, -244.19, -1101.45, -272.48, 0.000, 0.000, 0.000, 16:01:32.044, 1602450092044
14, -110.59, -258.64, -1128.27, -374.17, 0.000, 0.000, 0.000, 16:01:32.044, 1602450092044
15, -111.19, -265.06, -1122.49, -506.34, 0.000, 0.000, 0.000, 16:01:32.060, 1602450092060
16, -89.18, -235.05, -1089.64, -347.66, 0.000, 0.000, 0.000, 16:01:32.060, 1602450092060
17, -105.36, -257.82, -1119.99, -318.09, 0.000, 0.000, 0.000, 16:01:32.061, 1602450092061
18, -107.02, -262.36, -1125.88, -487.99, 0.000, 0.000, 0.000, 16:01:32.061, 1602450092061
19, -106.81, -257.18, -1113.64, -440.31, 0.000, 0.000, 0.000, 16:01:32.074, 1602450092074
20, -105.42, -243.49, -1116.57, -272.42, 0.000, 0.000, 0.000, 16:01:32.074, 1602450092074
21, -108.73, -252.53, -1119.51, -436.23, 0.000, 0.000, 0.000, 16:01:32.090, 1602450092090
22, -101.61, -253.08, -1116.46, -505.53, 0.000, 0.000, 0.000, 16:01:32.090, 1602450092090
23, -75.75, -234.27, -1094.34, -276.75, 0.000, 0.000, 0.000, 16:01:32.092, 1602450092092
24, -98.69, -251.61, -1131.27, -366.04, 0.000, 0.000, 0.000, 16:01:32.092, 1602450092092
25, -93.71, -248.91, -1115.01, -505.85, 0.000, 0.000, 0.000, 16:01:32.121, 1602450092121
26, -94.91, -242.16, -1095.82, -352.41, 0.000, 0.000, 0.000, 16:01:32.121, 1602450092121
27, -105.28, -256.62, -1119.25, -300.79, 0.000, 0.000, 0.000, 16:01:32.123, 1602450092123
28, -105.42, -254.34, -1128.06, -486.32, 0.000, 0.000, 0.000, 16:01:32.123, 1602450092123
29, -87.50, -231.76, -1095.49, -433.07, 0.000, 0.000, 0.000, 16:01:32.124, 1602450092124
30, -91.18, -237.87, -1092.52, -247.56, 0.000, 0.000, 0.000, 16:01:32.124, 1602450092124
31, -113.59, -255.05, -1127.31, -436.48, 0.000, 0.000, 0.000, 16:01:32.134, 1602450092134
32, -92.49, -233.41, -1091.06, -496.01, 0.000, 0.000, 0.000, 16:01:32.134, 1602450092134
33, -89.76, -238.94, -1097.43, -261.83, 0.000, 0.000, 0.000, 16:01:32.150, 1602450092150
34, -101.03, -251.82, -1114.77, -350.79, 0.000, 0.000, 0.000, 16:01:32.150, 1602450092150
35, -91.82, -247.92, -1108.69, -507.76, 0.000, 0.000, 0.000, 16:01:32.151, 1602450092151
36, -91.30, -235.55, -1103.05, -340.82, 0.000, 0.000, 0.000, 16:01:32.151, 1602450092151
37, -94.62, -237.52, -1099.68, -275.23, 0.000, 0.000, 0.000, 16:01:32.165, 1602450092165
38, -103.43, -235.15, -1102.46, -475.20, 0.000, 0.000, 0.000, 16:01:32.165, 1602450092165
39, -81.28, -227.56, -1092.45, -432.22, 0.000, 0.000, 0.000, 16:01:32.180, 1602450092180
40, -90.43, -238.90, -1091.41, -227.52, 0.000, 0.000, 0.000, 16:01:32.180, 1602450092180
41, -122.55, -240.15, -1092.23, -416.72, 0.000, 0.000, 0.000, 16:01:32.182, 1602450092182
42, -94.12, -228.55, -1080.25, -496.11, 0.000, 0.000, 0.000, 16:01:32.182, 1602450092182
43, -78.43, -227.85, -1086.39, -240.07, 0.000, 0.000, 0.000, 16:01:32.195, 1602450092195
44, -113.89, -247.29, -1123.54, -341.96, 0.000, 0.000, 0.000, 16:01:32.195, 1602450092195
45, -101.60, -229.11, -1116.70, -512.30, 0.000, 0.000, 0.000, 16:01:32.210, 1602450092210
46, -102.13, -229.39, -1104.20, -343.52, 0.000, 0.000, 0.000, 16:01:32.210, 1602450092210
47, -108.98, -254.32, -1121.40, -271.37, 0.000, 0.000, 0.000, 16:01:32.211, 1602450092211
48, -104.82, -246.94, -1118.87, -484.52, 0.000, 0.000, 0.000, 16:01:32.211, 1602450092211
49, -93.84, -230.05, -1100.87, -440.57, 0.000, 0.000, 0.000, 16:01:32.225, 1602450092225
50, -99.87, -235.76, -1123.54, -226.46, 0.000, 0.000, 0.000, 16:01:32.225, 1602450092225
51, -110.82, -248.24, -1120.10, -424.69, 0.000, 0.000, 0.000, 16:01:32.240, 1602450092240
52, -100.00, -249.34, -1100.19, -517.03, 0.000, 0.000, 0.000, 16:01:32.240, 1602450092240
53, -83.93, -233.68, -1090.59, -236.70, 0.000, 0.000, 0.000, 16:01:32.241, 1602450092241
54, -120.95, -260.29, -1141.46, -351.54, 0.000, 0.000, 0.000, 16:01:32.241, 1602450092241
55, -111.43, -251.75, -1119.98, -537.67, 0.000, 0.000, 0.000, 16:01:32.255, 1602450092255
56, -87.76, -210.13, -1069.74, -329.73, 0.000, 0.000, 0.000, 16:01:32.255, 1602450092255
57, -103.46, -237.12, -1114.15, -261.15, 0.000, 0.000, 0.000, 16:01:32.269, 1602450092269
58, -111.06, -253.45, -1132.29, -500.52, 0.000, 0.000, 0.000, 16:01:32.269, 1602450092269
59, -97.78, -232.85, -1076.54, -445.06, 0.000, 0.000, 0.000, 16:01:32.270, 1602450092270
60, -98.01, -228.75, -1100.95, -212.90, 0.000, 0.000, 0.000, 16:01:32.270, 1602450092270
61, -108.32, -247.45, -1108.03, -423.83, 0.000, 0.000, 0.000, 16:01:32.284, 1602450092284
62, -91.97, -217.65, -1087.39, -512.63, 0.000, 0.000, 0.000, 16:01:32.284, 1602450092284
63, -100.06, -234.40, -1085.47, -237.99, 0.000, 0.000, 0.000, 16:01:32.299, 1602450092299
64, -116.96, -254.93, -1122.50, -341.89, 0.000, 0.000, 0.000, 16:01:32.299, 1602450092299
65, -107.25, -244.70, -1110.26, -543.94, 0.000, 0.000, 0.000, 16:01:32.300, 1602450092300
66, -90.16, -230.14, -1081.64, -338.48, 0.000, 0.000, 0.000, 16:01:32.300, 1602450092300
67, -117.79, -254.23, -1100.02, -258.52, 0.000, 0.000, 0.000, 16:01:32.314, 1602450092314
68, -113.99, -254.03, -1110.94, -497.04, 0.000, 0.000, 0.000, 16:01:32.314, 1602450092314
69, -88.57, -242.78, -1101.62, -451.72, 0.000, 0.000, 0.000, 16:01:32.329, 1602450092329
70, -100.21, -237.28, -1109.98, -213.74, 0.000, 0.000, 0.000, 16:01:32.329, 1602450092329
71, -117.76, -259.43, -1121.89, -431.63, 0.000, 0.000, 0.000, 16:01:32.330, 1602450092330
72, -105.64, -251.55, -1101.56, -536.99, 0.000, 0.000, 0.000, 16:01:32.330, 1602450092330
73, -107.63, -246.96, -1106.63, -247.89, 0.000, 0.000, 0.000, 16:01:32.345, 1602450092345
74, -109.28, -238.75, -1114.33, -332.27, 0.000, 0.000, 0.000, 16:01:32.345, 1602450092345
75, -97.80, -233.00, -1088.08, -532.41, 0.000, 0.000, 0.000, 16:01:32.360, 1602450092360
76, -89.99, -222.20, -1075.89, -330.34, 0.000, 0.000, 0.000, 16:01:32.360, 1602450092360
77, -108.07, -240.04, -1106.72, -253.31, 0.000, 0.000, 0.000, 16:01:32.360, 1602450092360
78, -112.14, -245.29, -1116.98, -501.67, 0.000, 0.000, 0.000, 16:01:32.360, 1602450092360
79, -92.73, -234.41, -1083.12, -449.00, 0.000, 0.000, 0.000, 16:01:32.374, 1602450092374
80, -113.39, -263.31, -1119.86, -222.24, 0.000, 0.000, 0.000, 16:01:32.374, 1602450092374
81, -100.08, -250.04, -1126.35, -423.10, 0.000, 0.000, 0.000, 16:01:32.390, 1602450092390
82, -95.01, -247.82, -1101.95, -534.49, 0.000, 0.000, 0.000, 16:01:32.390, 1602450092390
83, -90.82, -236.59, -1104.17, -234.27, 0.000, 0.000, 0.000, 16:01:32.390, 1602450092390
84, -119.86, -263.79, -1131.35, -344.51, 0.000, 0.000, 0.000, 16:01:32.390, 1602450092390
85, -107.45, -242.76, -1094.76, -543.29, 0.000, 0.000, 0.000, 16:01:32.421, 1602450092421
86, -91.87, -227.12, -1092.49, -336.53, 0.000, 0.000, 0.000, 16:01:32.421, 1602450092421
87, -107.20, -251.80, -1118.71, -252.85, 0.000, 0.000, 0.000, 16:01:32.421, 1602450092421
88, -112.69, -244.39, -1111.90, -496.44, 0.000, 0.000, 0.000, 16:01:32.421, 1602450092421
89, -92.62, -224.80, -1096.61, -448.36, 0.000, 0.000, 0.000, 16:01:32.422, 1602450092422
90, -112.24, -252.04, -1109.36, -208.51, 0.000, 0.000, 0.000, 16:01:32.422, 1602450092422
91, -119.53, -261.56, -1125.12, -430.28, 0.000, 0.000, 0.000, 16:01:32.434, 1602450092434
92, -95.94, -244.43, -1090.33, -531.76, 0.000, 0.000, 0.000, 16:01:32.434, 1602450092434
93, -93.42, -220.29, -1084.92, -223.69, 0.000, 0.000, 0.000, 16:01:32.450, 1602450092450
94, -113.20, -243.40, -1124.97, -334.64, 0.000, 0.000, 0.000, 16:01:32.450, 1602450092450
95, -110.99, -249.91, -1112.74, -550.12, 0.000, 0.000, 0.000, 16:01:32.451, 1602450092451
96, -87.06, -224.49, -1086.59, -329.32, 0.000, 0.000, 0.000, 16:01:32.451, 1602450092451
97, -96.10, -240.85, -1124.38, -244.63, 0.000, 0.000, 0.000, 16:01:32.464, 1602450092464
98, -95.94, -250.45, -1120.35, -491.26, 0.000, 0.000, 0.000, 16:01:32.464, 1602450092464
99, -90.77, -237.87, -1093.36, -453.95, 0.000, 0.000, 0.000, 16:01:32.480, 1602450092480
100, -103.40, -236.65, -1109.14, -198.58, 0.000, 0.000, 0.000, 16:01:32.480, 1602450092480
101, -136.24, -279.20, -1132.15, -440.44, 0.000, 0.000, 0.000, 16:01:32.481, 1602450092481
102, -91.61, -238.36, -1086.72, -525.84, 0.000, 0.000, 0.000, 16:01:32.481, 1602450092481
103, -87.81, -238.80, -1100.01, -219.38, 0.000, 0.000, 0.000, 16:01:32.495, 1602450092495
104, -127.88, -283.74, -1148.62, -348.89, 0.000, 0.000, 0.000, 16:01:32.495, 1602450092495
105, -128.11, -249.84, -1105.01, -553.26, 0.000, 0.000, 0.000, 16:01:32.510, 1602450092510
106, -74.98, -207.79, -1077.53, -315.14, 0.000, 0.000, 0.000, 16:01:32.510, 1602450092510
107, -99.26, -251.86, -1123.78, -243.56, 0.000, 0.000, 0.000, 16:01:32.511, 1602450092511
108, -88.22, -245.13, -1107.64, -493.98, 0.000, 0.000, 0.000, 16:01:32.511, 1602450092511
109, -81.23, -217.93, -1080.33, -441.78, 0.000, 0.000, 0.000, 16:01:32.524, 1602450092524
110, -89.79, -227.06, -1093.65, -186.56, 0.000, 0.000, 0.000, 16:01:32.524, 1602450092524
111, -111.89, -245.44, -1105.60, -417.92, 0.000, 0.000, 0.000, 16:01:32.540, 1602450092540
112, -85.72, -257.79, -1107.24, -533.42, 0.000, 0.000, 0.000, 16:01:32.540, 1602450092540
113, -80.82, -221.69, -1071.12, -211.07, 0.000, 0.000, 0.000, 16:01:32.541, 1602450092541
114, -97.62, -228.10, -1086.69, -314.88, 0.000, 0.000, 0.000, 16:01:32.541, 1602450092541
115, -89.59, -242.67, -1081.52, -532.37, 0.000, 0.000, 0.000, 16:01:32.572, 1602450092572
116, -57.97, -197.46, -1043.09, -299.81, 0.000, 0.000, 0.000, 16:01:32.572, 1602450092572
117, -78.03, -223.26, -1079.29, -218.07, 0.000, 0.000, 0.000, 16:01:32.572, 1602450092572
118, -56.41, -211.96, -1048.87, -456.27, 0.000, 0.000, 0.000, 16:01:32.572, 1602450092572
119, -19.63, -147.20, -1002.55, -385.91, 0.000, 0.000, 0.000, 16:01:32.573, 1602450092573
120, -4.62, -112.85, -984.11, -106.75, 0.000, 0.000, 0.000, 16:01:32.573, 1602450092573
121, 16.09, -101.00, -978.15, -315.09, 0.000, 0.000, 0.000, 16:01:32.585, 1602450092585
122, 64.32, -39.98, -926.88, -399.30, 0.000, 0.000, 0.000, 16:01:32.585, 1602450092585
123, 86.57, -8.75, -910.78, -71.53, 0.000, 0.000, 0.000, 16:01:32.600, 1602450092600
124, 65.18, -47.44, -975.64, -193.34, 0.000, 0.000, 0.000, 16:01:32.600, 1602450092600
125, 41.32, -45.31, -957.83, -420.74, 0.000, 0.000, 0.000, 16:01:32.601, 1602450092601
126, 112.44, 22.99, -851.42, -153.80, 0.000, 0.000, 0.000, 16:01:32.601, 1602450092601
127, 96.50, 4.24, -901.13, -72.61, 0.000, 0.000, 0.000, 16:01:32.615, 1602450092615
128, 87.68, 1.95, -867.59, -324.74, 0.000, 0.000, 0.000, 16:01:32.615, 1602450092615
129, 92.78, -8.51, -876.56, -290.64, 0.000, 0.000, 0.000, 16:01:32.630, 1602450092630
130, 67.80, -12.41, -919.72, -46.21, 0.000, 0.000, 0.000, 16:01:32.630, 1602450092630
131, 34.29, -28.79, -921.82, -278.97, 0.000, 0.000, 0.000, 16:01:32.631, 1602450092631
132, 48.31, -85.36, -975.55, -423.43, 0.000, 0.000, 0.000, 16:01:32.631, 1602450092631
133, 65.98, -12.52, -881.28, -68.90, 0.000, 0.000, 0.000, 16:01:32.645, 1602450092645
134, 24.35, -63.57, -919.16, -195.32, 0.000, 0.000, 0.000, 16:01:32.645, 1602450092645
135, -3.19, -132.47, -977.47, -458.41, 0.000, 0.000, 0.000, 16:01:32.661, 1602450092661
136, 35.47, -78.46, -954.42, -221.33, 0.000, 0.000, 0.000, 16:01:32.661, 1602450092661
137, 8.09, -63.13, -963.62, -121.07, 0.000, 0.000, 0.000, 16:01:32.662, 1602450092662
138, -14.05, -129.05, -1015.22, -417.67, 0.000, 0.000, 0.000, 16:01:32.662, 1602450092662
139, -18.76, -128.69, -986.25, -371.60, 0.000, 0.000, 0.000, 16:01:32.675, 1602450092675
140, -17.16, -131.94, -996.02, -110.56, 0.000, 0.000, 0.000, 16:01:32.675, 1602450092675
141, -42.54, -158.03, -1034.90, -356.72, 0.000, 0.000, 0.000, 16:01:32.689, 1602450092689
142, -26.20, -159.06, -1029.65, -476.98, 0.000, 0.000, 0.000, 16:01:32.689, 1602450092689
143, -36.65, -155.73, -1023.72, -163.93, 0.000, 0.000, 0.000, 16:01:32.690, 1602450092690
144, -62.10, -189.80, -1065.42, -282.82, 0.000, 0.000, 0.000, 16:01:32.690, 1602450092690
145, -71.06, -213.56, -1065.81, -514.81, 0.000, 0.000, 0.000, 16:01:32.704, 1602450092704
146, -76.73, -220.27, -1061.36, -311.38, 0.000, 0.000, 0.000, 16:01:32.704, 1602450092704
147, -70.22, -217.42, -1075.15, -208.64, 0.000, 0.000, 0.000, 16:01:32.720, 1602450092720
148, -71.14, -202.96, -1075.69, -466.29, 0.000, 0.000, 0.000, 16:01:32.720, 1602450092720
149, -54.51, -204.24, -1062.04, -423.31, 0.000, 0.000, 0.000, 16:01:32.721, 1602450092721
150, -83.35, -234.98, -1089.87, -177.02, 0.000, 0.000, 0.000, 16:01:32.721, 1602450092721
151, -110.65, -273.39, -1124.99, -423.37, 0.000, 0.000, 0.000, 16:01:32.734, 1602450092734
152, -105.06, -257.80, -1101.88, -538.59, 0.000, 0.000, 0.000, 16:01:32.734, 1602450092734
153, -89.33, -243.34, -1093.02, -218.17, 0.000, 0.000, 0.000, 16:01:32.750, 1602450092750
154, -119.02, -283.21, -1138.49, -339.96, 0.000, 0.000, 0.000, 16:01:32.750, 1602450092750
155, -121.14, -293.22, -1133.70, -562.41, 0.000, 0.000, 0.000, 16:01:32.750, 1602450092750
156, -91.77, -265.86, -1088.75, -328.71, 0.000, 0.000, 0.000, 16:01:32.750, 1602450092750
157, -114.83, -281.10, -1129.59, -248.41, 0.000, 0.000, 0.000, 16:01:32.764, 1602450092764
158, -117.20, -273.26, -1116.32, -506.88, 0.000, 0.000, 0.000, 16:01:32.764, 1602450092764
159, -102.99, -265.45, -1090.76, -456.12, 0.000, 0.000, 0.000, 16:01:32.780, 1602450092780
160, -117.14, -284.28, -1122.53, -207.22, 0.000, 0.000, 0.000, 16:01:32.780, 1602450092780
161, -140.65, -299.53, -1134.70, -440.54, 0.000, 0.000, 0.000, 16:01:32.780, 1602450092780
162, -105.49, -271.28, -1079.72, -534.44, 0.000, 0.000, 0.000, 16:01:32.780, 1602450092780
163, -91.14, -250.48, -1086.83, -213.67, 0.000, 0.000, 0.000, 16:01:32.794, 1602450092794
164, -118.94, -274.09, -1115.82, -328.27, 0.000, 0.000, 0.000, 16:01:32.794, 1602450092794
165, -116.67, -273.23, -1112.96, -555.59, 0.000, 0.000, 0.000, 16:01:32.810, 1602450092810
166, -94.06, -249.19, -1085.44, -322.42, 0.000, 0.000, 0.000, 16:01:32.810, 1602450092810
167, -115.29, -280.11, -1118.80, -244.34, 0.000, 0.000, 0.000, 16:01:32.825, 1602450092825
168, -125.82, -304.71, -1139.46, -518.06, 0.000, 0.000, 0.000, 16:01:32.825, 1602450092825
169, -119.10, -290.81, -1106.62, -465.27, 0.000, 0.000, 0.000, 16:01:32.826, 1602450092826
170, -130.46, -287.40, -1114.84, -202.92, 0.000, 0.000, 0.000, 16:01:32.826, 1602450092826
171, -129.03, -300.54, -1132.68, -439.91, 0.000, 0.000, 0.000, 16:01:32.840, 1602450092840
172, -116.13, -290.89, -1108.98, -551.45, 0.000, 0.000, 0.000, 16:01:32.840, 1602450092840
173, -107.70, -275.89, -1102.70, -228.55, 0.000, 0.000, 0.000, 16:01:32.841, 1602450092841
174, -128.77, -304.16, -1151.11, -354.40, 0.000, 0.000, 0.000, 16:01:32.841, 1602450092841
175, -118.60, -295.54, -1117.98, -561.81, 0.000, 0.000, 0.000, 16:01:32.854, 1602450092854
176, -107.23, -288.54, -1102.48, -338.10, 0.000, 0.000, 0.000, 16:01:32.854, 1602450092854
177, -119.54, -289.33, -1124.30, -248.07, 0.000, 0.000, 0.000, 16:01:32.870, 1602450092870
178, -123.23, -291.25, -1131.07, -512.01, 0.000, 0.000, 0.000, 16:01:32.870, 1602450092870
179, -102.81, -267.38, -1086.22, -448.83, 0.000, 0.000, 0.000, 16:01:32.871, 1602450092871
180, -103.30, -281.59, -1111.67, -194.86, 0.000, 0.000, 0.000, 16:01:32.871, 1602450092871
181, -130.72, -311.33, -1138.11, -442.45, 0.000, 0.000, 0.000, 16:01:32.884, 1602450092884
182, -98.01, -264.42, -1094.54, -531.56, 0.000, 0.000, 0.000, 16:01:32.884, 1602450092884
183, -99.52, -274.33, -1095.34, -221.26, 0.000, 0.000, 0.000, 16:01:32.900, 1602450092900
184, -122.82, -296.34, -1133.82, -346.64, 0.000, 0.000, 0.000, 16:01:32.900, 1602450092900
185, -109.09, -288.64, -1120.38, -558.24, 0.000, 0.000, 0.000, 16:01:32.901, 1602450092901
186, -89.49, -274.48, -1083.33, -325.80, 0.000, 0.000, 0.000, 16:01:32.901, 1602450092901
187, -132.28, -297.76, -1123.25, -259.46, 0.000, 0.000, 0.000, 16:01:32.915, 1602450092915
188, -128.33, -299.65, -1132.29, -523.06, 0.000, 0.000, 0.000, 16:01:32.915, 1602450092915
189, -103.69, -273.42, -1103.34, -456.27, 0.000, 0.000, 0.000, 16:01:32.930, 1602450092930
190, -117.15, -292.14, -1109.51, -205.02, 0.000, 0.000, 0.000, 16:01:32.930, 1602450092930
191, -115.06, -292.91, -1115.22, -435.25, 0.000, 0.000, 0.000, 16:01:32.931, 1602450092931
192, -97.63, -285.79, -1093.29, -538.05, 0.000, 0.000, 0.000, 16:01:32.931, 1602450092931
193, -111.23, -285.40, -1104.27, -229.17, 0.000, 0.000, 0.000, 16:01:32.945, 1602450092945
194, -121.78, -297.72, -1135.07, -346.13, 0.000, 0.000, 0.000, 16:01:32.945, 1602450092945
195, -113.01, -292.02, -1107.17, -559.42, 0.000, 0.000, 0.000, 16:01:32.977, 1602450092977
196, -83.50, -260.79, -1066.63, -317.29, 0.000, 0.000, 0.000, 16:01:32.977, 1602450092977
197, -108.23, -265.61, -1095.18, -237.67, 0.000, 0.000, 0.000, 16:01:32.978, 1602450092978
198, -110.02, -286.99, -1124.14, -509.80, 0.000, 0.000, 0.000, 16:01:32.978, 1602450092978
199, -88.94, -260.49, -1073.53, -438.66, 0.000, 0.000, 0.000, 16:01:32.978, 1602450092978
200, -95.92, -277.65, -1087.19, -188.54, 0.000, 0.000, 0.000, 16:01:32.978, 1602450092978
0, -107.62, -279.61, -1117.04, -431.81, 0.000, 0.000, 0.000, 16:01:32.979, 1602450092979
1, -95.89, -277.51, -1087.26, -533.75, 0.000, 0.000, 0.000, 16:01:32.990, 1602450092990
2, -89.97, -255.26, -1064.20, -203.28, 0.000, 0.000, 0.000, 16:01:32.990, 1602450092990
3, -111.07, -271.04, -1103.63, -327.07, 0.000, 0.000, 0.000, 16:01:33.005, 1602450093005
4, -111.30, -275.41, -1085.04, -547.53, 0.000, 0.000, 0.000, 16:01:33.005, 1602450093005
5, -91.28, -255.26, -1070.16, -314.38, 0.000, 0.000, 0.000, 16:01:33.006, 1602450093006
6, -116.54, -280.78, -1107.07, -244.15, 0.000, 0.000, 0.000, 16:01:33.006, 1602450093006
7, -115.96, -280.77, -1106.62, -504.47, 0.000, 0.000, 0.000, 16:01:33.019, 1602450093019
8, -90.11, -261.05, -1078.59, -438.21, 0.000, 0.000, 0.000, 16:01:33.019, 1602450093019
9, -104.20, -263.30, -1076.02, -178.86, 0.000, 0.000, 0.000, 16:01:33.034, 1602450093034
10, -117.74, -303.46, -1106.15, -436.59, 0.000, 0.000, 0.000, 16:01:33.034, 1602450093034
11, -76.49, -256.62, -1067.14, -516.18, 0.000, 0.000, 0.000, 16:01:33.035, 1602450093035
12, -74.05, -230.25, -1077.99, -198.39, 0.000, 0.000, 0.000, 16:01:33.035, 1602450093035
13, -105.20, -270.24, -1114.09, -333.69, 0.000, 0.000, 0.000, 16:01:33.049, 1602450093049
14, -88.53, -273.78, -1103.34, -548.33, 0.000, 0.000, 0.000, 16:01:33.049, 1602450093049
15, -90.91, -243.16, -1060.31, -314.56, 0.000, 0.000, 0.000, 16:01:33.064, 1602450093064
16, -93.50, -269.84, -1072.81, -229.10, 0.000, 0.000, 0.000, 16:01:33.064, 1602450093064
17, -100.68, -261.31, -1084.56, -492.12, 0.000, 0.000, 0.000, 16:01:33.065, 1602450093065
18, -69.67, -237.60, -1048.73, -421.30, 0.000, 0.000, 0.000, 16:01:33.065, 1602450093065
19, -88.04, -268.84, -1071.58, -182.23, 0.000, 0.000, 0.000, 16:01:33.079, 1602450093079
20, -114.90, -297.79, -1140.54, -441.79, 0.000, 0.000, 0.000, 16:01:33.079, 1602450093079
21, -79.30, -245.88, -1075.98, -519.41, 0.000, 0.000, 0.000, 16:01:33.094, 1602450093094
22, -60.28, -213.85, -1040.62, -183.73, 0.000, 0.000, 0.000, 16:01:33.094, 1602450093094
23, -92.88, -262.37, -1094.80, -319.87, 0.000, 0.000, 0.000, 16:01:33.095, 1602450093095
24, -94.36, -260.55, -1110.97, -542.28, 0.000, 0.000, 0.000, 16:01:33.095, 1602450093095
25, -64.44, -230.72, -1040.96, -292.05, 0.000, 0.000, 0.000, 16:01:33.126, 1602450093126
26, -85.90, -255.58, -1093.80, -227.93, 0.000, 0.000, 0.000, 16:01:33.126, 1602450093126
27, -91.54, -287.22, -1116.42, -507.13, 0.000, 0.000, 0.000, 16:01:33.126, 1602450093126
28, -72.12, -256.83, -1033.87, -422.44, 0.000, 0.000, 0.000, 16:01:33.126, 1602450093126
29, -68.80, -213.99, -1041.18, -157.93, 0.000, 0.000, 0.000, 16:01:33.127, 1602450093127
30, -66.98, -230.80, -1057.71, -388.06, 0.000, 0.000, 0.000, 16:01:33.127, 1602450093127
31, -58.70, -230.34, -1055.55, -501.93, 0.000, 0.000, 0.000, 16:01:33.155, 1602450093155
32, -39.22, -253.20, -1062.78, -189.79, 0.000, 0.000, 0.000, 16:01:33.155, 1602450093155
33, -35.58, -238.58, -1041.88, -287.00, 0.000, 0.000, 0.000, 16:01:33.156, 1602450093156
34, -74.00, -217.65, -1039.13, -510.62, 0.000, 0.000, 0.000, 16:01:33.156, 1602450093156
35, 1.03, -189.16, -988.39, -251.70, 0.000, 0.000, 0.000, 16:01:33.157, 1602450093157
36, 10.22, -169.61, -970.06, -148.73, 0.000, 0.000, 0.000, 16:01:33.157, 1602450093157
37, -5.45, -133.66, -989.08, -410.65, 0.000, 0.000, 0.000, 16:01:33.169, 1602450093169
38, 66.22, -65.78, -919.16, -310.67, 0.000, 0.000, 0.000, 16:01:33.169, 1602450093169
39, 85.54, -41.57, -918.34, -38.75, 0.000, 0.000, 0.000, 16:01:33.185, 1602450093185
40, 89.84, -48.48, -920.52, -271.42, 0.000, 0.000, 0.000, 16:01:33.185, 1602450093185
41, 131.47, -18.00, -907.36, -361.90, 0.000, 0.000, 0.000, 16:01:33.187, 1602450093187
42, 136.91, 13.37, -872.76, -28.62, 0.000, 0.000, 0.000, 16:01:33.187, 1602450093187
43, 109.15, -33.31, -931.07, -166.73, 0.000, 0.000, 0.000, 16:01:33.199, 1602450093199
44, 67.65, -50.78, -931.19, -396.09, 0.000, 0.000, 0.000, 16:01:33.199, 1602450093199
45, 113.95, -9.21, -883.57, -141.65, 0.000, 0.000, 0.000, 16:01:33.215, 1602450093215
46, 106.60, 2.76, -886.33, -53.67, 0.000, 0.000, 0.000, 16:01:33.215, 1602450093215
47, 116.28, 3.26, -857.16, -302.32, 0.000, 0.000, 0.000, 16:01:33.216, 1602450093216
48, 116.93, -4.30, -859.86, -251.21, 0.000, 0.000, 0.000, 16:01:33.216, 1602450093216
49, 73.86, -46.14, -914.93, -33.10, 0.000, 0.000, 0.000, 16:01:33.229, 1602450093229
50, 13.48, -98.58, -1005.54, -317.01, 0.000, 0.000, 0.000, 16:01:33.229, 1602450093229
51, 55.05, -110.73, -998.28, -410.77, 0.000, 0.000, 0.000, 16:01:33.245, 1602450093245
52, 45.50, -61.36, -900.15, -56.38, 0.000, 0.000, 0.000, 16:01:33.245, 1602450093245
53, 28.64, -75.07, -937.61, -182.72, 0.000, 0.000, 0.000, 16:01:33.246, 1602450093246
54, 18.37, -115.23, -978.96, -423.55, 0.000, 0.000, 0.000, 16:01:33.246, 1602450093246
55, -34.88, -190.32, -1058.34, -252.00, 0.000, 0.000, 0.000, 16:01:33.259, 1602450093259
56, -47.17, -162.05, -1038.04, -166.52, 0.000, 0.000, 0.000, 16:01:33.259, 1602450093259
57, 1.10, -110.98, -979.15, -388.87, 0.000, 0.000, 0.000, 16:01:33.275, 1602450093275
58, 16.06, -124.87, -1013.94, -340.19, 0.000, 0.000, 0.000, 16:01:33.275, 1602450093275
59, -15.86, -146.39, -1031.92, -110.09, 0.000, 0.000, 0.000, 16:01:33.276, 1602450093276
60, -52.36, -205.05, -1059.55, -377.47, 0.000, 0.000, 0.000, 16:01:33.276, 1602450093276
61, -18.73, -159.11, -1030.67, -457.88, 0.000, 0.000, 0.000, 16:01:33.289, 1602450093289
62, -30.53, -167.73, -1050.44, -156.21, 0.000, 0.000, 0.000, 16:01:33.289, 1602450093289
63, -73.92, -222.11, -1098.14, -304.58, 0.000, 0.000, 0.000, 16:01:33.305, 1602450093305
64, -61.20, -215.19, -1086.13, -514.24, 0.000, 0.000, 0.000, 16:01:33.305, 1602450093305
65, -32.79, -187.67, -1062.60, -272.39, 0.000, 0.000, 0.000, 16:01:33.306, 1602450093306
66, -66.31, -237.30, -1099.90, -221.88, 0.000, 0.000, 0.000, 16:01:33.306, 1602450093306
67, -74.55, -251.42, -1117.39, -492.40, 0.000, 0.000, 0.000, 16:01:33.320, 1602450093320
68, -70.97, -211.15, -1093.84, -418.34, 0.000, 0.000, 0.000, 16:01:33.320, 1602450093320
69, -92.34, -239.11, -1119.86, -184.88, 0.000, 0.000, 0.000, 16:01:33.335, 1602450093335
70, -111.97, -261.24, -1132.56, -436.67, 0.000, 0.000, 0.000, 16:01:33.335, 1602450093335
71, -77.37, -249.50, -1116.21, -522.24, 0.000, 0.000, 0.000, 16:01:33.336, 1602450093336
72, -81.84, -248.98, -1120.41, -212.30, 0.000, 0.000, 0.000, 16:01:33.336, 1602450093336
73, -93.03, -259.18, -1139.71, -341.50, 0.000, 0.000, 0.000, 16:01:33.350, 1602450093350
74, -82.72, -256.41, -1122.23, -543.35, 0.000, 0.000, 0.000, 16:01:33.350, 1602450093350
75, -73.55, -243.13, -1113.71, -315.86, 0.000, 0.000, 0.000, 16:01:33.365, 1602450093365
76, -101.45, -276.10, -1151.69, -261.32, 0.000, 0.000, 0.000, 16:01:33.365, 1602450093365
77, -99.53, -270.60, -1153.85, -520.74, 0.000, 0.000, 0.000, 16:01:33.366, 1602450093366
78, -73.38, -230.81, -1108.92, -432.28, 0.000, 0.000, 0.000, 16:01:33.366, 1602450093366
79, -83.34, -246.10, -1125.28, -193.44, 0.000, 0.000, 0.000, 16:01:33.380, 1602450093380
80, -125.46, -286.43, -1173.00, -460.51, 0.000, 0.000, 0.000, 16:01:33.380, 1602450093380
81, -88.19, -252.86, -1119.70, -527.89, 0.000, 0.000, 0.000, 16:01:33.395, 1602450093395
82, -80.40, -241.75, -1113.57, -205.09, 0.000, 0.000, 0.000, 16:01:33.395, 1602450093395
83, -93.95, -263.36, -1137.23, -342.94, 0.000, 0.000, 0.000, 16:01:33.398, 1602450093398
84, -95.40, -256.29, -1132.64, -552.20, 0.000, 0.000, 0.000, 16:01:33.398, 1602450093398
85, -94.23, -244.28, -1125.63, -317.51, 0.000, 0.000, 0.000, 16:01:33.426, 1602450093426
86, -104.97, -259.87, -1153.08, -258.32, 0.000, 0.000, 0.000, 16:01:33.426, 1602450093426
87, -99.66, -251.96, -1145.86, -510.21, 0.000, 0.000, 0.000, 16:01:33.426, 1602450093426
88, -84.24, -234.45, -1126.80, -436.24, 0.000, 0.000, 0.000, 16:01:33.426, 1602450093426
89, -91.13, -251.14, -1132.46, -192.62, 0.000, 0.000, 0.000, 16:01:33.427, 1602450093427
90, -118.70, -278.16, -1160.53, -452.96, 0.000, 0.000, 0.000, 16:01:33.427, 1602450093427
91, -76.02, -232.39, -1115.77, -518.87, 0.000, 0.000, 0.000, 16:01:33.440, 1602450093440
92, -77.72, -239.65, -1108.82, -200.59, 0.000, 0.000, 0.000, 16:01:33.440, 1602450093440
93, -75.39, -221.22, -1112.68, -318.96, 0.000, 0.000, 0.000, 16:01:33.455, 1602450093455
94, -110.97, -278.50, -1166.72, -565.05, 0.000, 0.000, 0.000, 16:01:33.455, 1602450093455
95, -72.26, -218.19, -1111.94, -299.63, 0.000, 0.000, 0.000, 16:01:33.455, 1602450093455
96, -89.24, -233.91, -1124.68, -235.88, 0.000, 0.000, 0.000, 16:01:33.455, 1602450093455
97, -87.74, -240.71, -1139.38, -502.02, 0.000, 0.000, 0.000, 16:01:33.469, 1602450093469
98, -69.40, -202.14, -1108.23, -413.98, 0.000, 0.000, 0.000, 16:01:33.469, 1602450093469
99, -100.53, -244.15, -1139.73, -191.68, 0.000, 0.000, 0.000, 16:01:33.485, 1602450093485
100, -127.23, -273.40, -1162.32, -450.82, 0.000, 0.000, 0.000, 16:01:33.485, 1602450093485
101, -98.67, -236.52, -1139.86, -523.60, 0.000, 0.000, 0.000, 16:01:33.486, 1602450093486
102, -109.52, -287.75, -1187.63, -241.25, 0.000, 0.000, 0.000, 16:01:33.486, 1602450093486
103, -96.45, -250.92, -1151.23, -336.04, 0.000, 0.000, 0.000, 16:01:33.499, 1602450093499
104, -78.31, -226.51, -1098.48, -520.86, 0.000, 0.000, 0.000, 16:01:33.499, 1602450093499
105, -42.83, -211.06, -1075.74, -277.13, 0.000, 0.000, 0.000, 16:01:33.531, 1602450093531
106, -111.19, -241.57, -1148.94, -242.11, 0.000, 0.000, 0.000, 16:01:33.531, 1602450093531
107, -90.21, -264.30, -1161.06, -513.67, 0.000, 0.000, 0.000, 16:01:33.532, 1602450093532
108, -106.30, -246.60, -1150.18, -442.92, 0.000, 0.000, 0.000, 16:01:33.532, 1602450093532
109, -102.26, -264.84, -1154.39, -196.56, 0.000, 0.000, 0.000, 16:01:33.533, 1602450093533
110, -132.14, -272.32, -1167.50, -446.58, 0.000, 0.000, 0.000, 16:01:33.533, 1602450093533
111, -118.70, -257.78, -1156.51, -538.70, 0.000, 0.000, 0.000, 16:01:33.534, 1602450093534
112, -111.38, -257.50, -1168.34, -226.87, 0.000, 0.000, 0.000, 16:01:33.534, 1602450093534
113, -114.08, -266.96, -1163.78, -348.17, 0.000, 0.000, 0.000, 16:01:33.545, 1602450093545
114, -66.26, -214.98, -1081.80, -518.71, 0.000, 0.000, 0.000, 16:01:33.545, 1602450093545
115, -60.85, -203.29, -1087.28, -286.28, 0.000, 0.000, 0.000, 16:01:33.559, 1602450093559
116, -117.05, -267.91, -1165.89, -262.03, 0.000, 0.000, 0.000, 16:01:33.559, 1602450093559
117, -96.82, -256.52, -1157.44, -508.87, 0.000, 0.000, 0.000, 16:01:33.575, 1602450093575
118, -74.01, -251.54, -1132.27, -432.56, 0.000, 0.000, 0.000, 16:01:33.575, 1602450093575
119, -77.00, -233.58, -1131.30, -180.54, 0.000, 0.000, 0.000, 16:01:33.576, 1602450093576
120, -84.03, -243.78, -1138.59, -422.39, 0.000, 0.000, 0.000, 16:01:33.576, 1602450093576
121, -77.55, -227.98, -1124.19, -510.42, 0.000, 0.000, 0.000, 16:01:33.589, 1602450093589
122, -79.73, -242.54, -1127.16, -199.61, 0.000, 0.000, 0.000, 16:01:33.589, 1602450093589
123, -123.96, -278.49, -1164.94, -349.25, 0.000, 0.000, 0.000, 16:01:33.605, 1602450093605
124, -96.26, -272.70, -1164.84, -548.26, 0.000, 0.000, 0.000, 16:01:33.605, 1602450093605
125, -70.89, -228.56, -1122.11, -294.39, 0.000, 0.000, 0.000, 16:01:33.606, 1602450093606
126, -97.97, -244.85, -1151.69, -236.16, 0.000, 0.000, 0.000, 16:01:33.606, 1602450093606
127, -112.83, -258.60, -1158.08, -504.38, 0.000, 0.000, 0.000, 16:01:33.620, 1602450093620
128, -84.78, -248.81, -1137.88, -424.84, 0.000, 0.000, 0.000, 16:01:33.620, 1602450093620
129, -74.55, -251.48, -1130.98, -176.57, 0.000, 0.000, 0.000, 16:01:33.635, 1602450093635
130, -102.19, -276.51, -1138.13, -427.65, 0.000, 0.000, 0.000, 16:01:33.635, 1602450093635
131, -86.45, -251.97, -1105.25, -510.10, 0.000, 0.000, 0.000, 16:01:33.636, 1602450093636
132, -73.92, -235.50, -1113.09, -192.54, 0.000, 0.000, 0.000, 16:01:33.636, 1602450093636
133, -83.94, -231.42, -1133.69, -319.65, 0.000, 0.000, 0.000, 16:01:33.650, 1602450093650
134, -71.26, -230.77, -1102.22, -521.33, 0.000, 0.000, 0.000, 16:01:33.650, 1602450093650
135, -71.83, -252.19, -1117.55, -296.24, 0.000, 0.000, 0.000, 16:01:33.666, 1602450093666
136, -84.68, -287.49, -1136.72, -247.66, 0.000, 0.000, 0.000, 16:01:33.666, 1602450093666
137, -80.37, -250.62, -1136.76, -491.68, 0.000, 0.000, 0.000, 16:01:33.667, 1602450093667
138, -55.80, -223.86, -1099.81, -408.10, 0.000, 0.000, 0.000, 16:01:33.667, 1602450093667
139, -66.95, -234.02, -1088.03, -167.99, 0.000, 0.000, 0.000, 16:01:33.680, 1602450093680
140, -91.30, -278.63, -1152.97, -437.95, 0.000, 0.000, 0.000, 16:01:33.680, 1602450093680
141, -66.02, -252.15, -1093.71, -507.81, 0.000, 0.000, 0.000, 16:01:33.696, 1602450093696
142, -41.80, -226.05, -1071.74, -175.19, 0.000, 0.000, 0.000, 16:01:33.696, 1602450093696
143, -77.80, -303.15, -1172.48, -349.85, 0.000, 0.000, 0.000, 16:01:33.697, 1602450093697
144, -77.26, -262.69, -1121.91, -541.41, 0.000, 0.000, 0.000, 16:01:33.697, 1602450093697
145, -41.13, -217.21, -1068.38, -276.17, 0.000, 0.000, 0.000, 16:01:33.710, 1602450093710
146, -59.50, -244.11, -1095.16, -220.15, 0.000, 0.000, 0.000, 16:01:33.710, 1602450093710
147, -72.40, -239.36, -1099.89, -486.28, 0.000, 0.000, 0.000, 16:01:33.725, 1602450093725
148, -10.58, -205.11, -1058.15, -389.68, 0.000, 0.000, 0.000, 16:01:33.725, 1602450093725
149, -7.35, -178.49, -1045.90, -129.96, 0.000, 0.000, 0.000, 16:01:33.726, 1602450093726
150, -14.97, -148.98, -1032.26, -361.04, 0.000, 0.000, 0.000, 16:01:33.726, 1602450093726
151, 36.44, -126.21, -1002.01, -432.68, 0.000, 0.000, 0.000, 16:01:33.740, 1602450093740
152, 112.02, -95.95, -961.11, -77.76, 0.000, 0.000, 0.000, 16:01:33.740, 1602450093740
153, 60.98, -74.53, -984.78, -219.26, 0.000, 0.000, 0.000, 16:01:33.754, 1602450093754
154, 92.58, -46.19, -977.64, -417.39, 0.000, 0.000, 0.000, 16:01:33.754, 1602450093754
155, 156.26, 10.17, -922.25, -135.40, 0.000, 0.000, 0.000, 16:01:33.755, 1602450093755
156, 114.50, -8.87, -944.81, -83.94, 0.000, 0.000, 0.000, 16:01:33.755, 1602450093755
157, 137.86, -18.94, -959.05, -344.15, 0.000, 0.000, 0.000, 16:01:33.785, 1602450093785
158, 167.30, 27.22, -920.59, -250.92, 0.000, 0.000, 0.000, 16:01:33.785, 1602450093785
159, 169.58, 18.10, -956.24, -15.03, 0.000, 0.000, 0.000, 16:01:33.786, 1602450093786
160, 163.84, -30.79, -998.50, -273.27, 0.000, 0.000, 0.000, 16:01:33.786, 1602450093786
161, 195.83, 50.79, -887.27, -320.48, 0.000, 0.000, 0.000, 16:01:33.787, 1602450093787
162, 176.70, 35.17, -899.44, -12.99, 0.000, 0.000, 0.000, 16:01:33.787, 1602450093787
163, 128.37, -11.66, -986.09, -183.24, 0.000, 0.000, 0.000, 16:01:33.799, 1602450093799
164, 159.63, -35.49, -996.77, -399.30, 0.000, 0.000, 0.000, 16:01:33.799, 1602450093799
165, 168.17, -28.60, -949.80, -147.02, 0.000, 0.000, 0.000, 16:01:33.815, 1602450093815
166, 130.02, -9.92, -914.72, -72.57, 0.000, 0.000, 0.000, 16:01:33.815, 1602450093815
167, 135.21, 4.72, -948.71, -336.68, 0.000, 0.000, 0.000, 16:01:33.815, 1602450093815
168, 119.77, -23.70, -989.16, -290.44, 0.000, 0.000, 0.000, 16:01:33.815, 1602450093815
169, 91.43, -62.21, -975.99, -56.00, 0.000, 0.000, 0.000, 16:01:33.829, 1602450093829
170, 92.07, -59.92, -974.84, -297.51, 0.000, 0.000, 0.000, 16:01:33.829, 1602450093829
171, 95.11, -81.15, -990.49, -399.91, 0.000, 0.000, 0.000, 16:01:33.845, 1602450093845
172, 33.83, -156.87, -1067.13, -134.54, 0.000, 0.000, 0.000, 16:01:33.845, 1602450093845
173, 30.00, -101.66, -1000.59, -235.73, 0.000, 0.000, 0.000, 16:01:33.845, 1602450093845
174, 63.38, -69.77, -1001.58, -431.67, 0.000, 0.000, 0.000, 16:01:33.845, 1602450093845
175, 40.92, -103.89, -992.31, -210.62, 0.000, 0.000, 0.000, 16:01:33.859, 1602450093859
176, -21.06, -156.03, -1053.73, -183.81, 0.000, 0.000, 0.000, 16:01:33.859, 1602450093859
177, -12.35, -151.00, -1065.44, -442.59, 0.000, 0.000, 0.000, 16:01:33.875, 1602450093875
178, 3.26, -135.15, -1031.00, -354.74, 0.000, 0.000, 0.000, 16:01:33.875, 1602450093875
179, -38.39, -190.40, -1081.86, -151.80, 0.000, 0.000, 0.000, 16:01:33.875, 1602450093875
180, -40.53, -201.35, -1124.90, -406.52, 0.000, 0.000, 0.000, 16:01:33.875, 1602450093875
181, -18.91, -186.28, -1098.08, -481.56, 0.000, 0.000, 0.000, 16:01:33.889, 1602450093889
182, -23.44, -210.75, -1096.62, -177.22, 0.000, 0.000, 0.000, 16:01:33.889, 1602450093889
183, -78.19, -236.30, -1116.15, -327.89, 0.000, 0.000, 0.000, 16:01:33.905, 1602450093905
184, -42.21, -207.94, -1106.63, -517.75, 0.000, 0.000, 0.000, 16:01:33.905, 1602450093905
185, -38.21, -202.48, -1097.05, -276.34, 0.000, 0.000, 0.000, 16:01:33.905, 1602450093905
186, -68.40, -256.16, -1148.54, -247.70, 0.000, 0.000, 0.000, 16:01:33.905, 1602450093905
187, -109.64, -265.69, -1174.16, -526.04, 0.000, 0.000, 0.000, 16:01:33.920, 1602450093920
188, -64.40, -243.71, -1147.31, -426.68, 0.000, 0.000, 0.000, 16:01:33.920, 1602450093920
189, -59.24, -259.70, -1157.64, -199.71, 0.000, 0.000, 0.000, 16:01:33.935, 1602450093935
190, -80.88, -277.74, -1194.62, -454.67, 0.000, 0.000, 0.000, 16:01:33.935, 1602450093935
191, -76.78, -255.80, -1147.35, -520.42, 0.000, 0.000, 0.000, 16:01:33.936, 1602450093936
192, -77.65, -260.70, -1143.61, -214.58, 0.000, 0.000, 0.000, 16:01:33.936, 1602450093936
193, -122.87, -309.78, -1185.50, -374.87, 0.000, 0.000, 0.000, 16:01:33.950, 1602450093950
194, -109.11, -283.89, -1166.82, -564.90, 0.000, 0.000, 0.000, 16:01:33.950, 1602450093950
195, -100.40, -291.90, -1183.97, -331.46, 0.000, 0.000, 0.000, 16:01:33.965, 1602450093965
196, -105.17, -292.99, -1177.88, -274.48, 0.000, 0.000, 0.000, 16:01:33.965, 1602450093965
197, -132.79, -309.96, -1194.69, -547.42, 0.000, 0.000, 0.000, 16:01:33.967, 1602450093967
198, -106.65, -300.42, -1166.40, -457.52, 0.000, 0.000, 0.000, 16:01:33.967, 1602450093967
199, -143.38, -320.66, -1191.75, -243.45, 0.000, 0.000, 0.000, 16:01:33.981, 1602450093981
200, -134.03, -336.78, -1205.45, -484.41, 0.000, 0.000, 0.000, 16:01:33.981, 1602450093981
0, -86.80, -273.20, -1154.72, -540.33, 0.000, 0.000, 0.000, 16:01:33.982, 1602450093982
1, -90.03, -292.63, -1178.70, -236.01, 0.000, 0.000, 0.000, 16:01:33.994, 1602450093994
2, -119.01, -298.33, -1203.95, -376.51, 0.000, 0.000, 0.000, 16:01:33.994, 1602450093994
3, -116.33, -300.11, -1155.99, -570.78, 0.000, 0.000, 0.000, 16:01:34.010, 1602450094010
4, -113.25, -295.17, -1160.64, -336.99, 0.000, 0.000, 0.000, 16:01:34.010, 1602450094010
5, -130.69, -328.88, -1191.81, -294.54, 0.000, 0.000, 0.000, 16:01:34.011, 1602450094011
6, -115.15, -292.77, -1175.06, -531.12, 0.000, 0.000, 0.000, 16:01:34.011, 1602450094011
7, -100.94, -278.34, -1157.91, -446.75, 0.000, 0.000, 0.000, 16:01:34.025, 1602450094025
8, -128.24, -329.39, -1204.15, -241.05, 0.000, 0.000, 0.000, 16:01:34.025, 1602450094025
9, -140.94, -310.21, -1199.14, -482.63, 0.000, 0.000, 0.000, 16:01:34.040, 1602450094040
10, -98.55, -297.53, -1144.72, -537.57, 0.000, 0.000, 0.000, 16:01:34.040, 1602450094040
11, -77.39, -258.48, -1139.57, -215.27, 0.000, 0.000, 0.000, 16:01:34.041, 1602450094041
12, -108.84, -304.13, -1174.67, -373.37, 0.000, 0.000, 0.000, 16:01:34.041, 1602450094041
13, -167.66, -386.40, -1266.01, -634.32, 0.000, 0.000, 0.000, 16:01:34.056, 1602450094056
14, -183.34, -363.42, -1202.90, -381.09, 0.000, 0.000, 0.000, 16:01:34.056, 1602450094056
15, -54.19, -219.97, -1109.10, -224.68, 0.000, 0.000, 0.000, 16:01:34.070, 1602450094070
16, -74.04, -250.26, -1133.12, -505.69, 0.000, 0.000, 0.000, 16:01:34.070, 1602450094070
17, -76.49, -259.85, -1135.08, -428.25, 0.000, 0.000, 0.000, 16:01:34.086, 1602450094086
18, -99.92, -289.71, -1163.84, -216.11, 0.000, 0.000, 0.000, 16:01:34.086, 1602450094086
19, -113.25, -304.40, -1180.83, -472.96, 0.000, 0.000, 0.000, 16:01:34.088, 1602450094088
20, -89.57, -285.11, -1153.12, -536.45, 0.000, 0.000, 0.000, 16:01:34.088, 1602450094088
21, -101.31, -306.90, -1168.11, -233.82, 0.000, 0.000, 0.000, 16:01:34.100, 1602450094100
22, -122.14, -338.19, -1220.76, -396.53, 0.000, 0.000, 0.000, 16:01:34.100, 1602450094100
23, -121.37, -301.80, -1160.59, -570.09, 0.000, 0.000, 0.000, 16:01:34.101, 1602450094101
24, -92.77, -263.61, -1125.28, -310.44, 0.000, 0.000, 0.000, 16:01:34.101, 1602450094101
25, -106.21, -286.10, -1159.54, -272.13, 0.000, 0.000, 0.000, 16:01:34.115, 1602450094115
26, -95.46, -287.42, -1147.74, -522.42, 0.000, 0.000, 0.000, 16:01:34.115, 1602450094115
27, -108.88, -311.35, -1176.90, -460.38, 0.000, 0.000, 0.000, 16:01:34.130, 1602450094130
28, -124.48, -336.60, -1219.15, -251.94, 0.000, 0.000, 0.000, 16:01:34.130, 1602450094130
29, -92.68, -268.76, -1130.51, -443.01, 0.000, 0.000, 0.000, 16:01:34.131, 1602450094131
30, -83.91, -254.66, -1109.62, -513.23, 0.000, 0.000, 0.000, 16:01:34.131, 1602450094131
31, -87.04, -263.13, -1116.92, -207.11, 0.000, 0.000, 0.000, 16:01:34.144, 1602450094144
32, -134.18, -329.55, -1198.62, -394.43, 0.000, 0.000, 0.000, 16:01:34.144, 1602450094144
33, -121.76, -355.96, -1202.65, -598.28, 0.000, 0.000, 0.000, 16:01:34.160, 1602450094160
34, -102.97, -261.99, -1121.01, -308.30, 0.000, 0.000, 0.000, 16:01:34.160, 1602450094160
35, -116.53, -271.10, -1140.46, -269.07, 0.000, 0.000, 0.000, 16:01:34.161, 1602450094161
36, -116.93, -281.67, -1150.61, -522.93, 0.000, 0.000, 0.000, 16:01:34.161, 1602450094161
37, -84.89, -278.93, -1133.08, -438.09, 0.000, 0.000, 0.000, 16:01:34.174, 1602450094174
38, -121.32, -306.62, -1161.87, -223.94, 0.000, 0.000, 0.000, 16:01:34.174, 1602450094174
39, -133.19, -309.03, -1174.40, -469.39, 0.000, 0.000, 0.000, 16:01:34.189, 1602450094189
40, -114.32, -311.19, -1139.20, -543.92, 0.000, 0.000, 0.000, 16:01:34.189, 1602450094189
41, -89.26, -258.68, -1107.53, -206.88, 0.000, 0.000, 0.000, 16:01:34.190, 1602450094190
42, -105.40, -272.43, -1154.64, -363.17, 0.000, 0.000, 0.000, 16:01:34.190, 1602450094190
43, -89.96, -253.83, -1136.87, -547.54, 0.000, 0.000, 0.000, 16:01:34.204, 1602450094204
44, -80.99, -248.53, -1121.71, -297.24, 0.000, 0.000, 0.000, 16:01:34.204, 1602450094204
45, -105.46, -285.66, -1156.81, -274.99, 0.000, 0.000, 0.000, 16:01:34.220, 1602450094220
46, -104.22, -287.94, -1152.36, -521.36, 0.000, 0.000, 0.000, 16:01:34.220, 1602450094220
47, -81.89, -241.84, -1106.94, -416.52, 0.000, 0.000, 0.000, 16:01:34.220, 1602450094220
48, -79.36, -238.76, -1106.09, -183.43, 0.000, 0.000, 0.000, 16:01:34.220, 1602450094220
49, -79.17, -259.67, -1127.86, -429.09, 0.000, 0.000, 0.000, 16:01:34.234, 1602450094234
50, -60.60, -211.54, -1082.50, -485.08, 0.000, 0.000, 0.000, 16:01:34.234, 1602450094234
51, -30.77, -183.56, -1053.07, -157.12, 0.000, 0.000, 0.000, 16:01:34.250, 1602450094250
52, -19.79, -169.39, -1041.16, -286.12, 0.000, 0.000, 0.000, 16:01:34.250, 1602450094250
53, 11.93, -119.66, -1010.79, -454.61, 0.000, 0.000, 0.000, 16:01:34.250, 1602450094250
54, 45.64, -82.27, -983.77, -190.67, 0.000, 0.000, 0.000, 16:01:34.250, 1602450094250
55, 53.38, -68.31, -986.58, -136.26, 0.000, 0.000, 0.000, 16:01:34.264, 1602450094264
56, 64.44, -45.01, -967.24, -372.22, 0.000, 0.000, 0.000, 16:01:34.264, 1602450094264
57, 105.46, -15.11, -928.36, -266.96, 0.000, 0.000, 0.000, 16:01:34.280, 1602450094280
58, 89.62, -33.62, -975.91, -60.57, 0.000, 0.000, 0.000, 16:01:34.280, 1602450094280
59, 87.10, -42.92, -982.24, -308.44, 0.000, 0.000, 0.000, 16:01:34.280, 1602450094280
60, 87.57, -48.44, -979.48, -385.67, 0.000, 0.000, 0.000, 16:01:34.280, 1602450094280
61, 69.78, -43.11, -944.84, -77.63, 0.000, 0.000, 0.000, 16:01:34.294, 1602450094294
62, 43.00, -63.84, -963.40, -229.35, 0.000, 0.000, 0.000, 16:01:34.294, 1602450094294
63, 39.92, -88.06, -1020.02, -440.50, 0.000, 0.000, 0.000, 16:01:34.310, 1602450094310
64, 84.45, -26.38, -934.34, -160.04, 0.000, 0.000, 0.000, 16:01:34.310, 1602450094310
65, 46.38, -55.16, -920.63, -125.64, 0.000, 0.000, 0.000, 16:01:34.312, 1602450094312
66, -17.28, -115.39, -981.02, -417.31, 0.000, 0.000, 0.000, 16:01:34.312, 1602450094312
67, 29.09, -71.68, -970.62, -313.68, 0.000, 0.000, 0.000, 16:01:34.325, 1602450094325
68, 9.58, -120.27, -1016.94, -119.07, 0.000, 0.000, 0.000, 16:01:34.325, 1602450094325
69, -10.60, -142.91, -1044.98, -377.54, 0.000, 0.000, 0.000, 16:01:34.341, 1602450094341
70, -26.41, -145.30, -1046.62, -452.99, 0.000, 0.000, 0.000, 16:01:34.341, 1602450094341
71, -28.70, -166.17, -1045.76, -155.31, 0.000, 0.000, 0.000, 16:01:34.342, 1602450094342
72, -51.88, -177.30, -1068.11, -309.37, 0.000, 0.000, 0.000, 16:01:34.342, 1602450094342
73, -60.84, -170.70, -1094.00, -505.72, 0.000, 0.000, 0.000, 16:01:34.355, 1602450094355
74, -76.68, -221.44, -1070.28, -281.06, 0.000, 0.000, 0.000, 16:01:34.355, 1602450094355
75, -49.45, -198.02, -1070.09, -219.31, 0.000, 0.000, 0.000, 16:01:34.370, 1602450094370
76, -44.63, -162.33, -1093.10, -463.76, 0.000, 0.000, 0.000, 16:01:34.370, 1602450094370
77, -43.74, -174.45, -1057.30, -377.04, 0.000, 0.000, 0.000, 16:01:34.372, 1602450094372
78, -86.69, -211.59, -1089.62, -182.50, 0.000, 0.000, 0.000, 16:01:34.372, 1602450094372
79, -105.65, -254.27, -1122.10, -446.80, 0.000, 0.000, 0.000, 16:01:34.385, 1602450094385
80, -96.04, -253.37, -1112.12, -513.15, 0.000, 0.000, 0.000, 16:01:34.385, 1602450094385
81, -92.21, -246.86, -1130.57, -210.40, 0.000, 0.000, 0.000, 16:01:34.400, 1602450094400
82, -107.98, -244.87, -1137.09, -359.11, 0.000, 0.000, 0.000, 16:01:34.400, 1602450094400
83, -73.88, -240.81, -1128.45, -538.71, 0.000, 0.000, 0.000, 16:01:34.401, 1602450094401
84, -87.32, -254.09, -1120.06, -301.99, 0.000, 0.000, 0.000, 16:01:34.401, 1602450094401
85, -110.26, -277.03, -1127.81, -268.98, 0.000, 0.000, 0.000, 16:01:34.415, 1602450094415
86, -139.00, -309.16, -1179.37, -544.19, 0.000, 0.000, 0.000, 16:01:34.415, 1602450094415
87, -80.97, -259.19, -1116.00, -420.10, 0.000, 0.000, 0.000, 16:01:34.430, 1602450094430
88, -91.64, -273.28, -1152.48, -215.50, 0.000, 0.000, 0.000, 16:01:34.430, 1602450094430
89, -132.24, -292.56, -1160.32, -466.38, 0.000, 0.000, 0.000, 16:01:34.431, 1602450094431
90, -99.28, -265.83, -1155.87, -526.57, 0.000, 0.000, 0.000, 16:01:34.431, 1602450094431
91, -98.71, -280.08, -1155.49, -223.65, 0.000, 0.000, 0.000, 16:01:34.445, 1602450094445
92, -135.67, -307.96, -1167.78, -384.25, 0.000, 0.000, 0.000, 16:01:34.445, 1602450094445
93, -126.44, -298.57, -1159.44, -568.62, 0.000, 0.000, 0.000, 16:01:34.460, 1602450094460
94, -116.44, -286.19, -1152.60, -321.58, 0.000, 0.000, 0.000, 16:01:34.460, 1602450094460
95, -153.97, -343.00, -1183.94, -306.00, 0.000, 0.000, 0.000, 16:01:34.461, 1602450094461
96, -148.09, -317.54, -1177.74, -547.96, 0.000, 0.000, 0.000, 16:01:34.461, 1602450094461
97, -87.74, -269.47, -1163.11, -431.15, 0.000, 0.000, 0.000, 16:01:34.491, 1602450094491
98, -129.93, -303.94, -1167.34, -235.63, 0.000, 0.000, 0.000, 16:01:34.491, 1602450094491
99, -135.49, -329.29, -1169.66, -482.07, 0.000, 0.000, 0.000, 16:01:34.492, 1602450094492
100, -104.79, -288.74, -1143.06, -531.78, 0.000, 0.000, 0.000, 16:01:34.492, 1602450094492
101, -119.43, -298.11, -1156.41, -233.92, 0.000, 0.000, 0.000, 16:01:34.493, 1602450094493
102, -143.73, -318.91, -1188.77, -392.73, 0.000, 0.000, 0.000, 16:01:34.493, 1602450094493
103, -140.05, -316.54, -1189.50, -583.36, 0.000, 0.000, 0.000, 16:01:34.520, 1602450094520
104, -148.04, -322.86, -1156.55, -333.12, 0.000, 0.000, 0.000, 16:01:34.520, 1602450094520
105, -138.53, -310.80, -1183.58, -298.66, 0.000, 0.000, 0.000, 16:01:34.521, 1602450094521
106, -111.46, -286.62, -1155.78, -523.71, 0.000, 0.000, 0.000, 16:01:34.521, 1602450094521
107, -106.96, -280.42, -1145.89, -435.20, 0.000, 0.000, 0.000, 16:01:34.522, 1602450094522
108, -127.13, -312.94, -1179.34, -234.61, 0.000, 0.000, 0.000, 16:01:34.522, 1602450094522
109, -138.12, -325.02, -1196.48, -485.71, 0.000, 0.000, 0.000, 16:01:34.534, 1602450094534
110, -111.60, -293.45, -1152.32, -531.93, 0.000, 0.000, 0.000, 16:01:34.534, 1602450094534
111, -132.24, -305.02, -1157.51, -235.96, 0.000, 0.000, 0.000, 16:01:34.550, 1602450094550
112, -153.40, -332.28, -1181.28, -393.48, 0.000, 0.000, 0.000, 16:01:34.550, 1602450094550
113, -130.88, -301.02, -1152.87, -567.86, 0.000, 0.000, 0.000, 16:01:34.551, 1602450094551
114, -101.15, -275.96, -1133.79, -309.57, 0.000, 0.000, 0.000, 16:01:34.551, 1602450094551
115, -129.81, -309.44, -1166.81, -286.44, 0.000, 0.000, 0.000, 16:01:34.564, 1602450094564
116, -130.45, -320.54, -1174.60, -541.91, 0.000, 0.000, 0.000, 16:01:34.564, 1602450094564
117, -114.37, -300.84, -1149.49, -441.51, 0.000, 0.000, 0.000, 16:01:34.581, 1602450094581
118, -124.32, -292.38, -1158.50, -221.43, 0.000, 0.000, 0.000, 16:01:34.581, 1602450094581
119, -136.44, -338.28, -1209.61, -486.54, 0.000, 0.000, 0.000, 16:01:34.581, 1602450094581
120, -138.57, -316.49, -1173.72, -551.75, 0.000, 0.000, 0.000, 16:01:34.581, 1602450094581
121, -115.15, -266.57, -1129.67, -212.31, 0.000, 0.000, 0.000, 16:01:34.594, 1602450094594
122, -122.33, -297.23, -1160.31, -375.07, 0.000, 0.000, 0.000, 16:01:34.594, 1602450094594
123, -106.96, -293.50, -1148.14, -558.83, 0.000, 0.000, 0.000, 16:01:34.610, 1602450094610
124, -104.74, -290.76, -1143.99, -310.72, 0.000, 0.000, 0.000, 16:01:34.610, 1602450094610
125, -128.04, -311.87, -1172.09, -287.80, 0.000, 0.000, 0.000, 16:01:34.611, 1602450094611
126, -132.64, -329.51, -1171.79, -544.02, 0.000, 0.000, 0.000, 16:01:34.611, 1602450094611
127, -114.29, -300.93, -1141.16, -435.00, 0.000, 0.000, 0.000, 16:01:34.641, 1602450094641
128, -110.47, -289.69, -1148.45, -212.70, 0.000, 0.000, 0.000, 16:01:34.641, 1602450094641
129, -136.87, -320.82, -1152.11, -465.64, 0.000, 0.000, 0.000, 16:01:34.641, 1602450094641
130, -115.44, -299.36, -1131.74, -526.45, 0.000, 0.000, 0.000, 16:01:34.642, 1602450094642
131, -113.04, -292.10, -1138.83, -219.27, 0.000, 0.000, 0.000, 16:01:34.642, 1602450094642
132, -142.00, -319.17, -1178.14, -384.67, 0.000, 0.000, 0.000, 16:01:34.642, 1602450094642
133, -127.34, -320.84, -1183.00, -575.72, 0.000, 0.000, 0.000, 16:01:34.654, 1602450094654
134, -94.25, -269.66, -1103.49, -294.71, 0.000, 0.000, 0.000, 16:01:34.654, 1602450094654
135, -124.07, -287.46, -1135.10, -268.36, 0.000, 0.000, 0.000, 16:01:34.670, 1602450094670
136, -131.96, -331.05, -1171.59, -542.54, 0.000, 0.000, 0.000, 16:01:34.670, 1602450094670
137, -120.45, -301.69, -1134.62, -437.68, 0.000, 0.000, 0.000, 16:01:34.670, 1602450094670
138, -108.80, -281.69, -1131.08, -208.53, 0.000, 0.000, 0.000, 16:01:34.670, 1602450094670
139, -111.45, -281.32, -1150.44, -453.19, 0.000, 0.000, 0.000, 16:01:34.684, 1602450094684
140, -95.45, -283.27, -1126.61, -519.61, 0.000, 0.000, 0.000, 16:01:34.684, 1602450094684
141, -90.33, -250.39, -1099.01, -192.96, 0.000, 0.000, 0.000, 16:01:34.700, 1602450094700
142, -130.34, -301.39, -1150.83, -371.40, 0.000, 0.000, 0.000, 16:01:34.700, 1602450094700
143, -122.85, -302.50, -1129.74, -556.87, 0.000, 0.000, 0.000, 16:01:34.701, 1602450094701
144, -126.12, -320.81, -1129.69, -321.88, 0.000, 0.000, 0.000, 16:01:34.701, 1602450094701
145, -137.63, -293.18, -1154.10, -283.13, 0.000, 0.000, 0.000, 16:01:34.731, 1602450094731
146, -112.88, -263.75, -1122.57, -505.70, 0.000, 0.000, 0.000, 16:01:34.731, 1602450094731
147, -92.99, -244.97, -1093.09, -404.33, 0.000, 0.000, 0.000, 16:01:34.731, 1602450094731
148, -126.62, -291.31, -1139.70, -214.08, 0.000, 0.000, 0.000, 16:01:34.731, 1602450094731
149, -131.56, -312.03, -1161.74, -465.92, 0.000, 0.000, 0.000, 16:01:34.732, 1602450094732
150, -104.88, -262.09, -1118.15, -514.52, 0.000, 0.000, 0.000, 16:01:34.732, 1602450094732
151, -119.81, -282.71, -1116.36, -212.66, 0.000, 0.000, 0.000, 16:01:34.744, 1602450094744
152, -127.13, -283.52, -1122.20, -357.66, 0.000, 0.000, 0.000, 16:01:34.744, 1602450094744
153, -117.39, -275.12, -1111.48, -541.30, 0.000, 0.000, 0.000, 16:01:34.760, 1602450094760
154, -104.09, -259.77, -1105.60, -291.13, 0.000, 0.000, 0.000, 16:01:34.760, 1602450094760
155, -120.24, -274.64, -1139.43, -263.22, 0.000, 0.000, 0.000, 16:01:34.761, 1602450094761
156, -121.89, -297.68, -1139.05, -519.82, 0.000, 0.000, 0.000, 16:01:34.761, 1602450094761
157, -98.13, -264.67, -1121.35, -411.14, 0.000, 0.000, 0.000, 16:01:34.774, 1602450094774
158, -91.45, -232.24, -1099.02, -175.78, 0.000, 0.000, 0.000, 16:01:34.774, 1602450094774
159, -110.78, -246.60, -1105.79, -425.25, 0.000, 0.000, 0.000, 16:01:34.790, 1602450094790
160, -93.87, -222.82, -1077.14, -485.03, 0.000, 0.000, 0.000, 16:01:34.790, 1602450094790
161, -94.89, -240.71, -1095.42, -188.10, 0.000, 0.000, 0.000, 16:01:34.791, 1602450094791
162, -112.27, -265.51, -1123.32, -344.19, 0.000, 0.000, 0.000, 16:01:34.791, 1602450094791
163, -102.53, -254.59, -1107.52, -524.88, 0.000, 0.000, 0.000, 16:01:34.805, 1602450094805
164, -99.10, -250.86, -1099.96, -277.32, 0.000, 0.000, 0.000, 16:01:34.805, 1602450094805
165, -119.21, -288.98, -1126.17, -256.15, 0.000, 0.000, 0.000, 16:01:34.821, 1602450094821
166, -100.40, -260.51, -1146.96, -501.92, 0.000, 0.000, 0.000, 16:01:34.821, 1602450094821
167, -69.16, -204.49, -1039.14, -365.46, 0.000, 0.000, 0.000, 16:01:34.821, 1602450094821
168, -76.76, -219.92, -1064.53, -150.17, 0.000, 0.000, 0.000, 16:01:34.821, 1602450094821
169, -98.59, -249.42, -1107.88, -418.01, 0.000, 0.000, 0.000, 16:01:34.835, 1602450094835
170, -83.49, -248.49, -1105.29, -487.05, 0.000, 0.000, 0.000, 16:01:34.835, 1602450094835
171, -105.59, -267.64, -1133.04, -201.09, 0.000, 0.000, 0.000, 16:01:34.850, 1602450094850
172, -96.81, -273.93, -1128.86, -339.91, 0.000, 0.000, 0.000, 16:01:34.850, 1602450094850
173, -82.59, -253.31, -1092.85, -519.13, 0.000, 0.000, 0.000, 16:01:34.851, 1602450094851
174, -72.62, -246.40, -1083.65, -269.80, 0.000, 0.000, 0.000, 16:01:34.851, 1602450094851
175, -111.18, -284.58, -1129.77, -258.66, 0.000, 0.000, 0.000, 16:01:34.865, 1602450094865
176, -92.82, -259.94, -1111.58, -489.54, 0.000, 0.000, 0.000, 16:01:34.865, 1602450094865
177, -70.25, -227.80, -1062.89, -384.75, 0.000, 0.000, 0.000, 16:01:34.880, 1602450094880
178, -80.39, -240.97, -1078.20, -172.27, 0.000, 0.000, 0.000, 16:01:34.880, 1602450094880
179, -88.39, -251.39, -1092.53, -419.35, 0.000, 0.000, 0.000, 16:01:34.881, 1602450094881
180, -85.41, -239.91, -1086.39, -486.94, 0.000, 0.000, 0.000, 16:01:34.881, 1602450094881
181, -83.77, -232.15, -1067.28, -180.44, 0.000, 0.000, 0.000, 16:01:34.895, 1602450094895
182, -82.58, -244.81, -1087.48, -330.01, 0.000, 0.000, 0.000, 16:01:34.895, 1602450094895
183, -62.41, -201.63, -1048.36, -499.69, 0.000, 0.000, 0.000, 16:01:34.910, 1602450094910
184, -41.17, -190.85, -1025.97, -238.42, 0.000, 0.000, 0.000, 16:01:34.910, 1602450094910
185, -56.85, -195.23, -1050.33, -209.09, 0.000, 0.000, 0.000, 16:01:34.910, 1602450094910
186, -24.16, -158.13, -1005.52, -431.39, 0.000, 0.000, 0.000, 16:01:34.910, 1602450094910
187, 6.45, -125.27, -962.78, -320.45, 0.000, 0.000, 0.000, 16:01:34.924, 1602450094924
188, -24.54, -128.36, -997.63, -113.44, 0.000, 0.000, 0.000, 16:01:34.924, 1602450094924
189, -1.62, -99.33, -948.09, -330.00, 0.000, 0.000, 0.000, 16:01:34.940, 1602450094940
190, 6.34, -67.44, -906.81, -384.53, 0.000, 0.000, 0.000, 16:01:34.940, 1602450094940
191, -7.37, -110.93, -917.73, -95.30, 0.000, 0.000, 0.000, 16:01:34.941, 1602450094941
192, -26.34, -125.86, -958.30, -263.41, 0.000, 0.000, 0.000, 16:01:34.941, 1602450094941
193, -37.94, -118.90, -967.95, -457.41, 0.000, 0.000, 0.000, 16:01:34.954, 1602450094954
194, -11.95, -92.76, -916.63, -187.18, 0.000, 0.000, 0.000, 16:01:34.954, 1602450094954
195, -69.12, -131.53, -964.47, -182.79, 0.000, 0.000, 0.000, 16:01:34.970, 1602450094970
196, -77.13, -140.18, -974.67, -436.07, 0.000, 0.000, 0.000, 16:01:34.970, 1602450094970
197, -58.07, -110.78, -941.29, -332.90, 0.000, 0.000, 0.000, 16:01:34.971, 1602450094971
198, -40.83, -112.64, -964.66, -110.49, 0.000, 0.000, 0.000, 16:01:34.971, 1602450094971
199, -46.47, -140.86, -981.95, -365.12, 0.000, 0.000, 0.000, 16:01:34.985, 1602450094985
200, -52.69, -157.12, -992.72, -444.95, 0.000, 0.000, 0.000, 16:01:34.985, 1602450094985
0, -59.91, -177.62, -1005.54, -147.52, 0.000, 0.000, 0.000, 16:01:34.986, 1602450094986
1, -80.10, -180.33, -1035.75, -300.14, 0.000, 0.000, 0.000, 16:01:34.999, 1602450094999
2, -81.13, -192.85, -1026.63, -498.30, 0.000, 0.000, 0.000, 16:01:34.999, 1602450094999
3, -78.64, -182.15, -1032.24, -249.35, 0.000, 0.000, 0.000, 16:01:35.015, 1602450095015
4, -113.13, -225.46, -1077.30, -236.91, 0.000, 0.000, 0.000, 16:01:35.015, 1602450095015
5, -95.07, -202.14, -1055.15, -466.77, 0.000, 0.000, 0.000, 16:01:35.016, 1602450095016
6, -92.49, -207.40, -1052.93, -382.92, 0.000, 0.000, 0.000, 16:01:35.016, 1602450095016
7, -128.64, -230.43, -1080.35, -181.69, 0.000, 0.000, 0.000, 16:01:35.029, 1602450095029
8, -112.03, -244.14, -1079.88, -424.19, 0.000, 0.000, 0.000, 16:01:35.029, 1602450095029
9, -119.86, -246.94, -1076.11, -497.75, 0.000, 0.000, 0.000, 16:01:35.045, 1602450095045
10, -98.93, -243.40, -1079.26, -186.99, 0.000, 0.000, 0.000, 16:01:35.045, 1602450095045
11, -129.06, -274.34, -1097.50, -350.90, 0.000, 0.000, 0.000, 16:01:35.046, 1602450095046
12, -123.95, -258.85, -1091.02, -540.01, 0.000, 0.000, 0.000, 16:01:35.046, 1602450095046
13, -105.67, -243.39, -1066.63, -281.40, 0.000, 0.000, 0.000, 16:01:35.059, 1602450095059
14, -135.66, -280.39, -1110.96, -269.06, 0.000, 0.000, 0.000, 16:01:35.059, 1602450095059
15, -148.21, -275.45, -1104.40, -517.63, 0.000, 0.000, 0.000, 16:01:35.075, 1602450095075
16, -84.68, -232.09, -1060.42, -391.03, 0.000, 0.000, 0.000, 16:01:35.075, 1602450095075
17, -118.66, -269.71, -1105.19, -199.88, 0.000, 0.000, 0.000, 16:01:35.077, 1602450095077
18, -138.93, -283.48, -1134.66, -451.82, 0.000, 0.000, 0.000, 16:01:35.077, 1602450095077
19, -131.66, -269.42, -1114.92, -517.17, 0.000, 0.000, 0.000, 16:01:35.090, 1602450095090
20, -120.76, -270.78, -1082.56, -200.04, 0.000, 0.000, 0.000, 16:01:35.090, 1602450095090
21, -146.30, -287.09, -1129.76, -367.70, 0.000, 0.000, 0.000, 16:01:35.121, 1602450095121
22, -119.92, -287.55, -1106.32, -544.31, 0.000, 0.000, 0.000, 16:01:35.122, 1602450095122
23, -104.97, -262.69, -1108.44, -291.96, 0.000, 0.000, 0.000, 16:01:35.123, 1602450095123
24, -143.37, -299.91, -1124.16, -269.64, 0.000, 0.000, 0.000, 16:01:35.123, 1602450095123
25, -134.62, -282.73, -1101.01, -512.46, 0.000, 0.000, 0.000, 16:01:35.123, 1602450095123
26, -116.92, -282.47, -1102.90, -419.37, 0.000, 0.000, 0.000, 16:01:35.123, 1602450095123
27, -143.53, -299.72, -1109.72, -211.07, 0.000, 0.000, 0.000, 16:01:35.124, 1602450095124
28, -152.18, -319.95, -1137.30, -468.78, 0.000, 0.000, 0.000, 16:01:35.124, 1602450095124
29, -109.64, -286.43, -1114.06, -518.39, 0.000, 0.000, 0.000, 16:01:35.136, 1602450095136
30, -116.42, -278.96, -1107.81, -206.90, 0.000, 0.000, 0.000, 16:01:35.136, 1602450095136
31, -141.65, -304.48, -1135.73, -372.90, 0.000, 0.000, 0.000, 16:01:35.149, 1602450095149
32, -143.62, -315.07, -1130.88, -569.39, 0.000, 0.000, 0.000, 16:01:35.149, 1602450095149
33, -115.15, -272.94, -1099.28, -298.20, 0.000, 0.000, 0.000, 16:01:35.165, 1602450095165
34, -152.39, -311.21, -1150.47, -281.82, 0.000, 0.000, 0.000, 16:01:35.165, 1602450095165
35, -157.71, -329.57, -1134.77, -540.91, 0.000, 0.000, 0.000, 16:01:35.166, 1602450095166
36, -132.22, -298.61, -1099.66, -425.58, 0.000, 0.000, 0.000, 16:01:35.166, 1602450095166
37, -126.38, -310.79, -1144.04, -218.94, 0.000, 0.000, 0.000, 16:01:35.196, 1602450095196
38, -140.35, -307.07, -1137.38, -461.90, 0.000, 0.000, 0.000, 16:01:35.196, 1602450095196
39, -109.41, -282.32, -1106.47, -518.32, 0.000, 0.000, 0.000, 16:01:35.197, 1602450095197
40, -105.33, -297.95, -1121.72, -213.12, 0.000, 0.000, 0.000, 16:01:35.197, 1602450095197
41, -128.60, -336.06, -1146.26, -376.01, 0.000, 0.000, 0.000, 16:01:35.197, 1602450095197
42, -130.86, -304.77, -1097.85, -553.27, 0.000, 0.000, 0.000, 16:01:35.197, 1602450095197
43, -108.78, -271.96, -1096.50, -292.08, 0.000, 0.000, 0.000, 16:01:35.210, 1602450095210
44, -127.19, -303.93, -1131.98, -274.50, 0.000, 0.000, 0.000, 16:01:35.210, 1602450095210
45, -118.82, -307.88, -1133.70, -524.55, 0.000, 0.000, 0.000, 16:01:35.226, 1602450095226
46, -115.17, -297.68, -1127.28, -433.01, 0.000, 0.000, 0.000, 16:01:35.226, 1602450095226
47, -115.57, -308.69, -1123.36, -212.57, 0.000, 0.000, 0.000, 16:01:35.226, 1602450095226
48, -125.61, -314.33, -1143.54, -463.33, 0.000, 0.000, 0.000, 16:01:35.226, 1602450095226
49, -108.42, -310.09, -1136.95, -531.60, 0.000, 0.000, 0.000, 16:01:35.240, 1602450095240
50, -104.97, -288.36, -1120.72, -210.44, 0.000, 0.000, 0.000, 16:01:35.240, 1602450095240
51, -127.92, -294.63, -1123.88, -367.60, 0.000, 0.000, 0.000, 16:01:35.255, 1602450095255
52, -146.86, -302.81, -1112.78, -563.07, 0.000, 0.000, 0.000, 16:01:35.255, 1602450095255
53, -91.03, -289.32, -1113.92, -302.74, 0.000, 0.000, 0.000, 16:01:35.256, 1602450095256
54, -105.19, -307.73, -1142.04, -269.51, 0.000, 0.000, 0.000, 16:01:35.256, 1602450095256
55, -106.90, -318.28, -1143.89, -528.42, 0.000, 0.000, 0.000, 16:01:35.270, 1602450095270
56, -101.17, -316.75, -1144.74, -442.00, 0.000, 0.000, 0.000, 16:01:35.270, 1602450095270
57, -108.76, -329.30, -1178.63, -228.69, 0.000, 0.000, 0.000, 16:01:35.285, 1602450095285
58, -121.00, -342.14, -1190.80, -477.12, 0.000, 0.000, 0.000, 16:01:35.285, 1602450095285
59, -99.92, -317.64, -1157.95, -535.54, 0.000, 0.000, 0.000, 16:01:35.285, 1602450095285
60, -88.80, -310.66, -1158.79, -229.10, 0.000, 0.000, 0.000, 16:01:35.285, 1602450095285
61, -104.63, -325.24, -1180.28, -375.54, 0.000, 0.000, 0.000, 16:01:35.299, 1602450095299
62, -101.18, -314.97, -1163.47, -566.33, 0.000, 0.000, 0.000, 16:01:35.299, 1602450095299
63, -86.98, -303.41, -1148.72, -313.36, 0.000, 0.000, 0.000, 16:01:35.315, 1602450095315
64, -98.45, -310.86, -1159.52, -279.64, 0.000, 0.000, 0.000, 16:01:35.315, 1602450095315
65, -95.61, -313.98, -1158.79, -524.20, 0.000, 0.000, 0.000, 16:01:35.316, 1602450095316
66, -82.40, -299.14, -1141.54, -432.99, 0.000, 0.000, 0.000, 16:01:35.316, 1602450095316
67, -84.10, -303.54, -1159.28, -215.96, 0.000, 0.000, 0.000, 16:01:35.346, 1602450095346
68, -113.10, -339.42, -1190.08, -476.92, 0.000, 0.000, 0.000, 16:01:35.346, 1602450095346
69, -77.76, -290.56, -1130.87, -515.62, 0.000, 0.000, 0.000, 16:01:35.346, 1602450095346
70, -75.03, -287.21, -1137.79, -213.99, 0.000, 0.000, 0.000, 16:01:35.346, 1602450095346
71, -113.27, -323.52, -1179.72, -382.06, 0.000, 0.000, 0.000, 16:01:35.347, 1602450095347
72, -87.80, -311.46, -1153.59, -554.82, 0.000, 0.000, 0.000, 16:01:35.347, 1602450095347
73, -68.76, -290.02, -1134.95, -302.59, 0.000, 0.000, 0.000, 16:01:35.359, 1602450095359
74, -94.65, -302.97, -1155.04, -274.42, 0.000, 0.000, 0.000, 16:01:35.359, 1602450095359
75, -104.61, -313.52, -1150.01, -524.32, 0.000, 0.000, 0.000, 16:01:35.375, 1602450095375
76, -66.01, -271.97, -1115.35, -418.13, 0.000, 0.000, 0.000, 16:01:35.375, 1602450095375
77, -96.06, -299.12, -1133.32, -218.26, 0.000, 0.000, 0.000, 16:01:35.376, 1602450095376
78, -93.75, -334.14, -1152.72, -462.01, 0.000, 0.000, 0.000, 16:01:35.376, 1602450095376
79, -60.17, -282.66, -1108.40, -500.74, 0.000, 0.000, 0.000, 16:01:35.390, 1602450095390
80, -76.32, -279.84, -1117.84, -215.72, 0.000, 0.000, 0.000, 16:01:35.390, 1602450095390
81, -82.19, -292.65, -1151.51, -358.71, 0.000, 0.000, 0.000, 16:01:35.405, 1602450095405
82, -88.27, -292.42, -1124.95, -536.91, 0.000, 0.000, 0.000, 16:01:35.405, 1602450095405
83, -88.03, -289.38, -1110.90, -304.31, 0.000, 0.000, 0.000, 16:01:35.406, 1602450095406
84, -93.87, -319.96, -1159.79, -286.53, 0.000, 0.000, 0.000, 16:01:35.406, 1602450095406
85, -114.42, -314.75, -1167.96, -526.41, 0.000, 0.000, 0.000, 16:01:35.419, 1602450095419
86, -85.14, -296.10, -1147.35, -426.66, 0.000, 0.000, 0.000, 16:01:35.419, 1602450095419
87, -73.03, -290.26, -1132.66, -216.10, 0.000, 0.000, 0.000, 16:01:35.435, 1602450095435
88, -104.20, -315.30, -1127.37, -448.44, 0.000, 0.000, 0.000, 16:01:35.435, 1602450095435
89, -109.70, -307.50, -1142.05, -515.19, 0.000, 0.000, 0.000, 16:01:35.436, 1602450095436
90, -83.66, -294.02, -1126.18, -226.95, 0.000, 0.000, 0.000, 16:01:35.436, 1602450095436
91, -92.51, -286.89, -1156.86, -365.20, 0.000, 0.000, 0.000, 16:01:35.449, 1602450095449
92, -81.61, -292.04, -1111.13, -526.49, 0.000, 0.000, 0.000, 16:01:35.449, 1602450095449
93, -89.82, -273.73, -1126.61, -307.39, 0.000, 0.000, 0.000, 16:01:35.465, 1602450095465
94, -88.56, -298.61, -1146.11, -283.56, 0.000, 0.000, 0.000, 16:01:35.465, 1602450095465
95, -94.78, -281.91, -1136.74, -493.82, 0.000, 0.000, 0.000, 16:01:35.466, 1602450095466
96, -81.70, -280.43, -1109.61, -402.84, 0.000, 0.000, 0.000, 16:01:35.466, 1602450095466
97, -90.26, -286.59, -1122.33, -230.11, 0.000, 0.000, 0.000, 16:01:35.479, 1602450095479
98, -81.75, -283.48, -1134.54, -433.33, 0.000, 0.000, 0.000, 16:01:35.479, 1602450095479
99, -73.76, -298.09, -1144.20, -459.36, 0.000, 0.000, 0.000, 16:01:35.495, 1602450095495
100, -75.04, -281.67, -1118.66, -264.03, 0.000, 0.000, 0.000, 16:01:35.495, 1602450095495
101, -95.21, -296.83, -1141.37, -436.44, 0.000, 0.000, 0.000, 16:01:35.496, 1602450095496
102, -95.24, -310.49, -1144.67, -438.72, 0.000, 0.000, 0.000, 16:01:35.496, 1602450095496
103, -99.92, -310.55, -1127.02, -301.28, 0.000, 0.000, 0.000, 16:01:35.509, 1602450095509
104, -57.34, -269.67, -1092.03, -426.37, 0.000, 0.000, 0.000, 16:01:35.509, 1602450095509
105, -59.64, -260.91, -1109.41, -408.94, 0.000, 0.000, 0.000, 16:01:35.526, 1602450095526
106, -62.02, -273.67, -1117.45, -257.92, 0.000, 0.000, 0.000, 16:01:35.526, 1602450095526
107, -66.07, -268.58, -1108.61, -410.36, 0.000, 0.000, 0.000, 16:01:35.526, 1602450095526
108, -50.73, -263.30, -1117.63, -449.87, 0.000, 0.000, 0.000, 16:01:35.526, 1602450095526
109, -49.34, -233.49, -1084.44, -254.67, 0.000, 0.000, 0.000, 16:01:35.540, 1602450095540
110, -48.59, -244.73, -1079.49, -319.55, 0.000, 0.000, 0.000, 16:01:35.540, 1602450095540
111, -49.61, -232.74, -1083.89, -459.40, 0.000, 0.000, 0.000, 16:01:35.555, 1602450095555
112, -65.20, -262.92, -1113.29, -334.08, 0.000, 0.000, 0.000, 16:01:35.555, 1602450095555
113, -46.56, -263.73, -1093.98, -261.68, 0.000, 0.000, 0.000, 16:01:35.556, 1602450095556
114, -50.30, -261.53, -1103.59, -445.81, 0.000, 0.000, 0.000, 16:01:35.556, 1602450095556
115, -73.42, -278.36, -1116.28, -409.68, 0.000, 0.000, 0.000, 16:01:35.570, 1602450095570
116, -78.47, -301.18, -1125.66, -272.43, 0.000, 0.000, 0.000, 16:01:35.570, 1602450095570
117, -59.03, -254.32, -1105.69, -400.83, 0.000, 0.000, 0.000, 16:01:35.586, 1602450095586
118, -46.70, -261.92, -1104.92, -439.00, 0.000, 0.000, 0.000, 16:01:35.586, 1602450095586
119, -71.01, -281.20, -1133.33, -291.30, 0.000, 0.000, 0.000, 16:01:35.586, 1602450095586
120, -51.33, -236.62, -1093.94, -309.78, 0.000, 0.000, 0.000, 16:01:35.586, 1602450095586
121, -53.98, -252.69, -1098.55, -451.13, 0.000, 0.000, 0.000, 16:01:35.600, 1602450095600
122, -58.31, -251.29, -1104.17, -332.69, 0.000, 0.000, 0.000, 16:01:35.600, 1602450095600
123, -46.05, -247.27, -1093.71, -255.88, 0.000, 0.000, 0.000, 16:01:35.615, 1602450095615
124, -37.25, -253.59, -1087.62, -434.72, 0.000, 0.000, 0.000, 16:01:35.615, 1602450095615
125, -68.95, -278.85, -1097.90, -404.50, 0.000, 0.000, 0.000, 16:01:35.616, 1602450095616
126, -41.24, -242.73, -1098.89, -237.96, 0.000, 0.000, 0.000, 16:01:35.616, 1602450095616
127, -58.36, -260.51, -1121.58, -405.37, 0.000, 0.000, 0.000, 16:01:35.629, 1602450095629
128, -43.68, -254.65, -1120.83, -436.78, 0.000, 0.000, 0.000, 16:01:35.629, 1602450095629
129, -48.31, -257.93, -1112.40, -269.06, 0.000, 0.000, 0.000, 16:01:35.645, 1602450095645
130, -22.10, -231.48, -1058.00, -303.38, 0.000, 0.000, 0.000, 16:01:35.645, 1602450095645
131, -29.79, -228.01, -1085.16, -444.91, 0.000, 0.000, 0.000, 16:01:35.645, 1602450095645
132, -57.35, -255.41, -1099.81, -320.88, 0.000, 0.000, 0.000, 16:01:35.645, 1602450095645
133, -32.19, -232.78, -1068.49, -241.55, 0.000, 0.000, 0.000, 16:01:35.659, 1602450095659
134, -45.53, -234.25, -1074.59, -441.31, 0.000, 0.000, 0.000, 16:01:35.659, 1602450095659
135, -43.49, -244.73, -1091.95, -377.10, 0.000, 0.000, 0.000, 16:01:35.675, 1602450095675
136, -29.46, -229.82, -1073.29, -214.41, 0.000, 0.000, 0.000, 16:01:35.675, 1602450095675
137, -57.26, -245.96, -1113.31, -403.59, 0.000, 0.000, 0.000, 16:01:35.676, 1602450095676
138, -43.57, -229.49, -1090.90, -426.78, 0.000, 0.000, 0.000, 16:01:35.676, 1602450095676
139, -52.68, -266.63, -1115.78, -262.60, 0.000, 0.000, 0.000, 16:01:35.689, 1602450095689
140, -44.82, -245.66, -1099.04, -323.90, 0.000, 0.000, 0.000, 16:01:35.689, 1602450095689
141, -50.18, -258.09, -1087.46, -459.13, 0.000, 0.000, 0.000, 16:01:35.705, 1602450095705
142, -67.52, -278.69, -1120.90, -333.43, 0.000, 0.000, 0.000, 16:01:35.705, 1602450095705
143, -36.86, -230.65, -1076.61, -250.52, 0.000, 0.000, 0.000, 16:01:35.705, 1602450095705
144, -43.78, -237.91, -1090.32, -433.10, 0.000, 0.000, 0.000, 16:01:35.705, 1602450095705
145, -67.64, -285.97, -1145.72, -401.92, 0.000, 0.000, 0.000, 16:01:35.720, 1602450095720
146, -58.51, -269.65, -1121.50, -260.51, 0.000, 0.000, 0.000, 16:01:35.720, 1602450095720
147, -60.95, -243.15, -1106.45, -383.33, 0.000, 0.000, 0.000, 16:01:35.753, 1602450095753
148, -43.48, -247.96, -1105.96, -423.24, 0.000, 0.000, 0.000, 16:01:35.753, 1602450095753
149, -64.42, -262.52, -1126.36, -305.90, 0.000, 0.000, 0.000, 16:01:35.754, 1602450095754
150, -50.17, -254.37, -1104.65, -311.93, 0.000, 0.000, 0.000, 16:01:35.754, 1602450095754
151, -56.52, -247.14, -1104.55, -430.17, 0.000, 0.000, 0.000, 16:01:35.754, 1602450095754
152, -71.32, -262.57, -1122.84, -377.16, 0.000, 0.000, 0.000, 16:01:35.754, 1602450095754
153, -44.70, -238.50, -1075.59, -263.16, 0.000, 0.000, 0.000, 16:01:35.755, 1602450095755
154, -50.20, -219.55, -1068.35, -363.77, 0.000, 0.000, 0.000, 16:01:35.755, 1602450095755
155, -55.48, -237.83, -1102.88, -404.18, 0.000, 0.000, 0.000, 16:01:35.764, 1602450095764
156, -42.81, -219.81, -1066.95, -281.36, 0.000, 0.000, 0.000, 16:01:35.764, 1602450095764
157, -63.42, -248.98, -1097.55, -317.97, 0.000, 0.000, 0.000, 16:01:35.779, 1602450095779
158, -65.82, -248.89, -1106.12, -421.79, 0.000, 0.000, 0.000, 16:01:35.779, 1602450095779
159, -60.59, -259.58, -1109.90, -365.43, 0.000, 0.000, 0.000, 16:01:35.795, 1602450095795
160, -57.62, -234.10, -1100.53, -263.81, 0.000, 0.000, 0.000, 16:01:35.795, 1602450095795
161, -75.26, -260.12, -1107.38, -407.97, 0.000, 0.000, 0.000, 16:01:35.796, 1602450095796
162, -55.87, -227.44, -1091.30, -394.38, 0.000, 0.000, 0.000, 16:01:35.796, 1602450095796
163, -52.33, -225.67, -1081.26, -264.78, 0.000, 0.000, 0.000, 16:01:35.809, 1602450095809
164, -52.63, -221.17, -1091.98, -355.04, 0.000, 0.000, 0.000, 16:01:35.809, 1602450095809
165, -50.40, -219.86, -1093.06, -414.15, 0.000, 0.000, 0.000, 16:01:35.825, 1602450095825
166, -49.77, -224.21, -1088.45, -290.03, 0.000, 0.000, 0.000, 16:01:35.825, 1602450095825
167, -58.54, -234.67, -1092.22, -317.64, 0.000, 0.000, 0.000, 16:01:35.840, 1602450095840
168, -62.63, -222.77, -1100.97, -419.95, 0.000, 0.000, 0.000, 16:01:35.840, 1602450095840
169, -54.58, -189.47, -1088.93, -316.94, 0.000, 0.000, 0.000, 16:01:35.841, 1602450095841
170, -23.75, -173.49, -1072.33, -257.98, 0.000, 0.000, 0.000, 16:01:35.841, 1602450095841
171, -42.97, -206.20, -1115.70, -408.89, 0.000, 0.000, 0.000, 16:01:35.855, 1602450095855
172, -37.57, -192.03, -1080.37, -340.45, 0.000, 0.000, 0.000, 16:01:35.855, 1602450095855
173, -38.43, -188.34, -1075.76, -243.45, 0.000, 0.000, 0.000, 16:01:35.856, 1602450095856
174, -64.35, -219.34, -1098.56, -389.89, 0.000, 0.000, 0.000, 16:01:35.856, 1602450095856
175, -57.63, -210.04, -1116.19, -391.67, 0.000, 0.000, 0.000, 16:01:35.869, 1602450095869
176, -67.31, -220.42, -1119.13, -268.14, 0.000, 0.000, 0.000, 16:01:35.869, 1602450095869
177, -43.35, -196.46, -1100.95, -339.65, 0.000, 0.000, 0.000, 16:01:35.902, 1602450095902
178, -45.44, -178.99, -1086.08, -394.89, 0.000, 0.000, 0.000, 16:01:35.902, 1602450095902
179, -36.54, -164.72, -1064.52, -265.91, 0.000, 0.000, 0.000, 16:01:35.902, 1602450095902
180, -31.80, -169.88, -1071.47, -278.84, 0.000, 0.000, 0.000, 16:01:35.902, 1602450095902
181, -27.92, -196.76, -1103.61, -413.88, 0.000, 0.000, 0.000, 16:01:35.903, 1602450095903
182, -62.95, -223.35, -1147.94, -352.13, 0.000, 0.000, 0.000, 16:01:35.903, 1602450095903
183, -22.31, -188.29, -1053.61, -236.50, 0.000, 0.000, 0.000, 16:01:35.904, 1602450095904
184, -39.00, -169.86, -1074.24, -380.99, 0.000, 0.000, 0.000, 16:01:35.904, 1602450095904
185, -64.92, -235.13, -1130.83, -396.33, 0.000, 0.000, 0.000, 16:01:35.915, 1602450095915
186, -48.23, -193.35, -1119.03, -258.14, 0.000, 0.000, 0.000, 16:01:35.915, 1602450095915
187, -23.45, -169.88, -1080.83, -335.94, 0.000, 0.000, 0.000, 16:01:35.929, 1602450095929
188, -18.87, -166.93, -1075.14, -384.64, 0.000, 0.000, 0.000, 16:01:35.929, 1602450095929
189, -22.55, -173.15, -1078.85, -260.87, 0.000, 0.000, 0.000, 16:01:35.945, 1602450095945
190, -28.63, -168.38, -1060.87, -270.43, 0.000, 0.000, 0.000, 16:01:35.945, 1602450095945
191, -28.03, -159.06, -1072.40, -398.25, 0.000, 0.000, 0.000, 16:01:35.946, 1602450095946
192, -33.98, -179.30, -1092.13, -320.19, 0.000, 0.000, 0.000, 16:01:35.946, 1602450095946
193, -26.20, -175.67, -1097.57, -240.43, 0.000, 0.000, 0.000, 16:01:35.960, 1602450095960
194, -15.74, -177.82, -1087.09, -390.79, 0.000, 0.000, 0.000, 16:01:35.960, 1602450095960
195, -15.69, -166.20, -1095.59, -358.76, 0.000, 0.000, 0.000, 16:01:35.975, 1602450095975
196, -43.27, -175.06, -1111.40, -230.02, 0.000, 0.000, 0.000, 16:01:35.975, 1602450095975
197, -39.49, -176.56, -1081.05, -356.50, 0.000, 0.000, 0.000, 16:01:35.976, 1602450095976
198, -37.69, -165.05, -1075.31, -396.73, 0.000, 0.000, 0.000, 16:01:35.976, 1602450095976
199, -45.91, -176.57, -1094.31, -249.23, 0.000, 0.000, 0.000, 16:01:35.990, 1602450095990
200, -13.76, -145.24, -1066.92, -278.93, 0.000, 0.000, 0.000, 16:01:35.990, 1602450095990
0, -26.07, -164.92, -1107.65, -430.72, 0.000, 0.000, 0.000, 16:01:35.991, 1602450095991
1, -39.63, -194.74, -1117.25, -305.05, 0.000, 0.000, 0.000, 16:01:36.005, 1602450096005
2, -43.34, -167.15, -1110.34, -237.55, 0.000, 0.000, 0.000, 16:01:36.005, 1602450096005
3, -27.26, -155.21, -1116.77, -415.03, 0.000, 0.000, 0.000, 16:01:36.020, 1602450096020
4, -30.21, -152.97, -1082.80, -344.53, 0.000, 0.000, 0.000, 16:01:36.020, 1602450096020
5, -28.93, -157.25, -1077.90, -204.55, 0.000, 0.000, 0.000, 16:01:36.020, 1602450096020
6, -14.84, -143.15, -1074.24, -355.02, 0.000, 0.000, 0.000, 16:01:36.020, 1602450096020
7, -48.41, -181.63, -1122.83, -418.34, 0.000, 0.000, 0.000, 16:01:36.034, 1602450096034
8, -35.57, -155.50, -1107.08, -231.66, 0.000, 0.000, 0.000, 16:01:36.034, 1602450096034
9, -27.90, -150.79, -1102.07, -298.10, 0.000, 0.000, 0.000, 16:01:36.049, 1602450096049
10, -36.27, -159.35, -1089.03, -428.04, 0.000, 0.000, 0.000, 16:01:36.049, 1602450096049
11, -27.25, -159.64, -1084.51, -279.59, 0.000, 0.000, 0.000, 16:01:36.050, 1602450096050
12, -23.96, -131.83, -1078.27, -214.54, 0.000, 0.000, 0.000, 16:01:36.050, 1602450096050
13, -20.33, -126.26, -1077.32, -405.45, 0.000, 0.000, 0.000, 16:01:36.064, 1602450096064
14, -40.10, -148.82, -1114.25, -352.14, 0.000, 0.000, 0.000, 16:01:36.064, 1602450096064
15, -48.91, -165.69, -1107.98, -213.78, 0.000, 0.000, 0.000, 16:01:36.080, 1602450096080
16, -20.36, -116.00, -1071.12, -352.40, 0.000, 0.000, 0.000, 16:01:36.080, 1602450096080
17, -17.57, -131.78, -1084.19, -385.17, 0.000, 0.000, 0.000, 16:01:36.080, 1602450096080
18, -26.70, -137.01, -1111.50, -224.64, 0.000, 0.000, 0.000, 16:01:36.080, 1602450096080
19, -20.08, -132.20, -1084.31, -284.14, 0.000, 0.000, 0.000, 16:01:36.094, 1602450096094
20, -19.92, -125.12, -1062.29, -405.07, 0.000, 0.000, 0.000, 16:01:36.094, 1602450096094
21, -28.99, -132.58, -1085.49, -272.72, 0.000, 0.000, 0.000, 16:01:36.110, 1602450096110
22, -43.68, -144.43, -1097.50, -229.21, 0.000, 0.000, 0.000, 16:01:36.110, 1602450096110
23, -23.69, -117.72, -1075.37, -397.51, 0.000, 0.000, 0.000, 16:01:36.110, 1602450096110
24, -31.46, -131.51, -1091.81, -335.25, 0.000, 0.000, 0.000, 16:01:36.110, 1602450096110
25, -19.25, -120.04, -1081.44, -187.31, 0.000, 0.000, 0.000, 16:01:36.124, 1602450096124
26, -16.98, -112.60, -1077.01, -356.35, 0.000, 0.000, 0.000, 16:01:36.124, 1602450096124
27, -29.74, -141.30, -1097.76, -398.23, 0.000, 0.000, 0.000, 16:01:36.156, 1602450096156
28, -33.73, -143.33, -1109.05, -221.36, 0.000, 0.000, 0.000, 16:01:36.156, 1602450096156
29, -19.29, -118.82, -1059.29, -285.29, 0.000, 0.000, 0.000, 16:01:36.157, 1602450096157
30, -25.75, -111.04, -1069.17, -414.91, 0.000, 0.000, 0.000, 16:01:36.157, 1602450096157
31, -38.63, -135.21, -1098.52, -263.62, 0.000, 0.000, 0.000, 16:01:36.158, 1602450096158
32, -23.19, -123.27, -1091.32, -217.45, 0.000, 0.000, 0.000, 16:01:36.158, 1602450096158
33, -13.22, -124.43, -1085.68, -411.80, 0.000, 0.000, 0.000, 16:01:36.158, 1602450096158
34, -26.05, -126.66, -1102.63, -328.61, 0.000, 0.000, 0.000, 16:01:36.158, 1602450096158
35, -33.49, -112.27, -1075.35, -178.86, 0.000, 0.000, 0.000, 16:01:36.170, 1602450096170
36, -29.28, -101.72, -1056.75, -360.20, 0.000, 0.000, 0.000, 16:01:36.170, 1602450096170
37, -18.88, -123.06, -1092.94, -384.46, 0.000, 0.000, 0.000, 16:01:36.184, 1602450096184
38, -12.00, -115.44, -1071.06, -192.81, 0.000, 0.000, 0.000, 16:01:36.184, 1602450096184
39, -12.32, -99.50, -1063.53, -280.25, 0.000, 0.000, 0.000, 16:01:36.200, 1602450096200
40, -15.95, -104.72, -1085.87, -403.77, 0.000, 0.000, 0.000, 16:01:36.200, 1602450096200
41, -22.72, -98.71, -1071.92, -249.86, 0.000, 0.000, 0.000, 16:01:36.201, 1602450096201
42, -26.71, -104.50, -1051.65, -207.76, 0.000, 0.000, 0.000, 16:01:36.201, 1602450096201
43, -21.01, -84.39, -1047.50, -390.25, 0.000, 0.000, 0.000, 16:01:36.214, 1602450096214
44, -26.95, -67.15, -1032.03, -305.84, 0.000, 0.000, 0.000, 16:01:36.214, 1602450096214
45, -39.44, -91.84, -1058.66, -179.87, 0.000, 0.000, 0.000, 16:01:36.230, 1602450096230
46, -38.55, -79.51, -1027.84, -345.30, 0.000, 0.000, 0.000, 16:01:36.230, 1602450096230
47, -47.81, -94.35, -1058.54, -374.15, 0.000, 0.000, 0.000, 16:01:36.231, 1602450096231
48, -73.97, -92.69, -1052.48, -202.95, 0.000, 0.000, 0.000, 16:01:36.231, 1602450096231
49, -56.80, -75.19, -1041.96, -273.94, 0.000, 0.000, 0.000, 16:01:36.244, 1602450096244
50, -38.93, -70.45, -1040.20, -388.18, 0.000, 0.000, 0.000, 16:01:36.244, 1602450096244
51, -57.77, -87.15, -1054.09, -251.96, 0.000, 0.000, 0.000, 16:01:36.260, 1602450096260
52, -39.78, -78.86, -1031.46, -201.03, 0.000, 0.000, 0.000, 16:01:36.260, 1602450096260
53, -50.95, -84.30, -1054.60, -395.73, 0.000, 0.000, 0.000, 16:01:36.261, 1602450096261
54, -65.81, -104.62, -1079.94, -331.68, 0.000, 0.000, 0.000, 16:01:36.261, 1602450096261
55, -68.49, -124.95, -1077.59, -196.80, 0.000, 0.000, 0.000, 16:01:36.274, 1602450096274
56, -42.65, -74.28, -1042.59, -347.59, 0.000, 0.000, 0.000, 16:01:36.274, 1602450096274
57, -48.19, -68.52, -1039.46, -362.32, 0.000, 0.000, 0.000, 16:01:36.291, 1602450096291
58, -54.67, -88.64, -1060.22, -196.47, 0.000, 0.000, 0.000, 16:01:36.291, 1602450096291
59, -69.63, -105.87, -1069.16, -297.72, 0.000, 0.000, 0.000, 16:01:36.305, 1602450096305
60, -54.75, -92.07, -1056.42, -405.13, 0.000, 0.000, 0.000, 16:01:36.305, 1602450096305
61, -55.73, -92.73, -1078.81, -255.81, 0.000, 0.000, 0.000, 16:01:36.306, 1602450096306
62, -66.22, -131.96, -1074.90, -233.55, 0.000, 0.000, 0.000, 16:01:36.306, 1602450096306
63, -42.25, -49.00, -1025.88, -385.32, 0.000, 0.000, 0.000, 16:01:36.320, 1602450096320
64, -58.28, -80.89, -1064.25, -316.21, 0.000, 0.000, 0.000, 16:01:36.320, 1602450096320
65, -65.67, -96.16, -1071.39, -184.95, 0.000, 0.000, 0.000, 16:01:36.321, 1602450096321
66, -54.32, -97.36, -1062.43, -369.78, 0.000, 0.000, 0.000, 16:01:36.321, 1602450096321
67, -53.88, -84.24, -1059.14, -378.90, 0.000, 0.000, 0.000, 16:01:36.335, 1602450096335
68, -75.18, -110.31, -1082.39, -209.21, 0.000, 0.000, 0.000, 16:01:36.335, 1602450096335
69, -54.61, -95.05, -1057.36, -287.86, 0.000, 0.000, 0.000, 16:01:36.350, 1602450096350
70, -61.24, -90.75, -1079.90, -412.24, 0.000, 0.000, 0.000, 16:01:36.350, 1602450096350
71, -64.87, -88.49, -1089.09, -259.29, 0.000, 0.000, 0.000, 16:01:36.351, 1602450096351
72, -66.57, -86.50, -1066.20, -217.97, 0.000, 0.000, 0.000, 16:01:36.351, 1602450096351
73, -58.34, -81.89, -1045.59, -401.81, 0.000, 0.000, 0.000, 16:01:36.365, 1602450096365
74, -58.36, -90.57, -1075.36, -317.47, 0.000, 0.000, 0.000, 16:01:36.365, 1602450096365
75, -59.03, -109.72, -1084.92, -190.06, 0.000, 0.000, 0.000, 16:01:36.380, 1602450096380
76, -59.21, -102.79, -1094.66, -378.21, 0.000, 0.000, 0.000, 16:01:36.380, 1602450096380
77, -66.33, -121.37, -1073.12, -385.66, 0.000, 0.000, 0.000, 16:01:36.394, 1602450096394
78, -67.98, -80.92, -1070.54, -195.74, 0.000, 0.000, 0.000, 16:01:36.394, 1602450096394
79, -51.74, -69.80, -1059.46, -278.61, 0.000, 0.000, 0.000, 16:01:36.395, 1602450096395
80, -49.30, -78.97, -1050.49, -400.79, 0.000, 0.000, 0.000, 16:01:36.395, 1602450096395
81, -65.61, -106.53, -1060.41, -255.45, 0.000, 0.000, 0.000, 16:01:36.410, 1602450096410
82, -61.98, -102.75, -1068.70, -217.93, 0.000, 0.000, 0.000, 16:01:36.410, 1602450096410
83, -55.22, -106.33, -1067.76, -405.86, 0.000, 0.000, 0.000, 16:01:36.411, 1602450096411
84, -33.65, -78.12, -1061.34, -308.94, 0.000, 0.000, 0.000, 16:01:36.411, 1602450096411
85, -73.88, -89.97, -1064.65, -186.36, 0.000, 0.000, 0.000, 16:01:36.424, 1602450096424
86, -54.97, -86.48, -1060.16, -356.20, 0.000, 0.000, 0.000, 16:01:36.424, 1602450096424
87, -66.87, -98.91, -1064.62, -377.79, 0.000, 0.000, 0.000, 16:01:36.472, 1602450096472
88, -53.76, -130.43, -1078.27, -210.73, 0.000, 0.000, 0.000, 16:01:36.472, 1602450096472
89, -46.80, -88.32, -1040.41, -276.43, 0.000, 0.000, 0.000, 16:01:36.472, 1602450096472
90, -42.99, -66.67, -1064.64, -397.50, 0.000, 0.000, 0.000, 16:01:36.472, 1602450096472
91, -42.57, -83.65, -1053.95, -250.29, 0.000, 0.000, 0.000, 16:01:36.473, 1602450096473
92, -56.88, -98.91, -1054.81, -208.05, 0.000, 0.000, 0.000, 16:01:36.473, 1602450096473
93, -64.12, -99.00, -1066.81, -403.01, 0.000, 0.000, 0.000, 16:01:36.474, 1602450096474
94, -52.89, -128.47, -1103.54, -342.94, 0.000, 0.000, 0.000, 16:01:36.474, 1602450096474
95, -39.80, -140.10, -1076.37, -194.82, 0.000, 0.000, 0.000, 16:01:36.485, 1602450096485
96, -21.09, -71.64, -1074.45, -336.93, 0.000, 0.000, 0.000, 16:01:36.485, 1602450096485
97, -14.65, -78.06, -1075.48, -368.92, 0.000, 0.000, 0.000, 16:01:36.485, 1602450096485
98, -29.45, -99.14, -1087.91, -209.23, 0.000, 0.000, 0.000, 16:01:36.485, 1602450096485
99, -22.19, -96.07, -1069.81, -268.82, 0.000, 0.000, 0.000, 16:01:36.500, 1602450096500
100, -38.57, -99.83, -1104.29, -417.48, 0.000, 0.000, 0.000, 16:01:36.500, 1602450096500
101, -51.57, -121.91, -1123.91, -283.07, 0.000, 0.000, 0.000, 16:01:36.501, 1602450096501
102, -65.84, -141.04, -1132.12, -240.21, 0.000, 0.000, 0.000, 16:01:36.501, 1602450096501
103, -35.87, -118.46, -1104.42, -410.75, 0.000, 0.000, 0.000, 16:01:36.514, 1602450096514
104, -20.90, -100.37, -1111.90, -335.87, 0.000, 0.000, 0.000, 16:01:36.514, 1602450096514
105, -19.46, -129.63, -1094.95, -191.57, 0.000, 0.000, 0.000, 16:01:36.530, 1602450096530
106, -20.94, -113.48, -1065.82, -347.86, 0.000, 0.000, 0.000, 16:01:36.530, 1602450096530
107, -19.63, -89.56, -1081.17, -376.67, 0.000, 0.000, 0.000, 16:01:36.531, 1602450096531
108, -28.37, -115.51, -1121.28, -220.68, 0.000, 0.000, 0.000, 16:01:36.531, 1602450096531
109, -22.29, -121.97, -1115.94, -290.66, 0.000, 0.000, 0.000, 16:01:36.544, 1602450096544
110, -20.56, -110.03, -1101.63, -412.69, 0.000, 0.000, 0.000, 16:01:36.544, 1602450096544
111, -51.88, -125.42, -1118.44, -283.13, 0.000, 0.000, 0.000, 16:01:36.560, 1602450096560
112, -50.71, -144.90, -1118.72, -240.66, 0.000, 0.000, 0.000, 16:01:36.560, 1602450096560
113, -27.74, -122.88, -1089.80, -406.10, 0.000, 0.000, 0.000, 16:01:36.560, 1602450096560
114, -18.90, -112.39, -1104.39, -326.88, 0.000, 0.000, 0.000, 16:01:36.560, 1602450096560
115, -21.18, -124.45, -1096.98, -191.77, 0.000, 0.000, 0.000, 16:01:36.574, 1602450096574
116, -17.16, -113.98, -1061.65, -352.01, 0.000, 0.000, 0.000, 16:01:36.574, 1602450096574
117, -30.28, -120.74, -1100.82, -386.66, 0.000, 0.000, 0.000, 16:01:36.590, 1602450096590
118, -30.47, -124.69, -1100.47, -211.81, 0.000, 0.000, 0.000, 16:01:36.590, 1602450096590
119, -34.95, -135.11, -1091.01, -301.47, 0.000, 0.000, 0.000, 16:01:36.591, 1602450096591
120, -36.49, -130.03, -1096.56, -418.45, 0.000, 0.000, 0.000, 16:01:36.591, 1602450096591
121, -42.24, -154.60, -1112.12, -273.40, 0.000, 0.000, 0.000, 16:01:36.621, 1602450096621
122, -36.85, -151.10, -1092.76, -235.25, 0.000, 0.000, 0.000, 16:01:36.621, 1602450096621
123, -21.14, -109.38, -1066.62, -406.13, 0.000, 0.000, 0.000, 16:01:36.621, 1602450096621
124, -14.29, -113.23, -1070.53, -311.73, 0.000, 0.000, 0.000, 16:01:36.621, 1602450096621
125, -23.22, -113.37, -1069.44, -179.98, 0.000, 0.000, 0.000, 16:01:36.622, 1602450096622
126, -0.73, -88.78, -1038.67, -350.80, 0.000, 0.000, 0.000, 16:01:36.622, 1602450096622
127, 5.55, -100.42, -1052.47, -359.01, 0.000, 0.000, 0.000, 16:01:36.634, 1602450096634
128, -0.84, -84.63, -1051.54, -177.71, 0.000, 0.000, 0.000, 16:01:36.634, 1602450096634
129, 15.28, -63.33, -1028.23, -261.25, 0.000, 0.000, 0.000, 16:01:36.650, 1602450096650
130, 35.28, -50.83, -1023.68, -366.47, 0.000, 0.000, 0.000, 16:01:36.650, 1602450096650
131, 16.01, -52.20, -1029.79, -209.30, 0.000, 0.000, 0.000, 16:01:36.651, 1602450096651
132, 56.10, -0.66, -961.51, -147.57, 0.000, 0.000, 0.000, 16:01:36.651, 1602450096651
133, 89.13, 29.61, -946.89, -319.39, 0.000, 0.000, 0.000, 16:01:36.665, 1602450096665
134, 74.15, 10.04, -951.09, -233.00, 0.000, 0.000, 0.000, 16:01:36.665, 1602450096665
135, 47.88, -32.43, -994.51, -122.78, 0.000, 0.000, 0.000, 16:01:36.680, 1602450096680
136, 41.43, -30.19, -996.09, -315.57, 0.000, 0.000, 0.000, 16:01:36.680, 1602450096680
137, 27.00, -48.89, -1024.73, -334.73, 0.000, 0.000, 0.000, 16:01:36.681, 1602450096681
138, 13.55, -46.14, -999.99, -144.30, 0.000, 0.000, 0.000, 16:01:36.681, 1602450096681
139, 5.70, -50.11, -989.13, -246.78, 0.000, 0.000, 0.000, 16:01:36.711, 1602450096711
140, -12.34, -64.47, -1001.07, -378.12, 0.000, 0.000, 0.000, 16:01:36.711, 1602450096711
141, 5.87, -55.78, -1020.10, -209.47, 0.000, 0.000, 0.000, 16:01:36.712, 1602450096712
142, 24.60, -46.79, -1013.34, -177.94, 0.000, 0.000, 0.000, 16:01:36.712, 1602450096712
143, -4.53, -77.75, -1020.49, -387.82, 0.000, 0.000, 0.000, 16:01:36.712, 1602450096712
144, -15.27, -97.07, -1037.00, -298.78, 0.000, 0.000, 0.000, 16:01:36.712, 1602450096712
145, -14.39, -112.03, -1063.17, -178.66, 0.000, 0.000, 0.000, 16:01:36.725, 1602450096725
146, -8.43, -97.05, -1036.46, -357.05, 0.000, 0.000, 0.000, 16:01:36.725, 1602450096725
147, -26.77, -110.24, -1058.35, -370.67, 0.000, 0.000, 0.000, 16:01:36.741, 1602450096741
148, -45.41, -136.53, -1087.11, -206.48, 0.000, 0.000, 0.000, 16:01:36.741, 1602450096741
149, -38.82, -135.54, -1081.64, -313.08, 0.000, 0.000, 0.000, 16:01:36.742, 1602450096742
150, -47.26, -143.68, -1086.24, -429.31, 0.000, 0.000, 0.000, 16:01:36.742, 1602450096742
151, -47.91, -142.37, -1087.46, -259.20, 0.000, 0.000, 0.000, 16:01:36.754, 1602450096754
152, -58.79, -157.27, -1094.55, -245.54, 0.000, 0.000, 0.000, 16:01:36.754, 1602450096754
153, -53.07, -161.17, -1085.18, -435.43, 0.000, 0.000, 0.000, 16:01:36.769, 1602450096769
154, -64.28, -170.75, -1097.11, -343.34, 0.000, 0.000, 0.000, 16:01:36.769, 1602450096769
155, -65.98, -180.66, -1101.66, -212.94, 0.000, 0.000, 0.000, 16:01:36.770, 1602450096770
156, -55.87, -182.92, -1101.46, -412.93, 0.000, 0.000, 0.000, 16:01:36.770, 1602450096770
157, -71.92, -196.58, -1125.65, -419.68, 0.000, 0.000, 0.000, 16:01:36.784, 1602450096784
158, -80.81, -186.90, -1123.45, -236.05, 0.000, 0.000, 0.000, 16:01:36.784, 1602450096784
159, -70.86, -179.00, -1103.41, -340.04, 0.000, 0.000, 0.000, 16:01:36.800, 1602450096800
160, -68.25, -199.28, -1103.78, -458.23, 0.000, 0.000, 0.000, 16:01:36.800, 1602450096800
161, -81.17, -199.75, -1126.34, -293.82, 0.000, 0.000, 0.000, 16:01:36.801, 1602450096801
162, -78.65, -194.77, -1111.54, -267.51, 0.000, 0.000, 0.000, 16:01:36.801, 1602450096801
163, -77.16, -194.10, -1104.34, -459.30, 0.000, 0.000, 0.000, 16:01:36.814, 1602450096814
164, -92.84, -207.27, -1135.63, -368.77, 0.000, 0.000, 0.000, 16:01:36.814, 1602450096814
165, -88.79, -211.61, -1116.54, -229.54, 0.000, 0.000, 0.000, 16:01:36.830, 1602450096830
166, -80.06, -194.64, -1114.93, -418.12, 0.000, 0.000, 0.000, 16:01:36.830, 1602450096830
167, -84.03, -213.95, -1141.57, -430.21, 0.000, 0.000, 0.000, 16:01:36.830, 1602450096830
168, -104.08, -227.00, -1126.72, -250.07, 0.000, 0.000, 0.000, 16:01:36.830, 1602450096830
169, -94.35, -217.67, -1108.53, -356.74, 0.000, 0.000, 0.000, 16:01:36.860, 1602450096860
170, -95.24, -204.78, -1111.72, -461.71, 0.000, 0.000, 0.000, 16:01:36.860, 1602450096860
171, -99.98, -237.28, -1138.49, -304.18, 0.000, 0.000, 0.000, 16:01:36.861, 1602450096861
172, -104.67, -230.92, -1132.74, -284.87, 0.000, 0.000, 0.000, 16:01:36.861, 1602450096861
173, -95.40, -216.92, -1130.81, -475.21, 0.000, 0.000, 0.000, 16:01:36.862, 1602450096862
174, -97.87, -219.05, -1126.12, -365.71, 0.000, 0.000, 0.000, 16:01:36.862, 1602450096862
175, -105.04, -221.86, -1119.96, -235.05, 0.000, 0.000, 0.000, 16:01:36.874, 1602450096874
176, -91.08, -205.62, -1115.10, -429.80, 0.000, 0.000, 0.000, 16:01:36.874, 1602450096874
177, -90.75, -223.30, -1129.65, -432.04, 0.000, 0.000, 0.000, 16:01:36.890, 1602450096890
178, -103.11, -240.64, -1137.37, -246.43, 0.000, 0.000, 0.000, 16:01:36.890, 1602450096890
179, -80.58, -201.25, -1103.34, -352.91, 0.000, 0.000, 0.000, 16:01:36.890, 1602450096890
180, -84.33, -207.21, -1126.41, -468.92, 0.000, 0.000, 0.000, 16:01:36.890, 1602450096890
181, -98.91, -233.62, -1143.60, -302.30, 0.000, 0.000, 0.000, 16:01:36.904, 1602450096904
182, -103.95, -227.60, -1129.79, -286.03, 0.000, 0.000, 0.000, 16:01:36.904, 1602450096904
183, -79.50, -191.34, -1098.16, -460.85, 0.000, 0.000, 0.000, 16:01:36.920, 1602450096920
184, -87.02, -213.97, -1122.68, -362.32, 0.000, 0.000, 0.000, 16:01:36.920, 1602450096920
185, -99.37, -219.21, -1122.88, -233.84, 0.000, 0.000, 0.000, 16:01:36.920, 1602450096920
186, -70.36, -201.43, -1101.07, -423.49, 0.000, 0.000, 0.000, 16:01:36.920, 1602450096920
187, -75.35, -216.75, -1118.07, -418.82, 0.000, 0.000, 0.000, 16:01:36.934, 1602450096934
188, -91.19, -232.18, -1124.81, -244.88, 0.000, 0.000, 0.000, 16:01:36.934, 1602450096934
189, -85.15, -216.00, -1106.54, -350.13, 0.000, 0.000, 0.000, 16:01:36.950, 1602450096950
190, -71.07, -207.74, -1106.50, -453.91, 0.000, 0.000, 0.000, 16:01:36.950, 1602450096950
191, -92.53, -236.00, -1130.81, -306.39, 0.000, 0.000, 0.000, 16:01:36.951, 1602450096951
192, -81.44, -217.64, -1106.65, -270.35, 0.000, 0.000, 0.000, 16:01:36.951, 1602450096951
193, -78.70, -221.93, -1106.39, -456.26, 0.000, 0.000, 0.000, 16:01:36.964, 1602450096964
194, -91.58, -229.98, -1134.27, -379.27, 0.000, 0.000, 0.000, 16:01:36.964, 1602450096964
195, -96.01, -234.17, -1126.10, -248.55, 0.000, 0.000, 0.000, 16:01:36.980, 1602450096980
196, -89.48, -217.82, -1098.76, -403.77, 0.000, 0.000, 0.000, 16:01:36.980, 1602450096980
197, -89.57, -223.16, -1103.92, -428.14, 0.000, 0.000, 0.000, 16:01:36.981, 1602450096981
198, -100.75, -236.00, -1114.31, -286.74, 0.000, 0.000, 0.000, 16:01:36.981, 1602450096981
199, -92.65, -224.15, -1109.26, -240.12, 0.000, 0.000, 0.000, 16:01:37.012, 1602450097012
200, -115.58, -258.36, -1139.39, -379.29, 0.000, 0.000, 0.000, 16:01:37.012, 1602450097012
0, -98.38, -239.97, -1122.97, -482.88, 0.000, 0.000, 0.000, 16:01:37.012, 1602450097012
1, -80.67, -227.17, -1115.88, -282.45, 0.000, 0.000, 0.000, 16:01:37.013, 1602450097013
2, -87.78, -229.25, -1125.37, -285.61, 0.000, 0.000, 0.000, 16:01:37.013, 1602450097013
3, -98.16, -240.32, -1112.65, -471.68, 0.000, 0.000, 0.000, 16:01:37.013, 1602450097013
4, -73.43, -226.06, -1097.32, -371.30, 0.000, 0.000, 0.000, 16:01:37.014, 1602450097014
5, -75.19, -232.04, -1121.53, -217.31, 0.000, 0.000, 0.000, 16:01:37.024, 1602450097024
6, -104.97, -262.72, -1147.85, -439.46, 0.000, 0.000, 0.000, 16:01:37.024, 1602450097024
7, -81.44, -237.82, -1132.60, -464.41, 0.000, 0.000, 0.000, 16:01:37.039, 1602450097039
8, -78.65, -236.76, -1117.46, -214.52, 0.000, 0.000, 0.000, 16:01:37.039, 1602450097039
9, -96.69, -260.06, -1143.25, -366.10, 0.000, 0.000, 0.000, 16:01:37.055, 1602450097055
10, -92.32, -242.29, -1144.86, -511.75, 0.000, 0.000, 0.000, 16:01:37.055, 1602450097055
11, -86.11, -237.18, -1114.71, -278.48, 0.000, 0.000, 0.000, 16:01:37.056, 1602450097056
12, -106.03, -257.81, -1145.33, -287.75, 0.000, 0.000, 0.000, 16:01:37.056, 1602450097056
13, -96.17, -254.48, -1144.18, -494.37, 0.000, 0.000, 0.000, 16:01:37.070, 1602450097070
14, -69.90, -230.46, -1119.57, -382.43, 0.000, 0.000, 0.000, 16:01:37.070, 1602450097070
15, -95.39, -254.59, -1132.42, -225.80, 0.000, 0.000, 0.000, 16:01:37.085, 1602450097085
16, -95.91, -252.59, -1128.46, -434.73, 0.000, 0.000, 0.000, 16:01:37.085, 1602450097085
17, -93.07, -252.66, -1119.38, -478.19, 0.000, 0.000, 0.000, 16:01:37.086, 1602450097086
18, -91.88, -241.62, -1126.27, -214.20, 0.000, 0.000, 0.000, 16:01:37.086, 1602450097086
19, -106.35, -260.51, -1151.83, -369.71, 0.000, 0.000, 0.000, 16:01:37.100, 1602450097100
20, -104.45, -263.70, -1146.09, -532.28, 0.000, 0.000, 0.000, 16:01:37.100, 1602450097100
21, -85.53, -246.15, -1117.16, -284.36, 0.000, 0.000, 0.000, 16:01:37.115, 1602450097115
22, -100.17, -262.19, -1124.58, -281.37, 0.000, 0.000, 0.000, 16:01:37.115, 1602450097115
23, -94.86, -258.95, -1139.70, -501.03, 0.000, 0.000, 0.000, 16:01:37.116, 1602450097116
24, -85.99, -243.10, -1105.43, -388.87, 0.000, 0.000, 0.000, 16:01:37.116, 1602450097116
25, -95.35, -259.08, -1130.46, -219.62, 0.000, 0.000, 0.000, 16:01:37.129, 1602450097129
26, -115.75, -267.20, -1144.20, -449.74, 0.000, 0.000, 0.000, 16:01:37.129, 1602450097129
27, -102.19, -248.93, -1113.65, -486.71, 0.000, 0.000, 0.000, 16:01:37.144, 1602450097144
28, -108.35, -248.32, -1113.87, -213.81, 0.000, 0.000, 0.000, 16:01:37.144, 1602450097144
29, -106.17, -259.94, -1138.07, -364.96, 0.000, 0.000, 0.000, 16:01:37.145, 1602450097145
30, -100.95, -262.90, -1128.13, -530.50, 0.000, 0.000, 0.000, 16:01:37.145, 1602450097145
31, -91.73, -247.45, -1120.20, -281.23, 0.000, 0.000, 0.000, 16:01:37.160, 1602450097160
32, -123.04, -279.55, -1146.27, -289.11, 0.000, 0.000, 0.000, 16:01:37.160, 1602450097160
33, -107.69, -266.71, -1130.96, -507.55, 0.000, 0.000, 0.000, 16:01:37.175, 1602450097175
34, -84.08, -245.28, -1120.64, -395.32, 0.000, 0.000, 0.000, 16:01:37.175, 1602450097175
35, -105.12, -258.64, -1139.83, -218.79, 0.000, 0.000, 0.000, 16:01:37.175, 1602450097175
36, -111.94, -269.99, -1134.74, -451.84, 0.000, 0.000, 0.000, 16:01:37.175, 1602450097175
37, -87.20, -254.93, -1116.11, -491.62, 0.000, 0.000, 0.000, 16:01:37.189, 1602450097189
38, -99.19, -257.55, -1117.43, -207.06, 0.000, 0.000, 0.000, 16:01:37.189, 1602450097189
39, -117.56, -274.57, -1148.39, -371.53, 0.000, 0.000, 0.000, 16:01:37.204, 1602450097204
40, -93.08, -259.39, -1120.75, -528.94, 0.000, 0.000, 0.000, 16:01:37.204, 1602450097204
41, -85.52, -243.75, -1121.35, -277.11, 0.000, 0.000, 0.000, 16:01:37.205, 1602450097205
42, -116.39, -264.27, -1137.83, -280.20, 0.000, 0.000, 0.000, 16:01:37.205, 1602450097205
43, -106.01, -265.19, -1121.03, -503.30, 0.000, 0.000, 0.000, 16:01:37.219, 1602450097219
44, -81.11, -238.71, -1095.68, -384.38, 0.000, 0.000, 0.000, 16:01:37.219, 1602450097219
45, -107.46, -265.10, -1139.63, -212.05, 0.000, 0.000, 0.000, 16:01:37.235, 1602450097235
46, -116.86, -272.24, -1148.09, -448.70, 0.000, 0.000, 0.000, 16:01:37.235, 1602450097235
47, -95.94, -255.25, -1131.88, -495.34, 0.000, 0.000, 0.000, 16:01:37.235, 1602450097235
48, -97.35, -258.20, -1130.07, -204.45, 0.000, 0.000, 0.000, 16:01:37.235, 1602450097235
49, -114.71, -283.30, -1123.24, -367.30, 0.000, 0.000, 0.000, 16:01:37.265, 1602450097265
50, -106.64, -269.51, -1106.03, -528.53, 0.000, 0.000, 0.000, 16:01:37.265, 1602450097265
51, -92.31, -257.40, -1105.40, -275.71, 0.000, 0.000, 0.000, 16:01:37.266, 1602450097266
52, -106.62, -275.51, -1130.26, -278.21, 0.000, 0.000, 0.000, 16:01:37.266, 1602450097266
53, -96.28, -257.20, -1116.97, -500.52, 0.000, 0.000, 0.000, 16:01:37.267, 1602450097267
54, -83.65, -248.85, -1106.20, -389.52, 0.000, 0.000, 0.000, 16:01:37.267, 1602450097267
55, -108.25, -276.04, -1133.40, -218.98, 0.000, 0.000, 0.000, 16:01:37.279, 1602450097279
56, -118.67, -294.25, -1156.36, -459.54, 0.000, 0.000, 0.000, 16:01:37.279, 1602450097279
57, -98.15, -268.63, -1113.02, -492.64, 0.000, 0.000, 0.000, 16:01:37.295, 1602450097295
58, -100.14, -261.79, -1108.59, -198.21, 0.000, 0.000, 0.000, 16:01:37.295, 1602450097295
59, -109.35, -284.07, -1144.15, -370.59, 0.000, 0.000, 0.000, 16:01:37.295, 1602450097295
60, -95.06, -268.43, -1117.70, -531.22, 0.000, 0.000, 0.000, 16:01:37.295, 1602450097295
61, -85.91, -252.16, -1094.06, -267.28, 0.000, 0.000, 0.000, 16:01:37.309, 1602450097309
62, -104.68, -280.51, -1140.93, -274.39, 0.000, 0.000, 0.000, 16:01:37.309, 1602450097309
63, -107.49, -274.47, -1125.37, -510.11, 0.000, 0.000, 0.000, 16:01:37.325, 1602450097325
64, -85.85, -248.28, -1095.20, -383.78, 0.000, 0.000, 0.000, 16:01:37.325, 1602450097325
65, -105.21, -266.35, -1124.89, -210.00, 0.000, 0.000, 0.000, 16:01:37.326, 1602450097326
66, -116.70, -296.33, -1143.89, -459.39, 0.000, 0.000, 0.000, 16:01:37.326, 1602450097326
67, -90.12, -265.02, -1099.65, -490.23, 0.000, 0.000, 0.000, 16:01:37.339, 1602450097339
68, -94.89, -258.13, -1108.60, -199.31, 0.000, 0.000, 0.000, 16:01:37.339, 1602450097339
69, -113.26, -281.63, -1177.22, -378.40, 0.000, 0.000, 0.000, 16:01:37.355, 1602450097355
70, -105.20, -286.96, -1111.57, -536.19, 0.000, 0.000, 0.000, 16:01:37.355, 1602450097355
71, -88.99, -256.04, -1085.73, -267.24, 0.000, 0.000, 0.000, 16:01:37.356, 1602450097356
72, -106.13, -267.54, -1119.87, -276.86, 0.000, 0.000, 0.000, 16:01:37.356, 1602450097356
73, -106.46, -274.64, -1126.07, -503.47, 0.000, 0.000, 0.000, 16:01:37.369, 1602450097369
74, -90.69, -266.36, -1115.96, -393.56, 0.000, 0.000, 0.000, 16:01:37.369, 1602450097369
75, -105.59, -286.76, -1126.96, -223.16, 0.000, 0.000, 0.000, 16:01:37.385, 1602450097385
76, -112.19, -271.28, -1115.08, -442.78, 0.000, 0.000, 0.000, 16:01:37.385, 1602450097385
77, -90.53, -250.95, -1099.78, -479.72, 0.000, 0.000, 0.000, 16:01:37.386, 1602450097386
78, -105.71, -267.78, -1125.94, -214.53, 0.000, 0.000, 0.000, 16:01:37.386, 1602450097386
79, -138.82, -286.99, -1126.64, -382.19, 0.000, 0.000, 0.000, 16:01:37.416, 1602450097416
80, -107.78, -267.21, -1110.54, -529.52, 0.000, 0.000, 0.000, 16:01:37.416, 1602450097416
81, -88.12, -250.37, -1090.40, -265.86, 0.000, 0.000, 0.000, 16:01:37.417, 1602450097417
82, -125.59, -295.93, -1144.68, -299.48, 0.000, 0.000, 0.000, 16:01:37.417, 1602450097417
83, -124.96, -284.75, -1135.86, -515.91, 0.000, 0.000, 0.000, 16:01:37.418, 1602450097418
84, -89.81, -246.35, -1082.75, -381.80, 0.000, 0.000, 0.000, 16:01:37.418, 1602450097418
85, -104.31, -282.23, -1126.89, -223.52, 0.000, 0.000, 0.000, 16:01:37.430, 1602450097430
86, -99.58, -261.03, -1098.67, -438.29, 0.000, 0.000, 0.000, 16:01:37.430, 1602450097430
87, -98.71, -264.47, -1100.36, -481.82, 0.000, 0.000, 0.000, 16:01:37.445, 1602450097445
88, -100.61, -264.04, -1107.38, -205.42, 0.000, 0.000, 0.000, 16:01:37.445, 1602450097445
89, -121.14, -303.63, -1135.65, -381.81, 0.000, 0.000, 0.000, 16:01:37.446, 1602450097446
90, -99.60, -270.44, -1109.76, -529.30, 0.000, 0.000, 0.000, 16:01:37.446, 1602450097446
91, -86.03, -246.75, -1094.70, -267.90, 0.000, 0.000, 0.000, 16:01:37.460, 1602450097460
92, -111.82, -284.75, -1132.11, -289.37, 0.000, 0.000, 0.000, 16:01:37.460, 1602450097460
93, -118.91, -281.46, -1130.44, -507.80, 0.000, 0.000, 0.000, 16:01:37.475, 1602450097475
94, -106.14, -262.74, -1113.30, -395.63, 0.000, 0.000, 0.000, 16:01:37.475, 1602450097475
95, -119.97, -286.73, -1134.39, -233.46, 0.000, 0.000, 0.000, 16:01:37.476, 1602450097476
96, -124.59, -297.45, -1149.00, -461.11, 0.000, 0.000, 0.000, 16:01:37.476, 1602450097476
97, -102.20, -269.30, -1090.38, -482.92, 0.000, 0.000, 0.000, 16:01:37.490, 1602450097490
98, -99.66, -267.63, -1105.59, -209.51, 0.000, 0.000, 0.000, 16:01:37.490, 1602450097490
99, -106.22, -278.17, -1120.97, -368.84, 0.000, 0.000, 0.000, 16:01:37.505, 1602450097505
100, -92.72, -276.78, -1105.41, -522.73, 0.000, 0.000, 0.000, 16:01:37.505, 1602450097505
101, -90.24, -268.71, -1100.92, -275.81, 0.000, 0.000, 0.000, 16:01:37.505, 1602450097505
102, -115.47, -277.20, -1127.62, -286.57, 0.000, 0.000, 0.000, 16:01:37.505, 1602450097505
103, -108.50, -269.80, -1122.29, -500.09, 0.000, 0.000, 0.000, 16:01:37.519, 1602450097519
104, -98.62, -266.95, -1091.54, -390.77, 0.000, 0.000, 0.000, 16:01:37.519, 1602450097519
105, -115.75, -284.23, -1119.07, -224.55, 0.000, 0.000, 0.000, 16:01:37.535, 1602450097535
106, -120.14, -294.89, -1139.07, -461.88, 0.000, 0.000, 0.000, 16:01:37.535, 1602450097535
107, -95.94, -263.33, -1103.73, -479.70, 0.000, 0.000, 0.000, 16:01:37.535, 1602450097535
108, -101.99, -276.47, -1105.03, -209.73, 0.000, 0.000, 0.000, 16:01:37.535, 1602450097535
109, -113.53, -296.53, -1150.53, -383.34, 0.000, 0.000, 0.000, 16:01:37.566, 1602450097566
110, -105.51, -278.15, -1128.84, -530.15, 0.000, 0.000, 0.000, 16:01:37.566, 1602450097566
111, -107.56, -271.69, -1094.64, -279.42, 0.000, 0.000, 0.000, 16:01:37.566, 1602450097566
112, -130.73, -312.73, -1140.22, -303.12, 0.000, 0.000, 0.000, 16:01:37.566, 1602450097566
113, -91.79, -287.56, -1133.43, -509.45, 0.000, 0.000, 0.000, 16:01:37.567, 1602450097567
114, -66.61, -240.89, -1074.27, -374.52, 0.000, 0.000, 0.000, 16:01:37.567, 1602450097567
115, -83.65, -254.06, -1113.03, -213.33, 0.000, 0.000, 0.000, 16:01:37.579, 1602450097579
116, -101.31, -276.42, -1141.15, -451.82, 0.000, 0.000, 0.000, 16:01:37.579, 1602450097579
117, -70.59, -211.24, -1065.42, -451.46, 0.000, 0.000, 0.000, 16:01:37.595, 1602450097595
118, -76.44, -228.01, -1086.44, -190.21, 0.000, 0.000, 0.000, 16:01:37.595, 1602450097595
119, -94.55, -275.20, -1108.35, -364.37, 0.000, 0.000, 0.000, 16:01:37.595, 1602450097595
120, -79.91, -240.45, -1100.71, -505.65, 0.000, 0.000, 0.000, 16:01:37.595, 1602450097595
121, -57.44, -220.48, -1082.92, -250.84, 0.000, 0.000, 0.000, 16:01:37.609, 1602450097609
122, -90.36, -258.31, -1115.45, -274.38, 0.000, 0.000, 0.000, 16:01:37.609, 1602450097609
123, -96.69, -249.78, -1104.16, -488.37, 0.000, 0.000, 0.000, 16:01:37.625, 1602450097625
124, -74.10, -241.27, -1092.56, -374.49, 0.000, 0.000, 0.000, 16:01:37.625, 1602450097625
125, -77.12, -258.33, -1103.93, -209.68, 0.000, 0.000, 0.000, 16:01:37.625, 1602450097625
126, -83.70, -257.90, -1113.87, -435.83, 0.000, 0.000, 0.000, 16:01:37.625, 1602450097625
127, -76.35, -257.21, -1090.15, -471.11, 0.000, 0.000, 0.000, 16:01:37.640, 1602450097640
128, -93.50, -257.71, -1109.65, -208.35, 0.000, 0.000, 0.000, 16:01:37.640, 1602450097640
129, -103.02, -298.27, -1130.05, -382.10, 0.000, 0.000, 0.000, 16:01:37.655, 1602450097655
130, -92.47, -253.80, -1096.17, -516.98, 0.000, 0.000, 0.000, 16:01:37.655, 1602450097655
