%OpenBCI Raw EEG Data
%Number of channels = 4
%Sample Rate = 200 Hz
%Board = OpenBCI_GUI$BoardGanglionBLE
Sample Index, EXG Channel 0, EXG Channel 1, EXG Channel 2, EXG Channel 3, Accel Channel 0, Accel Channel 1, Accel Channel 2, Other, Other, Other, Other, Other, Timestamp, Other, Timestamp (Formatted)
2.0, 1.9896267764270306, -1.290265484713018, -2.41971527133137, -4.716013844124973, -0.11200000531971455, 0.0, 0.0, 0.0, 0.0, 0.0, 0.0, 0.0, 1.648086197061921E9, 0.0, 2022-03-23 20:43:17.061
2.0, -3.904455553740263, 9.989272781647742, 5.841723730787635, -9.503085787408054, -0.11200000531971455, 0.0, 0.0, 0.0, 0.0, 0.0, 0.0, 0.0, 1.648086197061921E9, 0.0, 2022-03-23 20:43:17.061
3.0, -5.149842238985002, 1.0322123877704144, -5.6547287330031395, -18.05249708611518, -0.11200000531971455, 0.0, 0.0, 0.0, 0.0, 0.0, 0.0, 0.0, 1.6480861970763533E9, 0.0, 2022-03-23 20:43:17.076
3.0, -4.734713343903422, 7.24044631421566, -1.4361215829849243, -21.171573649160564, -0.11200000531971455, 0.0, 0.0, 0.0, 0.0, 0.0, 0.0, 0.0, 1.6480861970763533E9, 0.0, 2022-03-23 20:43:17.076
4.0, -1.2229472855105996, 11.058884168975055, 0.523585993796587, -28.61023466102779, -0.11200000531971455, 0.0, 0.0, 0.0, 0.0, 0.0, 0.0, 0.0, 1.6480861970770874E9, 0.0, 2022-03-23 20:43:17.077
4.0, 9.218853390775621, 9.25999229028821, 15.744978813454509, -20.8611619528383, -0.11200000531971455, 0.0, 0.0, 0.0, 0.0, 0.0, 0.0, 0.0, 1.6480861970770874E9, 0.0, 2022-03-23 20:43:17.077
5.0, -1.690434779971838, 2.0345055758953094, 16.14140820875764, -25.00123120378703, -0.11200000531971455, 0.0, 0.0, 0.0, 0.0, 0.0, 0.0, 0.0, 1.6480861970906975E9, 0.0, 2022-03-23 20:43:17.090
5.0, -3.822177754715085, -3.579084257595241, 1.5221392819657922, -34.19390529487282, -0.11200000531971455, 0.0, 0.0, 0.0, 0.0, 0.0, 0.0, 0.0, 1.6480861970906975E9, 0.0, 2022-03-23 20:43:17.090
6.0, -1.7652327790856361, -0.13837629836052656, 4.356983448378742, -31.72931122407317, -0.11200000531971455, 0.0, 0.0, 0.0, 0.0, 0.0, 0.0, 0.0, 1.6480861971063502E9, 0.0, 2022-03-23 20:43:17.106
6.0, 9.503085787408054, 4.476660246960819, 9.776098484173417, -39.91595222707838, -0.11200000531971455, 0.0, 0.0, 0.0, 0.0, 0.0, 0.0, 0.0, 1.6480861971063502E9, 0.0, 2022-03-23 20:43:17.106
7.0, 2.5618314696475863, -0.14585609827190638, 11.552550963126123, -44.22057707607746, -0.11200000531971455, 0.0, 0.0, 0.0, 0.0, 0.0, 0.0, 0.0, 1.648086197107128E9, 0.0, 2022-03-23 20:43:17.107
7.0, 6.42888802383095, 6.395228924229741, 8.392335500568151, -39.97205072641373, -0.11200000531971455, 0.0, 0.0, 0.0, 0.0, 0.0, 0.0, 0.0, 1.648086197107128E9, 0.0, 2022-03-23 20:43:17.107
8.0, 1.768972679041326, -8.07070410437882, -15.68888031411916, -46.61785294767469, -0.11200000531971455, 0.0, 0.0, 0.0, 0.0, 0.0, 0.0, 0.0, 1.6480861971206985E9, 0.0, 2022-03-23 20:43:17.120
8.0, -11.533851463347673, -17.805663689039648, -22.08036933839321, -53.44317036680877, -0.11200000531971455, 0.0, 0.0, 0.0, 0.0, 0.0, 0.0, 0.0, 1.6480861971206985E9, 0.0, 2022-03-23 20:43:17.120
9.0, -16.694913402199745, -27.41346667520702, -25.281723700463772, -62.40397066064179, -0.11200000531971455, 0.0, 0.0, 0.0, 0.0, 0.0, 0.0, 0.0, 1.6480861971363962E9, 0.0, 2022-03-23 20:43:17.136
9.0, 2.1878414740785956, -29.44797225110233, -14.551950727589428, -62.42641006037593, -0.11200000531971455, 0.0, 0.0, 0.0, 0.0, 0.0, 0.0, 0.0, 1.6480861971363962E9, 0.0, 2022-03-23 20:43:17.136
10.0, -10.06407078076154, -37.48501725587994, -20.756444754078984, -71.38721035420895, -0.11200000531971455, 0.0, 1.008000047877431, 0.0, 0.0, 0.0, 0.0, 0.0, 1.64808619713712E9, 0.0, 2022-03-23 20:43:17.137
10.0, -11.29449786618352, -32.53712961450219, -10.726033072918653, -67.75950739718974, -0.11200000531971455, 0.0, 1.008000047877431, 0.0, 0.0, 0.0, 0.0, 0.0, 1.64808619713712E9, 0.0, 2022-03-23 20:43:17.137
11.0, -11.455313564278185, -32.90737971011549, -19.619515167549253, -70.54199296422303, -0.11200000531971455, 0.09600000455975533, 1.008000047877431, 0.0, 0.0, 0.0, 0.0, 0.0, 1.648086197150699E9, 0.0, 2022-03-23 20:43:17.150
11.0, 6.600923421792686, -23.471612121909857, -10.823270471766591, -66.48046161234379, -0.11200000531971455, 0.09600000455975533, 1.008000047877431, 0.0, 0.0, 0.0, 0.0, 0.0, 1.648086197150699E9, 0.0, 2022-03-23 20:43:17.150
12.0, -0.5497652934864163, -14.447233528830111, -5.4527741353958845, -73.8892034245655, -0.0800000037997961, 0.09600000455975533, 1.008000047877431, 0.0, 0.0, 0.0, 0.0, 0.0, 1.648086197166476E9, 0.0, 2022-03-23 20:43:17.166
12.0, 13.074690245091915, 5.1722816387191415, 6.507425922900438, -66.9928279062733, -0.0800000037997961, 0.09600000455975533, 1.008000047877431, 0.0, 0.0, 0.0, 0.0, 0.0, 1.648086197166476E9, 0.0, 2022-03-23 20:43:17.166
13.0, 10.920507870614529, 13.65063483826816, 6.03245862852782, -58.08812611177564, -0.0800000037997961, 0.09600000455975533, 1.008000047877431, 0.0, 0.0, 0.0, 0.0, 0.0, 1.648086197167134E9, 0.0, 2022-03-23 20:43:17.167
13.0, 0.5310657937079668, -1.3538437839597464, 8.265178902074695, -78.35464397165924, -0.0800000037997961, 0.09600000455975533, 1.008000047877431, 0.0, 0.0, 0.0, 0.0, 0.0, 1.648086197167134E9, 0.0, 2022-03-23 20:43:17.167
14.0, 3.2911119610071182, -14.753905325196683, -1.368803383782506, -72.27730654366314, -0.0800000037997961, 0.09600000455975533, 1.008000047877431, 0.0, 0.0, 0.0, 0.0, 0.0, 1.6480861971807773E9, 0.0, 2022-03-23 20:43:17.180
14.0, 12.225732955150306, -19.638214667327702, 3.0854174634441733, -70.91224305983633, -0.0800000037997961, 0.09600000455975533, 1.008000047877431, 0.0, 0.0, 0.0, 0.0, 0.0, 1.6480861971807773E9, 0.0, 2022-03-23 20:43:17.180
15.0, 5.557491334155202, -24.055036514997482, -1.7502731792628765, -78.02553277555853, -0.0800000037997961, 0.09600000455975533, 1.008000047877431, 0.0, 0.0, 0.0, 0.0, 0.0, 1.648086197196327E9, 0.0, 2022-03-23 20:43:17.196
15.0, -6.589703721925616, -18.748118477873504, -2.4832935705780983, -87.31170436553657, -0.0800000037997961, 0.09600000455975533, 1.008000047877431, 0.0, 0.0, 0.0, 0.0, 0.0, 1.648086197196327E9, 0.0, 2022-03-23 20:43:17.196
16.0, -2.288818772882223, -19.948626363649964, -2.165402074344456, -91.36575591750443, -0.0800000037997961, 0.09600000455975533, 1.008000047877431, 0.0, 0.0, 0.0, 0.0, 0.0, 1.648086197197062E9, 0.0, 2022-03-23 20:43:17.197
16.0, 11.201000367291272, -6.275552125647664, -1.9073489774018526, -83.9644939051941, -0.0800000037997961, 0.09600000455975533, 1.008000047877431, 0.0, 0.0, 0.0, 0.0, 0.0, 1.648086197197062E9, 0.0, 2022-03-23 20:43:17.197
17.0, -4.499099646694958, -9.147795291617513, -9.794797983951867, -95.27769127115607, -0.0800000037997961, 0.09600000455975533, 1.008000047877431, 0.0, 0.0, 0.0, 0.0, 0.0, 1.6480861972107067E9, 0.0, 2022-03-23 20:43:17.210
17.0, 6.2194536263123155, 0.6918814918026328, 4.600076945498586, -97.11024224944413, -0.0800000037997961, 0.09600000455975533, 1.008000047877431, 0.0, 0.0, 0.0, 0.0, 0.0, 1.6480861972107067E9, 0.0, 2022-03-23 20:43:17.210
18.0, 4.472920347005129, -1.653035780414939, 6.556044622324407, -97.06536344997585, -0.0800000037997961, 0.09600000455975533, 1.008000047877431, 0.0, 0.0, 0.0, 0.0, 0.0, 1.648086197226512E9, 0.0, 2022-03-23 20:43:17.226
18.0, -3.818437854759395, 12.973712946288288, -10.004232381470501, -102.35358198732138, -0.0800000037997961, 0.09600000455975533, 1.008000047877431, 0.0, 0.0, 0.0, 0.0, 0.0, 1.648086197226512E9, 0.0, 2022-03-23 20:43:17.226
19.0, -4.932928041554987, 0.4749672943726182, -7.307764513418078, -105.15476705413312, -0.0800000037997961, 0.09600000455975533, 1.008000047877431, 0.0, 0.0, 0.0, 0.0, 0.0, 1.64808619722709E9, 0.0, 2022-03-23 20:43:17.227
19.0, -8.504532499238849, -7.419961512088776, -4.861869942396879, -110.8281952869147, -0.0800000037997961, 0.09600000455975533, 1.008000047877431, 0.0, 0.0, 0.0, 0.0, 0.0, 1.64808619722709E9, 0.0, 2022-03-23 20:43:17.227
20.0, -9.147795291617513, -17.33817619457841, -9.925694482401013, -118.71190439350903, -0.0800000037997961, 0.09600000455975533, 0.9920000471174717, 0.0, 0.0, 0.0, 0.0, 0.0, 1.6480861972406657E9, 0.0, 2022-03-23 20:43:17.240
20.0, -22.98168522771448, -28.9393458571285, -21.093035750091076, -129.8044476620853, -0.0800000037997961, 0.09600000455975533, 0.9920000471174717, 0.0, 0.0, 0.0, 0.0, 0.0, 1.6480861972406657E9, 0.0, 2022-03-23 20:43:17.240
21.0, -8.104363203980029, -23.206079225055873, -10.980346269905567, -123.81686783302575, -0.0800000037997961, 0.09600000455975533, 0.9920000471174717, 0.0, 0.0, 0.0, 0.0, 0.0, 1.6480861972563455E9, 0.0, 2022-03-23 20:43:17.256
21.0, -19.76537126582116, -38.850080739706755, -26.661746784113348, -136.12113868724555, -0.0800000037997961, 0.09600000455975533, 0.9920000471174717, 0.0, 0.0, 0.0, 0.0, 0.0, 1.6480861972563455E9, 0.0, 2022-03-23 20:43:17.256
22.0, -29.066502455621958, -32.54834931436926, -28.355921464040875, -139.07191975228488, -0.09600000455975533, 0.09600000455975533, 0.9920000471174717, 0.0, 0.0, 0.0, 0.0, 0.0, 1.6480861972570612E9, 0.0, 2022-03-23 20:43:17.257
22.0, -15.786117712967098, -11.204740267246962, -18.53868408035487, -135.39185819588602, -0.09600000455975533, 0.09600000455975533, 0.9920000471174717, 0.0, 0.0, 0.0, 0.0, 0.0, 1.6480861972570612E9, 0.0, 2022-03-23 20:43:17.257
23.0, 3.2462331615388393, -4.076490951701999, -0.10097729880362749, -125.56714101228863, -0.09600000455975533, 0.09600000455975533, 0.9920000471174717, 0.0, 0.0, 0.0, 0.0, 0.0, 1.6480861972707565E9, 0.0, 2022-03-23 20:43:17.270
23.0, -8.261439002119005, -25.35278179962188, 0.7778991907835007, -130.87031914945692, -0.09600000455975533, 0.09600000455975533, 0.9920000471174717, 0.0, 0.0, 0.0, 0.0, 0.0, 1.6480861972707565E9, 0.0, 2022-03-23 20:43:17.270
24.0, -25.135867602191865, -18.725679078139365, -19.410080770030618, -139.38981124851853, -0.09600000455975533, 0.09600000455975533, 0.9920000471174717, 0.0, 0.0, 0.0, 0.0, 0.0, 1.6480861972863312E9, 0.0, 2022-03-23 20:43:17.286
24.0, -10.08651018049568, -8.568110798485577, -9.159014991484582, -128.1327123818919, -0.09600000455975533, 0.09600000455975533, 0.9920000471174717, 0.0, 0.0, 0.0, 0.0, 0.0, 1.6480861972863312E9, 0.0, 2022-03-23 20:43:17.286
25.0, -11.818083859980106, -11.877922259271145, -12.397768353112042, -129.85306636150926, -0.09600000455975533, 0.09600000455975533, 0.9920000471174717, 0.0, 0.0, 0.0, 0.0, 0.0, 1.648086197287044E9, 0.0, 2022-03-23 20:43:17.287
25.0, -19.3053635712713, -14.05080413352698, -13.938607134856284, -136.59236608166248, -0.09600000455975533, 0.09600000455975533, 0.9920000471174717, 0.0, 0.0, 0.0, 0.0, 0.0, 1.648086197287044E9, 0.0, 2022-03-23 20:43:17.287
26.0, -9.806017683818936, -8.736406296491623, 4.5664178458973765, -133.18531722202897, -0.09600000455975533, 0.09600000455975533, 0.9920000471174717, 0.0, 0.0, 0.0, 0.0, 0.0, 1.6480861973007703E9, 0.0, 2022-03-23 20:43:17.300
26.0, -12.263131954707205, -27.7163985716179, -1.2790457848459482, -127.99807598348707, -0.09600000455975533, 0.09600000455975533, 0.9920000471174717, 0.0, 0.0, 0.0, 0.0, 0.0, 1.6480861973007703E9, 0.0, 2022-03-23 20:43:17.300
27.0, -13.336483241990209, -8.231519802473485, -15.3036706186831, -133.52190821804106, -0.09600000455975533, 0.09600000455975533, 0.9920000471174717, 0.0, 0.0, 0.0, 0.0, 0.0, 1.6480861973163297E9, 0.0, 2022-03-23 20:43:17.316
27.0, -7.898668706417084, -2.247679873369634, 3.945594453252852, -133.22645612154156, -0.09600000455975533, 0.09600000455975533, 0.9920000471174717, 0.0, 0.0, 0.0, 0.0, 0.0, 1.6480861973163297E9, 0.0, 2022-03-23 20:43:17.316
28.0, -5.030165440402925, -4.588857245631516, -9.435767588205636, -134.37086550798267, -0.09600000455975533, 0.09600000455975533, 0.9920000471174717, 0.0, 0.0, 0.0, 0.0, 0.0, 1.648086197317058E9, 0.0, 2022-03-23 20:43:17.317
28.0, -1.8175913784652948, -3.186394762247801, 6.496206223033369, -126.71529029868543, -0.09600000455975533, 0.09600000455975533, 0.9920000471174717, 0.0, 0.0, 0.0, 0.0, 0.0, 1.648086197317058E9, 0.0, 2022-03-23 20:43:17.317
29.0, -3.171435162425041, 0.5273258937522769, 20.374974958598614, -118.9437781907618, -0.09600000455975533, 0.09600000455975533, 0.9920000471174717, 0.0, 0.0, 0.0, 0.0, 0.0, 1.6480861973307693E9, 0.0, 2022-03-23 20:43:17.330
29.0, 0.49366679415106773, -9.555444386787713, 12.349149653688073, -122.99408984277397, -0.09600000455975533, 0.09600000455975533, 0.9920000471174717, 0.0, 0.0, 0.0, 0.0, 0.0, 1.6480861973307693E9, 0.0, 2022-03-23 20:43:17.330
30.0, 0.06731819920241833, -29.492851050570607, 13.27290494274348, -128.58898017648607, -0.09600000455975533, 0.09600000455975533, 1.008000047877431, 0.0, 0.0, 0.0, 0.0, 0.0, 1.6480861973463492E9, 0.0, 2022-03-23 20:43:17.346
30.0, -13.048510945402086, -28.647633660584688, 16.06661020964384, -137.8826315663755, -0.09600000455975533, 0.09600000455975533, 1.008000047877431, 0.0, 0.0, 0.0, 0.0, 0.0, 1.6480861973463492E9, 0.0, 2022-03-23 20:43:17.346
31.0, -3.982993452809751, -30.285709841176867, 34.010650197044015, -129.97648306004703, -0.09600000455975533, 0.09600000455975533, 1.008000047877431, 0.0, 0.0, 0.0, 0.0, 0.0, 1.6480861973471448E9, 0.0, 2022-03-23 20:43:17.347
31.0, -4.985286640934646, -45.74645625799894, 30.420346239581704, -135.6536511927843, -0.09600000455975533, 0.09600000455975533, 1.008000047877431, 0.0, 0.0, 0.0, 0.0, 0.0, 1.6480861973471448E9, 0.0, 2022-03-23 20:43:17.347
32.0, -17.940300087444484, -55.84792603831738, 23.221038824878633, -147.2585607552901, -0.0800000037997961, 0.09600000455975533, 1.008000047877431, 0.0, 0.0, 0.0, 0.0, 0.0, 1.648086197360624E9, 0.0, 2022-03-23 20:43:17.360
32.0, -15.67018081434071, -49.8753058090806, 42.7994150929153, -133.37979201972485, -0.0800000037997961, 0.09600000455975533, 1.008000047877431, 0.0, 0.0, 0.0, 0.0, 0.0, 1.648086197360624E9, 0.0, 2022-03-23 20:43:17.360
33.0, 1.7016544798389077, -39.71399762947112, 54.587579753249884, -125.59332031197846, -0.0800000037997961, 0.09600000455975533, 1.008000047877431, 0.0, 0.0, 0.0, 0.0, 0.0, 1.64808619737637E9, 0.0, 2022-03-23 20:43:17.376
33.0, -5.512612534686923, -39.38488643337041, 63.29406685009599, -124.60598672367632, -0.0800000037997961, 0.09600000455975533, 1.008000047877431, 0.0, 0.0, 0.0, 0.0, 0.0, 1.64808619737637E9, 0.0, 2022-03-23 20:43:17.376
34.0, -17.28207769524306, -46.520615548826754, 55.89280483778566, -138.9971217531711, -0.0800000037997961, 0.09600000455975533, 1.008000047877431, 0.0, 0.0, 0.0, 0.0, 0.0, 1.6480861973771083E9, 0.0, 2022-03-23 20:43:17.377
34.0, -0.08975759893655777, -41.44557130895555, 48.117552829906344, -125.5409617125988, -0.0800000037997961, 0.09600000455975533, 1.008000047877431, 0.0, 0.0, 0.0, 0.0, 0.0, 1.6480861973771083E9, 0.0, 2022-03-23 20:43:17.377
35.0, 0.8190380902960896, -30.57742203772068, 48.37934582680464, -129.98022296000272, -0.0800000037997961, 0.09600000455975533, 1.008000047877431, 0.0, 0.0, 0.0, 0.0, 0.0, 1.6480861973906665E9, 0.0, 2022-03-23 20:43:17.390
35.0, -1.1144901867955923, -23.31827622372657, 55.45897644292563, -129.4678566660732, -0.0800000037997961, 0.09600000455975533, 1.008000047877431, 0.0, 0.0, 0.0, 0.0, 0.0, 1.6480861973906665E9, 0.0, 2022-03-23 20:43:17.390
36.0, 4.499099646694958, -22.53663713298738, 62.10103876423091, -129.29582126811147, -0.0800000037997961, 0.09600000455975533, 1.008000047877431, 0.0, 0.0, 0.0, 0.0, 0.0, 1.648086197406352E9, 0.0, 2022-03-23 20:43:17.406
36.0, 2.053205075673759, -29.197398954071105, 54.527741353958845, -127.61286628805101, -0.0800000037997961, 0.09600000455975533, 1.008000047877431, 0.0, 0.0, 0.0, 0.0, 0.0, 1.648086197406352E9, 0.0, 2022-03-23 20:43:17.406
37.0, -5.871642930433154, -21.867195040918887, 47.79592143371701, -134.9168909015134, -0.0800000037997961, 0.09600000455975533, 1.008000047877431, 0.0, 0.0, 0.0, 0.0, 0.0, 1.648086197407153E9, 0.0, 2022-03-23 20:43:17.407
37.0, -5.942701029591262, -23.924140016548336, 35.0914812842384, -136.12487858720124, -0.0800000037997961, 0.09600000455975533, 1.008000047877431, 0.0, 0.0, 0.0, 0.0, 0.0, 1.648086197407153E9, 0.0, 2022-03-23 20:43:17.407
38.0, 6.144655627198517, -30.349288140423596, 53.749842163175344, -126.88732569664717, -0.0800000037997961, 0.09600000455975533, 1.008000047877431, 0.0, 0.0, 0.0, 0.0, 0.0, 1.6480861974207077E9, 0.0, 2022-03-23 20:43:17.420
38.0, -6.1371758272871375, -38.97349743824452, 62.89015765488148, -132.70661002770066, -0.0800000037997961, 0.09600000455975533, 1.008000047877431, 0.0, 0.0, 0.0, 0.0, 0.0, 1.6480861974207077E9, 0.0, 2022-03-23 20:43:17.420
39.0, -8.201600602827966, -38.5733281429857, 62.87893795501441, -133.8435396142304, -0.0800000037997961, 0.09600000455975533, 1.008000047877431, 0.0, 0.0, 0.0, 0.0, 0.0, 1.6480861974363728E9, 0.0, 2022-03-23 20:43:17.436
39.0, 2.659068868495524, -21.620361643843353, 58.136744811199605, -128.71239687502384, -0.0800000037997961, 0.09600000455975533, 1.008000047877431, 0.0, 0.0, 0.0, 0.0, 0.0, 1.6480861974363728E9, 0.0, 2022-03-23 20:43:17.436
40.0, 10.595136574469507, -16.90434779971838, 53.779761362820864, -125.83267390914261, -0.0800000037997961, 0.09600000455975533, 1.008000047877431, 0.0, 0.0, 0.0, 0.0, 0.0, 1.6480861974371955E9, 0.0, 2022-03-23 20:43:17.437
40.0, 1.7053943797945976, -24.13731431402266, 43.59227388352156, -135.51901479437947, -0.0800000037997961, 0.09600000455975533, 1.008000047877431, 0.0, 0.0, 0.0, 0.0, 0.0, 1.6480861974371955E9, 0.0, 2022-03-23 20:43:17.437
41.0, 6.746779520064592, -13.340223141945899, 58.69025000464171, -127.02944189496338, -0.0800000037997961, 0.09600000455975533, 1.008000047877431, 0.0, 0.0, 0.0, 0.0, 0.0, 1.6480861974506664E9, 0.0, 2022-03-23 20:43:17.450
41.0, 13.897468235343695, -17.125001897104084, 56.932497025467455, -124.80794132128358, -0.0800000037997961, 0.09600000455975533, 1.008000047877431, 0.0, 0.0, 0.0, 0.0, 0.0, 1.6480861974506664E9, 0.0, 2022-03-23 20:43:17.450
42.0, 1.0209926879033446, -20.820023053325713, 45.36872636247426, -130.87031914945692, -0.0800000037997961, 0.09600000455975533, 1.008000047877431, 0.0, 0.0, 0.0, 0.0, 0.0, 1.6480861974663742E9, 0.0, 2022-03-23 20:43:17.466
42.0, -0.5983839929103851, -14.742685625329614, 48.17365132924169, -129.74460926279426, -0.0800000037997961, 0.09600000455975533, 1.008000047877431, 0.0, 0.0, 0.0, 0.0, 0.0, 1.6480861974663742E9, 0.0, 2022-03-23 20:43:17.466
43.0, 6.230673326179385, -6.814097719267011, 52.538114577531815, -120.35746037401259, -0.0800000037997961, 0.09600000455975533, 1.008000047877431, 0.0, 0.0, 0.0, 0.0, 0.0, 1.64808619746715E9, 0.0, 2022-03-23 20:43:17.467
43.0, 6.937514417804778, -9.880815682932734, 52.553074177354574, -120.79128876887262, -0.0800000037997961, 0.09600000455975533, 1.008000047877431, 0.0, 0.0, 0.0, 0.0, 0.0, 1.64808619746715E9, 0.0, 2022-03-23 20:43:17.467
44.0, 13.792751036584377, -10.43432087637484, 67.60991139896214, -118.68198519386351, -0.0800000037997961, 0.09600000455975533, 1.008000047877431, 0.0, 0.0, 0.0, 0.0, 0.0, 1.6480861974806852E9, 0.0, 2022-03-23 20:43:17.480
44.0, 15.412127717398107, -9.218853390775621, 64.2140822391957, -128.52914177719504, -0.0800000037997961, 0.09600000455975533, 1.008000047877431, 0.0, 0.0, 0.0, 0.0, 0.0, 1.6480861974806852E9, 0.0, 2022-03-23 20:43:17.480
45.0, 15.625302014872432, -3.8894959539175034, 71.49566745292395, -116.56146191898733, -0.0800000037997961, 0.09600000455975533, 1.008000047877431, 0.0, 0.0, 0.0, 0.0, 0.0, 1.6480861974963937E9, 0.0, 2022-03-23 20:43:17.496
45.0, 12.809157348237932, -8.758845696225762, 59.52798759471625, -127.09302019421011, -0.0800000037997961, 0.09600000455975533, 1.008000047877431, 0.0, 0.0, 0.0, 0.0, 0.0, 1.6480861974963937E9, 0.0, 2022-03-23 20:43:17.496
46.0, 4.910488641820848, -15.393428217619658, 48.42048472631723, -126.70781049877405, -0.0800000037997961, 0.09600000455975533, 1.008000047877431, 0.0, 0.0, 0.0, 0.0, 0.0, 1.6480861974971285E9, 0.0, 2022-03-23 20:43:17.497
46.0, 7.543378210626543, -10.759692172519863, 52.26136198081076, -127.66896478738636, -0.0800000037997961, 0.09600000455975533, 1.008000047877431, 0.0, 0.0, 0.0, 0.0, 0.0, 1.6480861974971285E9, 0.0, 2022-03-23 20:43:17.497
47.0, 8.82242399547249, 2.9993997644633055, 47.18631774093956, -124.37785282637924, -0.0800000037997961, 0.09600000455975533, 1.008000047877431, 0.0, 0.0, 0.0, 0.0, 0.0, 1.6480861975107007E9, 0.0, 2022-03-23 20:43:17.510
47.0, -2.5917506692931056, -2.6852481681853533, 46.127926053479314, -125.23802981618792, -0.0800000037997961, 0.09600000455975533, 1.008000047877431, 0.0, 0.0, 0.0, 0.0, 0.0, 1.6480861975107007E9, 0.0, 2022-03-23 20:43:17.510
48.0, 12.349149653688073, 0.9761138884350657, 49.87904570903629, -117.1299267122522, -0.0800000037997961, 0.09600000455975533, 1.008000047877431, 0.0, 0.0, 0.0, 0.0, 0.0, 1.648086197526417E9, 0.0, 2022-03-23 20:43:17.526
48.0, -0.8152981903403997, -6.081077327951789, 34.25748359411955, -129.3556596674025, -0.0800000037997961, 0.09600000455975533, 1.008000047877431, 0.0, 0.0, 0.0, 0.0, 0.0, 1.648086197526417E9, 0.0, 2022-03-23 20:43:17.526
49.0, -13.31404384225607, -19.892527864314616, 8.893482094630599, -140.11909173987806, -0.0800000037997961, 0.09600000455975533, 1.008000047877431, 0.0, 0.0, 0.0, 0.0, 0.0, 1.6480861975271542E9, 0.0, 2022-03-23 20:43:17.527
49.0, 0.6694420920684934, -13.68055403791368, 25.69685259554535, -134.53168120607734, -0.0800000037997961, 0.09600000455975533, 1.008000047877431, 0.0, 0.0, 0.0, 0.0, 0.0, 1.6480861975271542E9, 0.0, 2022-03-23 20:43:17.527
50.0, -5.991319729015231, -24.870334705337882, 34.60155439004302, -133.6565446164459, -0.0800000037997961, 0.09600000455975533, 1.008000047877431, 0.0, 0.0, 0.0, 0.0, 0.0, 1.6480861975407588E9, 0.0, 2022-03-23 20:43:17.540
50.0, -13.145748344250023, -20.599368955940008, 37.35786065738648, -141.48789512366056, -0.0800000037997961, 0.09600000455975533, 1.008000047877431, 0.0, 0.0, 0.0, 0.0, 0.0, 1.6480861975407588E9, 0.0, 2022-03-23 20:43:17.540
51.0, -15.913274311460555, -27.74631777126342, 24.780577106401324, -139.08687935210764, -0.0800000037997961, 0.11200000531971455, 1.008000047877431, 0.0, 0.0, 0.0, 0.0, 0.0, 1.6480861975568025E9, 0.0, 2022-03-23 20:43:17.556
51.0, 2.1130434749647975, -27.910873369313776, 32.06964212004095, -132.11944573465735, -0.0800000037997961, 0.11200000531971455, 1.008000047877431, 0.0, 0.0, 0.0, 0.0, 0.0, 1.6480861975568025E9, 0.0, 2022-03-23 20:43:17.556
52.0, -17.816883388906717, -25.79782989434898, 22.17386683728546, -141.15504402760416, -0.0800000037997961, 0.11200000531971455, 1.008000047877431, 0.0, 0.0, 0.0, 0.0, 0.0, 1.6480861975713637E9, 0.0, 2022-03-23 20:43:17.571
52.0, -13.044771045446396, -18.658360878936946, 19.78033086564392, -137.72181586828083, -0.0800000037997961, 0.11200000531971455, 1.008000047877431, 0.0, 0.0, 0.0, 0.0, 0.0, 1.6480861975713637E9, 0.0, 2022-03-23 20:43:17.571
53.0, 0.39642939530313015, -15.341069618239999, 16.50417850445956, -138.26410136185586, -0.0800000037997961, 0.11200000531971455, 1.008000047877431, 0.0, 0.0, 0.0, 0.0, 0.0, 1.6480861975721264E9, 0.0, 2022-03-23 20:43:17.572
53.0, -15.535544415935874, -24.874074605293572, 21.601662144064903, -137.83401286695153, -0.0800000037997961, 0.11200000531971455, 1.008000047877431, 0.0, 0.0, 0.0, 0.0, 0.0, 1.6480861975721264E9, 0.0, 2022-03-23 20:43:17.572
54.0, -22.07288953848183, -21.35482874698937, 14.46967292856425, -145.68406287394464, -0.0800000037997961, 0.11200000531971455, 1.008000047877431, 0.0, 0.0, 0.0, 0.0, 0.0, 1.6480861975863802E9, 0.0, 2022-03-23 20:43:17.586
54.0, -7.042231616564095, -23.80446321796626, 23.112581726163626, -138.39125796034932, -0.0800000037997961, 0.11200000531971455, 1.008000047877431, 0.0, 0.0, 0.0, 0.0, 0.0, 1.6480861975863802E9, 0.0, 2022-03-23 20:43:17.586
55.0, -5.602370133623481, -26.867441281676292, 19.163247372955084, -138.70540955662727, -0.0800000037997961, 0.11200000531971455, 1.008000047877431, 0.0, 0.0, 0.0, 0.0, 0.0, 1.6480861975870795E9, 0.0, 2022-03-23 20:43:17.587
55.0, -2.045725275762379, -11.24587916675955, 29.096421655267477, -134.01557501219213, -0.0800000037997961, 0.11200000531971455, 1.008000047877431, 0.0, 0.0, 0.0, 0.0, 0.0, 1.6480861975870795E9, 0.0, 2022-03-23 20:43:17.587
56.0, 0.6694420920684934, -11.560030763037503, 27.865994569845498, -127.12293939385563, -0.0800000037997961, 0.11200000531971455, 1.008000047877431, 0.0, 0.0, 0.0, 0.0, 0.0, 1.648086197600711E9, 0.0, 2022-03-23 20:43:17.600
56.0, 17.431673693470657, 11.399215064942837, 46.64029234740883, -109.7174450000748, -0.0800000037997961, 0.11200000531971455, 1.008000047877431, 0.0, 0.0, 0.0, 0.0, 0.0, 1.648086197600711E9, 0.0, 2022-03-23 20:43:17.600
57.0, 13.142008444294333, 9.574143886566162, 48.469103425741196, -113.64060005359352, -0.0800000037997961, 0.11200000531971455, 1.008000047877431, 0.0, 0.0, 0.0, 0.0, 0.0, 1.6480861976164138E9, 0.0, 2022-03-23 20:43:17.616
57.0, 18.50502498075366, 16.380761805921793, 59.88327809050679, -114.48581744357944, -0.0800000037997961, 0.11200000531971455, 1.008000047877431, 0.0, 0.0, 0.0, 0.0, 0.0, 1.6480861976164138E9, 0.0, 2022-03-23 20:43:17.616
58.0, 24.08869561459869, 24.877814505249262, 45.701577458530664, -117.47773740813136, -0.0800000037997961, 0.11200000531971455, 1.008000047877431, 0.0, 0.0, 0.0, 0.0, 0.0, 1.6480861976170905E9, 0.0, 2022-03-23 20:43:17.617
58.0, 5.789365131407976, 17.37557519413531, 44.70302417036146, -119.25044998712838, -0.0800000037997961, 0.11200000531971455, 1.008000047877431, 0.0, 0.0, 0.0, 0.0, 0.0, 1.6480861976170905E9, 0.0, 2022-03-23 20:43:17.617
59.0, 6.4214082239195704, 11.844263159669936, 36.452804868109524, -130.33177355583757, -0.0800000037997961, 0.11200000531971455, 1.008000047877431, 0.0, 0.0, 0.0, 0.0, 0.0, 1.6480861976306956E9, 0.0, 2022-03-23 20:43:17.630
59.0, 23.71096571907401, 18.400307781994343, 54.25098875723779, -111.06754888407886, -0.0800000037997961, 0.11200000531971455, 1.008000047877431, 0.0, 0.0, 0.0, 0.0, 0.0, 1.6480861976306956E9, 0.0, 2022-03-23 20:43:17.630
60.0, 25.536036897450686, 25.34156209975481, 70.52329346444458, -102.88838768098503, -0.0800000037997961, 0.11200000531971455, 1.008000047877431, 0.0, 0.0, 0.0, 0.0, 0.0, 1.6480861976463592E9, 0.0, 2022-03-23 20:43:17.646
60.0, 21.69889954291284, 19.540977268479764, 71.05435925815254, -107.73529802355915, -0.0800000037997961, 0.11200000531971455, 1.008000047877431, 0.0, 0.0, 0.0, 0.0, 0.0, 1.6480861976463592E9, 0.0, 2022-03-23 20:43:17.646
61.0, 17.050203897990286, 16.373282006010413, 45.701577458530664, -108.63287401292473, -0.0800000037997961, 0.09600000455975533, 1.008000047877431, 0.0, 0.0, 0.0, 0.0, 0.0, 1.6480861976471252E9, 0.0, 2022-03-23 20:43:17.647
61.0, 10.46424007602036, 24.89651400502771, 41.87939970381558, -113.05717566050589, -0.0800000037997961, 0.09600000455975533, 1.008000047877431, 0.0, 0.0, 0.0, 0.0, 0.0, 1.6480861976471252E9, 0.0, 2022-03-23 20:43:17.647
62.0, 20.745225054211915, 31.39646012801677, 45.52580216061324, -113.07213526032865, -0.0800000037997961, 0.09600000455975533, 1.008000047877431, 0.0, 0.0, 0.0, 0.0, 0.0, 1.6480861976606812E9, 0.0, 2022-03-23 20:43:17.660
62.0, 3.1564755626022816, 11.088803368620574, 37.653312753885984, -128.94427067227662, -0.0800000037997961, 0.09600000455975533, 1.008000047877431, 0.0, 0.0, 0.0, 0.0, 0.0, 1.6480861976606812E9, 0.0, 2022-03-23 20:43:17.660
63.0, -3.2873720610514283, 2.5506117697805166, 23.224778724834323, -122.95669084321707, -0.0800000037997961, 0.09600000455975533, 1.008000047877431, 0.0, 0.0, 0.0, 0.0, 0.0, 1.6480861976763604E9, 0.0, 2022-03-23 20:43:17.676
63.0, 11.025225069373846, 5.071304339915514, 31.474998027086258, -128.53662157710642, -0.0800000037997961, 0.09600000455975533, 1.008000047877431, 0.0, 0.0, 0.0, 0.0, 0.0, 1.6480861976763604E9, 0.0, 2022-03-23 20:43:17.676
64.0, -0.18699499778449535, 9.346009989269078, 35.166279283352196, -124.95379741955549, -0.0800000037997961, 0.09600000455975533, 1.008000047877431, 0.0, 0.0, 0.0, 0.0, 0.0, 1.6480861976770988E9, 0.0, 2022-03-23 20:43:17.677
64.0, 14.858622523956, 9.181454391218722, 41.08280101325363, -123.54385513626039, -0.0800000037997961, 0.09600000455975533, 1.008000047877431, 0.0, 0.0, 0.0, 0.0, 0.0, 1.6480861976770988E9, 0.0, 2022-03-23 20:43:17.677
65.0, 19.406340870074928, 15.255051919259131, 57.15689102280885, -120.00216987822205, -0.0800000037997961, 0.09600000455975533, 1.008000047877431, 0.0, 0.0, 0.0, 0.0, 0.0, 1.6480861976906745E9, 0.0, 2022-03-23 20:43:17.690
65.0, 1.323924584314227, 15.28123121894896, 46.056867954321206, -121.9095188556239, -0.0800000037997961, 0.09600000455975533, 1.008000047877431, 0.0, 0.0, 0.0, 0.0, 0.0, 1.6480861976906745E9, 0.0, 2022-03-23 20:43:17.690
66.0, 16.623855303041637, 11.68344746157527, 45.16677176486701, -114.37362044490874, -0.0800000037997961, 0.09600000455975533, 1.008000047877431, 0.0, 0.0, 0.0, 0.0, 0.0, 1.6480861977063951E9, 0.0, 2022-03-23 20:43:17.706
66.0, 12.49126585200429, 11.724586361087859, 30.487664438784122, -120.51827607210726, -0.0800000037997961, 0.09600000455975533, 1.008000047877431, 0.0, 0.0, 0.0, 0.0, 0.0, 1.6480861977063951E9, 0.0, 2022-03-23 20:43:17.706
67.0, 4.121369751170278, 10.08651018049568, 31.878907222300768, -129.35191976744682, -0.0800000037997961, 0.09600000455975533, 1.008000047877431, 0.0, 0.0, 0.0, 0.0, 0.0, 1.6480861977071512E9, 0.0, 2022-03-23 20:43:17.707
67.0, 5.168541738763452, 15.27749131899327, 43.59601378347725, -119.37386668566614, -0.0800000037997961, 0.09600000455975533, 1.008000047877431, 0.0, 0.0, 0.0, 0.0, 0.0, 1.6480861977071512E9, 0.0, 2022-03-23 20:43:17.707
68.0, 13.729172737337649, 20.348795658908784, 37.279322758316994, -113.40124645642936, -0.0800000037997961, 0.09600000455975533, 1.008000047877431, 0.0, 0.0, 0.0, 0.0, 0.0, 1.6480861977207344E9, 0.0, 2022-03-23 20:43:17.720
68.0, 0.12715659849345684, 26.18677948974073, 25.266764100641012, -124.52744882460684, -0.0800000037997961, 0.09600000455975533, 1.008000047877431, 0.0, 0.0, 0.0, 0.0, 0.0, 1.6480861977207344E9, 0.0, 2022-03-23 20:43:17.720
69.0, -2.7937052669003606, 10.770911872386932, 17.061423597857356, -129.1013464704156, -0.0800000037997961, 0.09600000455975533, 1.008000047877431, 0.0, 0.0, 0.0, 0.0, 0.0, 1.6480861977361279E9, 0.0, 2022-03-23 20:43:17.736
69.0, 3.7286802558228374, 8.534451698884368, 31.112227731384337, -124.89021912030876, -0.0800000037997961, 0.09600000455975533, 1.008000047877431, 0.0, 0.0, 0.0, 0.0, 0.0, 1.6480861977361279E9, 0.0, 2022-03-23 20:43:17.736
70.0, -7.105809915810823, -4.8506502425298095, 19.855128864757717, -136.67464388068765, -0.0800000037997961, 0.09600000455975533, 1.008000047877431, 0.0, 0.0, 0.0, 0.0, 0.0, 1.6480861977514808E9, 0.0, 2022-03-23 20:43:17.751
70.0, -24.466425510123372, -5.942701029591262, 32.350134616717696, -137.68441686872393, -0.0800000037997961, 0.09600000455975533, 1.008000047877431, 0.0, 0.0, 0.0, 0.0, 0.0, 1.6480861977514808E9, 0.0, 2022-03-23 20:43:17.751
71.0, 8.564370898529887, 12.266871854662895, 45.623039559461176, -120.44347807299346, -0.0800000037997961, 0.0800000037997961, 1.008000047877431, 0.0, 0.0, 0.0, 0.0, 0.0, 1.6480861977521007E9, 0.0, 2022-03-23 20:43:17.752
71.0, 6.997352817095816, 5.4116352358832955, 46.20272405259311, -116.49414371978492, -0.0800000037997961, 0.0800000037997961, 1.008000047877431, 0.0, 0.0, 0.0, 0.0, 0.0, 1.6480861977521007E9, 0.0, 2022-03-23 20:43:17.752
72.0, 0.5946440929546952, 9.940654082223773, 45.237829864025116, -121.59536725934595, -0.0800000037997961, 0.0800000037997961, 1.008000047877431, 0.0, 0.0, 0.0, 0.0, 0.0, 1.6480861977664196E9, 0.0, 2022-03-23 20:43:17.766
72.0, -8.504532499238849, 12.364109253510833, 36.11247397214174, -117.67595210578293, -0.0800000037997961, 0.0800000037997961, 1.008000047877431, 0.0, 0.0, 0.0, 0.0, 0.0, 1.6480861977664196E9, 0.0, 2022-03-23 20:43:17.766
73.0, 6.223193526268005, 19.548457068391144, 24.687079607509077, -124.89769892022014, -0.0800000037997961, 0.0800000037997961, 1.008000047877431, 0.0, 0.0, 0.0, 0.0, 0.0, 1.6480861977671185E9, 0.0, 2022-03-23 20:43:17.767
73.0, 11.309457466006279, 17.921600587666035, 35.603847578167915, -118.46881089638919, -0.0800000037997961, 0.0800000037997961, 1.008000047877431, 0.0, 0.0, 0.0, 0.0, 0.0, 1.6480861977671185E9, 0.0, 2022-03-23 20:43:17.767
74.0, 6.066117728129029, 10.209926879033446, 37.234443958848715, -112.55228916648775, -0.0800000037997961, 0.0800000037997961, 1.008000047877431, 0.0, 0.0, 0.0, 0.0, 0.0, 1.6480861977807257E9, 0.0, 2022-03-23 20:43:17.780
74.0, 9.368449389003217, 11.107502868399024, 41.3894728096202, -115.41331263259053, -0.0800000037997961, 0.0800000037997961, 1.008000047877431, 0.0, 0.0, 0.0, 0.0, 0.0, 1.6480861977807257E9, 0.0, 2022-03-23 20:43:17.780
75.0, 11.137422068044543, 9.985532881692052, 41.8719199039042, -118.15465930011123, -0.0800000037997961, 0.0800000037997961, 1.008000047877431, 0.0, 0.0, 0.0, 0.0, 0.0, 1.64808619779645E9, 0.0, 2022-03-23 20:43:17.796
75.0, 8.04452480468899, 20.042123862542212, 31.164586330763996, -118.80166199244559, -0.0800000037997961, 0.0800000037997961, 1.008000047877431, 0.0, 0.0, 0.0, 0.0, 0.0, 1.64808619779645E9, 0.0, 2022-03-23 20:43:17.796
76.0, 1.8811696777120233, 15.946933411061764, 30.315629040822387, -118.65206599421799, -0.0800000037997961, 0.0800000037997961, 1.008000047877431, 0.0, 0.0, 0.0, 0.0, 0.0, 1.648086197797164E9, 0.0, 2022-03-23 20:43:17.797
76.0, 0.9499345887452364, 3.6351827569305897, 34.73619078844786, -119.0933741889894, -0.0800000037997961, 0.0800000037997961, 1.008000047877431, 0.0, 0.0, 0.0, 0.0, 0.0, 1.648086197797164E9, 0.0, 2022-03-23 20:43:17.797
77.0, -13.616975738666952, -11.578730262815952, 35.75344357639551, -135.27966119721532, -0.0800000037997961, 0.0800000037997961, 1.008000047877431, 0.0, 0.0, 0.0, 0.0, 0.0, 1.6480861978107567E9, 0.0, 2022-03-23 20:43:17.810
77.0, -7.876229306682944, -1.451081182807684, 15.872135411947966, -129.19110406935215, -0.0800000037997961, 0.0800000037997961, 1.008000047877431, 0.0, 0.0, 0.0, 0.0, 0.0, 1.6480861978107567E9, 0.0, 2022-03-23 20:43:17.810
78.0, 16.425640605390072, 17.970219287090003, 9.607802986167371, -114.22028454672545, -0.0800000037997961, 0.0800000037997961, 1.008000047877431, 0.0, 0.0, 0.0, 0.0, 0.0, 1.6480861978263829E9, 0.0, 2022-03-23 20:43:17.826
78.0, 8.762585596181452, 8.42599460016936, 30.670919536612928, -118.56604829523712, -0.0800000037997961, 0.0800000037997961, 1.008000047877431, 0.0, 0.0, 0.0, 0.0, 0.0, 1.6480861978263829E9, 0.0, 2022-03-23 20:43:17.826
79.0, -2.939561365172267, 13.886248535476625, 34.55293569061905, -118.9063791912049, -0.0800000037997961, 0.0800000037997961, 1.008000047877431, 0.0, 0.0, 0.0, 0.0, 0.0, 1.6480861978271265E9, 0.0, 2022-03-23 20:43:17.827
79.0, 2.9881800645962358, 11.956460158340633, 32.70168521255255, -125.09217371791601, -0.0800000037997961, 0.0800000037997961, 1.008000047877431, 0.0, 0.0, 0.0, 0.0, 0.0, 1.6480861978271265E9, 0.0, 2022-03-23 20:43:17.827
80.0, 2.80866486672312, -0.06731819920241833, 29.997737544588745, -126.1318659055978, -0.0800000037997961, 0.0800000037997961, 0.9920000471174717, 0.0, 0.0, 0.0, 0.0, 0.0, 1.6480861978407717E9, 0.0, 2022-03-23 20:43:17.840
80.0, -4.9291881415992975, -2.9582608649507165, 39.680338529869914, -120.1704653762281, -0.0800000037997961, 0.0800000037997961, 0.9920000471174717, 0.0, 0.0, 0.0, 0.0, 0.0, 1.6480861978407717E9, 0.0, 2022-03-23 20:43:17.840
81.0, 8.111843003891408, 18.430226981639862, 44.1682184766978, -110.40558659192175, -0.0800000037997961, 0.09600000455975533, 0.9920000471174717, 0.0, 0.0, 0.0, 0.0, 0.0, 1.648086197856356E9, 0.0, 2022-03-23 20:43:17.856
81.0, 7.176868014968932, 13.25794534292072, 20.57692955620587, -119.92363197915256, -0.0800000037997961, 0.09600000455975533, 0.9920000471174717, 0.0, 0.0, 0.0, 0.0, 0.0, 1.648086197856356E9, 0.0, 2022-03-23 20:43:17.856
82.0, -7.782731807790697, 6.312951125204563, 28.726171559654176, -129.40427836682647, -0.0800000037997961, 0.09600000455975533, 0.9920000471174717, 0.0, 0.0, 0.0, 0.0, 0.0, 1.6480861978571002E9, 0.0, 2022-03-23 20:43:17.857
82.0, 4.858130042441189, 8.4858329994604, 33.06445550825447, -126.36373970285058, -0.0800000037997961, 0.09600000455975533, 0.9920000471174717, 0.0, 0.0, 0.0, 0.0, 0.0, 1.6480861978571002E9, 0.0, 2022-03-23 20:43:17.857
83.0, 9.121615991927683, 13.759091936983168, 36.52760286722332, -118.42019219696522, -0.0800000037997961, 0.09600000455975533, 0.9920000471174717, 0.0, 0.0, 0.0, 0.0, 0.0, 1.6480861978706768E9, 0.0, 2022-03-23 20:43:17.870
83.0, 7.591996910050511, 9.544224686920643, 39.71025772951543, -115.07298173662275, -0.0800000037997961, 0.09600000455975533, 0.9920000471174717, 0.0, 0.0, 0.0, 0.0, 0.0, 1.6480861978706768E9, 0.0, 2022-03-23 20:43:17.870
84.0, 9.24503269046545, 11.556290863081813, 55.02140814810991, -111.20966508239508, -0.0800000037997961, 0.09600000455975533, 0.9920000471174717, 0.0, 0.0, 0.0, 0.0, 0.0, 1.6480861978863184E9, 0.0, 2022-03-23 20:43:17.886
84.0, 7.419961512088776, -4.547718346118927, 53.99293566029519, -112.19699867069721, -0.0800000037997961, 0.09600000455975533, 0.9920000471174717, 0.0, 0.0, 0.0, 0.0, 0.0, 1.6480861978863184E9, 0.0, 2022-03-23 20:43:17.886
85.0, 12.610942650586367, 9.68634088523686, 47.37705263867974, -110.79079628735781, -0.0800000037997961, 0.09600000455975533, 0.9920000471174717, 0.0, 0.0, 0.0, 0.0, 0.0, 1.6480861978871365E9, 0.0, 2022-03-23 20:43:17.887
85.0, 6.83653711900115, 9.892035382799804, 30.487664438784122, -122.35082705039531, -0.0800000037997961, 0.09600000455975533, 0.9920000471174717, 0.0, 0.0, 0.0, 0.0, 0.0, 1.6480861978871365E9, 0.0, 2022-03-23 20:43:17.887
86.0, -5.901562130078673, -3.2761523611843586, 6.567264322191477, -133.81736031454057, -0.0800000037997961, 0.09600000455975533, 0.9920000471174717, 0.0, 0.0, 0.0, 0.0, 0.0, 1.6480861979007437E9, 0.0, 2022-03-23 20:43:17.900
86.0, 1.9821469765156507, 12.48004615213722, 16.84450940042734, -126.05706790648401, -0.0800000037997961, 0.09600000455975533, 0.9920000471174717, 0.0, 0.0, 0.0, 0.0, 0.0, 1.6480861979007437E9, 0.0, 2022-03-23 20:43:17.900
87.0, -10.09025008045137, 3.8483570544049144, 11.103762968443334, -132.12692553456873, -0.0800000037997961, 0.09600000455975533, 0.9920000471174717, 0.0, 0.0, 0.0, 0.0, 0.0, 1.6480861979163554E9, 0.0, 2022-03-23 20:43:17.916
87.0, -7.752812608145177, 7.315244313329458, 5.879122730344534, -129.23598286882043, -0.0800000037997961, 0.09600000455975533, 0.9920000471174717, 0.0, 0.0, 0.0, 0.0, 0.0, 1.6480861979163554E9, 0.0, 2022-03-23 20:43:17.916
88.0, 3.747379755601287, 12.663301249966025, 3.3696498600766063, -129.30330106802285, -0.0800000037997961, 0.09600000455975533, 0.9920000471174717, 0.0, 0.0, 0.0, 0.0, 0.0, 1.648086197917168E9, 0.0, 2022-03-23 20:43:17.917
88.0, -8.504532499238849, 10.808310871943831, -5.467733735218644, -136.07625988777727, -0.0800000037997961, 0.09600000455975533, 0.9920000471174717, 0.0, 0.0, 0.0, 0.0, 0.0, 1.648086197917168E9, 0.0, 2022-03-23 20:43:17.917
89.0, -5.789365131407976, 21.459545945748687, -2.00458637624979, -127.65026528760791, -0.0800000037997961, 0.09600000455975533, 0.9920000471174717, 0.0, 0.0, 0.0, 0.0, 0.0, 1.6480861979307525E9, 0.0, 2022-03-23 20:43:17.930
89.0, 5.995059628970921, 31.557275826111436, 13.530958039686084, -115.35721413325518, -0.0800000037997961, 0.09600000455975533, 0.9920000471174717, 0.0, 0.0, 0.0, 0.0, 0.0, 1.6480861979307525E9, 0.0, 2022-03-23 20:43:17.930
90.0, 1.3875028835609555, 24.61976140830666, 7.281585213728249, -123.51767583657056, -0.0800000037997961, 0.09600000455975533, 1.008000047877431, 0.0, 0.0, 0.0, 0.0, 0.0, 1.6480861979463816E9, 0.0, 2022-03-23 20:43:17.946
90.0, 9.64894188567996, 30.25579064153135, 26.52337048575282, -120.86608676798642, -0.0800000037997961, 0.09600000455975533, 1.008000047877431, 0.0, 0.0, 0.0, 0.0, 0.0, 1.6480861979463816E9, 0.0, 2022-03-23 20:43:17.946
91.0, 3.1228164630010724, 25.090988802723587, 17.69346669036895, -111.32560198102146, -0.0800000037997961, 0.0800000037997961, 1.008000047877431, 0.0, 0.0, 0.0, 0.0, 0.0, 1.6480861979471493E9, 0.0, 2022-03-23 20:43:17.947
91.0, 15.965632910840213, 25.831488993950188, 20.90230085235089, -107.28651002887636, -0.0800000037997961, 0.0800000037997961, 1.008000047877431, 0.0, 0.0, 0.0, 0.0, 0.0, 1.6480861979471493E9, 0.0, 2022-03-23 20:43:17.947
92.0, -1.0733512872830033, 14.002185434103012, 9.23381299059838, -126.34504020307213, -0.0800000037997961, 0.0800000037997961, 1.008000047877431, 0.0, 0.0, 0.0, 0.0, 0.0, 1.6480861979607196E9, 0.0, 2022-03-23 20:43:17.960
92.0, 5.606110033579171, 27.162893378175795, 11.574990362860262, -118.3154749982059, -0.0800000037997961, 0.0800000037997961, 1.008000047877431, 0.0, 0.0, 0.0, 0.0, 0.0, 1.6480861979607196E9, 0.0, 2022-03-23 20:43:17.960
93.0, 17.420453993603587, 30.880353934131563, 18.84909577667713, -111.68837227672338, -0.0800000037997961, 0.0800000037997961, 1.008000047877431, 0.0, 0.0, 0.0, 0.0, 0.0, 1.648086197976356E9, 0.0, 2022-03-23 20:43:17.976
93.0, -4.7272335439920425, 30.472704838961363, 29.601308149285614, -106.39641383942217, -0.0800000037997961, 0.0800000037997961, 1.008000047877431, 0.0, 0.0, 0.0, 0.0, 0.0, 1.648086197976356E9, 0.0, 2022-03-23 20:43:17.976
94.0, 10.370742577128112, 37.39899955689907, 37.32794145774096, -109.41077320370823, -0.0800000037997961, 0.0800000037997961, 1.008000047877431, 0.0, 0.0, 0.0, 0.0, 0.0, 1.6480861979770677E9, 0.0, 2022-03-23 20:43:17.977
94.0, 23.093882226385176, 44.36643317434937, 41.46801070868969, -94.80646387673914, -0.0800000037997961, 0.0800000037997961, 1.008000047877431, 0.0, 0.0, 0.0, 0.0, 0.0, 1.6480861979770677E9, 0.0, 2022-03-23 20:43:17.977
95.0, 9.764878784306347, 37.29428235813975, 22.6039553321898, -100.72298560664058, -0.0800000037997961, 0.0800000037997961, 1.008000047877431, 0.0, 0.0, 0.0, 0.0, 0.0, 1.6480861979907117E9, 0.0, 2022-03-23 20:43:17.990
95.0, -3.021839164197445, 21.30247014760971, 3.9343747533857822, -124.27313562761992, -0.0800000037997961, 0.0800000037997961, 1.008000047877431, 0.0, 0.0, 0.0, 0.0, 0.0, 1.6480861979907117E9, 0.0, 2022-03-23 20:43:17.990
96.0, 9.327310489490628, 17.902901087887585, 12.300530954264104, -121.93569815531373, -0.0800000037997961, 0.0800000037997961, 1.008000047877431, 0.0, 0.0, 0.0, 0.0, 0.0, 1.6480861980063593E9, 0.0, 2022-03-23 20:43:18.006
96.0, -4.42430164758116, 1.163108886219561, -8.534451698884368, -126.27024220395833, -0.0800000037997961, 0.0800000037997961, 1.008000047877431, 0.0, 0.0, 0.0, 0.0, 0.0, 1.6480861980063593E9, 0.0, 2022-03-23 20:43:18.006
97.0, -5.097483639605343, 5.658468632958829, -2.7937052669003606, -129.22476316895336, -0.0800000037997961, 0.0800000037997961, 1.008000047877431, 0.0, 0.0, 0.0, 0.0, 0.0, 1.648086198007135E9, 0.0, 2022-03-23 20:43:18.007
97.0, -9.192674091085792, 13.31404384225607, -11.66848786175251, -128.30474777985364, -0.0800000037997961, 0.0800000037997961, 1.008000047877431, 0.0, 0.0, 0.0, 0.0, 0.0, 1.648086198007135E9, 0.0, 2022-03-23 20:43:18.007
98.0, -15.169034220278263, -2.2850788729265332, -20.12814156152308, -137.82653306704015, -0.0800000037997961, 0.0800000037997961, 1.008000047877431, 0.0, 0.0, 0.0, 0.0, 0.0, 1.648086198020645E9, 0.0, 2022-03-23 20:43:18.020
98.0, -7.771512107923627, 8.392335500568151, -11.167341267690063, -130.53746805340052, -0.0800000037997961, 0.0800000037997961, 1.008000047877431, 0.0, 0.0, 0.0, 0.0, 0.0, 1.648086198020645E9, 0.0, 2022-03-23 20:43:18.020
99.0, -10.116429380141199, 22.862008429132402, -7.412481712177396, -126.84618679713458, -0.0800000037997961, 0.0800000037997961, 1.008000047877431, 0.0, 0.0, 0.0, 0.0, 0.0, 1.6480861980363317E9, 0.0, 2022-03-23 20:43:18.036
99.0, 9.013158893212676, 20.431073457933962, 10.49415927566588, -115.58534803055227, -0.0800000037997961, 0.0800000037997961, 1.008000047877431, 0.0, 0.0, 0.0, 0.0, 0.0, 1.6480861980363317E9, 0.0, 2022-03-23 20:43:18.036
100.0, 10.647495173849165, 28.808449358679354, 19.922447063960135, -112.6831856649369, -0.0800000037997961, 0.0800000037997961, 1.008000047877431, 0.0, 0.0, 0.0, 0.0, 0.0, 1.6480861980370889E9, 0.0, 2022-03-23 20:43:18.037
100.0, 2.8759830659255385, 36.852974163368344, 15.565463615581393, -118.0910810008645, -0.0800000037997961, 0.0800000037997961, 1.008000047877431, 0.0, 0.0, 0.0, 0.0, 0.0, 1.6480861980370889E9, 0.0, 2022-03-23 20:43:18.037
0.0, 923.4243079093285, 633.6362898927182, 1659.8816672838293, 861.4111567940563, -0.0800000037997961, 0.0800000037997961, 1.008000047877431, 0.0, 0.0, 0.0, 0.0, 0.0, 1.6480861980514488E9, 0.0, 2022-03-23 20:43:18.051
1.0, 929.0790366423316, 629.6383368400857, 1659.3618211899884, 867.8924034172669, -0.0800000037997961, 0.09600000455975533, 1.008000047877431, 0.0, 0.0, 0.0, 0.0, 0.0, 1.6480861980520515E9, 0.0, 2022-03-23 20:43:18.052
1.0, 922.2649389230646, 628.6285638520494, 1665.6897319150157, 862.9819147754461, -0.0800000037997961, 0.09600000455975533, 1.008000047877431, 0.0, 0.0, 0.0, 0.0, 0.0, 1.6480861980520515E9, 0.0, 2022-03-23 20:43:18.052
2.0, 917.9827534737997, 627.282199868001, 1657.5479697114788, 856.2313953554258, -0.0800000037997961, 0.09600000455975533, 1.008000047877431, 0.0, 0.0, 0.0, 0.0, 0.0, 1.648086198065678E9, 0.0, 2022-03-23 20:43:18.065
2.0, 923.2485326114111, 624.316459203139, 1649.3426292086951, 861.6879093907773, -0.0800000037997961, 0.09600000455975533, 1.008000047877431, 0.0, 0.0, 0.0, 0.0, 0.0, 1.648086198065678E9, 0.0, 2022-03-23 20:43:18.065
3.0, 906.9949274039827, 610.542407666333, 1649.3987277080305, 853.1497177919373, -0.0800000037997961, 0.09600000455975533, 1.008000047877431, 0.0, 0.0, 0.0, 0.0, 0.0, 1.648086198081076E9, 0.0, 2022-03-23 20:43:18.081
3.0, 902.0059008630924, 595.8819998400286, 1632.5168193080463, 840.6808913396671, -0.0800000037997961, 0.09600000455975533, 1.008000047877431, 0.0, 0.0, 0.0, 0.0, 0.0, 1.648086198081076E9, 0.0, 2022-03-23 20:43:18.081
4.0, 912.9226688337512, 615.7633080044761, 1648.9686392131262, 849.570633534342, -0.0800000037997961, 0.09600000455975533, 1.008000047877431, 0.0, 0.0, 0.0, 0.0, 0.0, 1.6480861980963387E9, 0.0, 2022-03-23 20:43:18.096
4.0, 908.1355968904682, 620.1539505524561, 1649.2042529103346, 851.9492099061608, -0.0800000037997961, 0.09600000455975533, 1.008000047877431, 0.0, 0.0, 0.0, 0.0, 0.0, 1.6480861980963387E9, 0.0, 2022-03-23 20:43:18.096
5.0, 914.6056238138117, 626.4444622779265, 1656.0968885286711, 850.7711414201185, -0.0800000037997961, 0.09600000455975533, 1.008000047877431, 0.0, 0.0, 0.0, 0.0, 0.0, 1.6480861980970745E9, 0.0, 2022-03-23 20:43:18.097
5.0, 914.0633383202367, 632.432042106986, 1668.6367730800994, 859.1223380211741, -0.0800000037997961, 0.09600000455975533, 1.008000047877431, 0.0, 0.0, 0.0, 0.0, 0.0, 1.6480861980970745E9, 0.0, 2022-03-23 20:43:18.097
6.0, 925.6906872824766, 622.928956319578, 1665.506476817187, 864.7134884549305, -0.0800000037997961, 0.09600000455975533, 1.008000047877431, 0.0, 0.0, 0.0, 0.0, 0.0, 1.648086198111364E9, 0.0, 2022-03-23 20:43:18.111
6.0, 912.6384364371188, 611.5634003542364, 1653.0638296646066, 851.4031845126301, -0.0800000037997961, 0.09600000455975533, 1.008000047877431, 0.0, 0.0, 0.0, 0.0, 0.0, 1.648086198111364E9, 0.0, 2022-03-23 20:43:18.111
7.0, 906.5910182087682, 611.1894103586674, 1654.9262998425402, 852.3194600017741, -0.0800000037997961, 0.09600000455975533, 1.008000047877431, 0.0, 0.0, 0.0, 0.0, 0.0, 1.6480861981120903E9, 0.0, 2022-03-23 20:43:18.112
7.0, 916.2324802945368, 612.1094257477671, 1643.6542413760908, 851.6874169092625, -0.0800000037997961, 0.09600000455975533, 1.008000047877431, 0.0, 0.0, 0.0, 0.0, 0.0, 1.6480861981120903E9, 0.0, 2022-03-23 20:43:18.112
8.0, 909.4071628754027, 614.6151587180793, 1646.1936334460042, 846.2383826738223, -0.0800000037997961, 0.09600000455975533, 1.008000047877431, 0.0, 0.0, 0.0, 0.0, 0.0, 1.6480861981256385E9, 0.0, 2022-03-23 20:43:18.125
8.0, 904.4368358342908, 614.1514111235738, 1642.5995895885862, 854.2978670783341, -0.0800000037997961, 0.09600000455975533, 1.008000047877431, 0.0, 0.0, 0.0, 0.0, 0.0, 1.6480861981256385E9, 0.0, 2022-03-23 20:43:18.125
9.0, 914.3513106168248, 614.3309263214469, 1658.7933563967235, 850.2176362266764, -0.0800000037997961, 0.09600000455975533, 1.008000047877431, 0.0, 0.0, 0.0, 0.0, 0.0, 1.648086198141366E9, 0.0, 2022-03-23 20:43:18.141
9.0, 914.1044772197492, 615.6361514059827, 1649.3650686084293, 848.0971129518002, -0.0800000037997961, 0.09600000455975533, 1.008000047877431, 0.0, 0.0, 0.0, 0.0, 0.0, 1.648086198141366E9, 0.0, 2022-03-23 20:43:18.141
10.0, 912.5598985380493, 610.7368824640289, 1651.960559177678, 852.7046696972102, -0.0800000037997961, 0.09600000455975533, 1.008000047877431, 0.0, 0.0, 0.0, 0.0, 0.0, 1.648086198142084E9, 0.0, 2022-03-23 20:43:18.142
10.0, 907.5633921972476, 612.9434234378859, 1645.1502013583668, 847.0237616645172, -0.0800000037997961, 0.09600000455975533, 1.008000047877431, 0.0, 0.0, 0.0, 0.0, 0.0, 1.648086198142084E9, 0.0, 2022-03-23 20:43:18.142
11.0, 907.5746118971147, 611.4063245560974, 1654.1371809518896, 852.9589828941971, -0.0800000037997961, 0.09600000455975533, 1.008000047877431, 0.0, 0.0, 0.0, 0.0, 0.0, 1.6480861981556425E9, 0.0, 2022-03-23 20:43:18.155
11.0, 892.3569589774124, 596.9590910272673, 1636.7466461579315, 832.8345812326297, -0.0800000037997961, 0.09600000455975533, 1.008000047877431, 0.0, 0.0, 0.0, 0.0, 0.0, 1.6480861981556425E9, 0.0, 2022-03-23 20:43:18.155
12.0, 899.0252005984075, 607.3971518035978, 1626.5329793789424, 841.8290406260639, -0.0800000037997961, 0.09600000455975533, 1.008000047877431, 0.0, 0.0, 0.0, 0.0, 0.0, 1.6480861981714177E9, 0.0, 2022-03-23 20:43:18.171
12.0, 900.4388827816583, 602.2099105650559, 1629.0761113488115, 839.5290021533147, -0.0800000037997961, 0.09600000455975533, 1.008000047877431, 0.0, 0.0, 0.0, 0.0, 0.0, 1.6480861981714177E9, 0.0, 2022-03-23 20:43:18.171
13.0, 894.062353357207, 597.9352049157023, 1629.3566038454883, 839.9067320488393, -0.0800000037997961, 0.09600000455975533, 1.008000047877431, 0.0, 0.0, 0.0, 0.0, 0.0, 1.6480861981721196E9, 0.0, 2022-03-23 20:43:18.172
13.0, 893.6060855626129, 593.5782214673236, 1633.2610593992285, 838.7660625623539, -0.0800000037997961, 0.09600000455975533, 1.008000047877431, 0.0, 0.0, 0.0, 0.0, 0.0, 1.6480861981721196E9, 0.0, 2022-03-23 20:43:18.172
14.0, 899.6198446913622, 604.4538505384699, 1649.0135180125944, 849.2190829385072, -0.0800000037997961, 0.09600000455975533, 1.008000047877431, 0.0, 0.0, 0.0, 0.0, 0.0, 1.6480861981856215E9, 0.0, 2022-03-23 20:43:18.185
14.0, 897.3011067188345, 605.2429694291204, 1632.6925946059637, 843.4484173068777, -0.0800000037997961, 0.09600000455975533, 1.008000047877431, 0.0, 0.0, 0.0, 0.0, 0.0, 1.6480861981856215E9, 0.0, 2022-03-23 20:43:18.185
15.0, 901.5346734686755, 609.0913264835253, 1646.8555957381614, 846.339359972626, -0.0800000037997961, 0.09600000455975533, 1.008000047877431, 0.0, 0.0, 0.0, 0.0, 0.0, 1.648086198201383E9, 0.0, 2022-03-23 20:43:18.201
15.0, 905.375550723169, 607.0530810076743, 1653.4789585596882, 853.8303795838729, -0.0800000037997961, 0.09600000455975533, 1.008000047877431, 0.0, 0.0, 0.0, 0.0, 0.0, 1.648086198201383E9, 0.0, 2022-03-23 20:43:18.201
16.0, 897.3459855183028, 609.7121498761699, 1637.259012451861, 846.9564434653148, -0.0800000037997961, 0.09600000455975533, 1.008000047877431, 0.0, 0.0, 0.0, 0.0, 0.0, 1.648086198202119E9, 0.0, 2022-03-23 20:43:18.202
16.0, 899.7993598892353, 611.024854760617, 1646.9640528368764, 850.584146422334, -0.0800000037997961, 0.09600000455975533, 1.008000047877431, 0.0, 0.0, 0.0, 0.0, 0.0, 1.648086198202119E9, 0.0, 2022-03-23 20:43:18.202
17.0, 902.312572659459, 607.165278006345, 1644.4545799666084, 849.342499637045, -0.0800000037997961, 0.09600000455975533, 1.008000047877431, 0.0, 0.0, 0.0, 0.0, 0.0, 1.6480861982156105E9, 0.0, 2022-03-23 20:43:18.215
17.0, 898.621291403193, 604.9175981329754, 1626.6414364776574, 846.3879786720499, -0.0800000037997961, 0.09600000455975533, 1.008000047877431, 0.0, 0.0, 0.0, 0.0, 0.0, 1.6480861982156105E9, 0.0, 2022-03-23 20:43:18.215
18.0, 892.8169666719623, 592.0224230857566, 1627.875603463035, 844.4432306950912, -0.0800000037997961, 0.09600000455975533, 1.008000047877431, 0.0, 0.0, 0.0, 0.0, 0.0, 1.6480861982314105E9, 0.0, 2022-03-23 20:43:18.231
18.0, 891.0517338928767, 587.3213688414544, 1625.4745876914822, 835.508609700948, -0.0800000037997961, 0.09600000455975533, 1.008000047877431, 0.0, 0.0, 0.0, 0.0, 0.0, 1.6480861982314105E9, 0.0, 2022-03-23 20:43:18.231
19.0, 890.3261933014728, 599.5807608962059, 1626.357204081025, 838.9904565596953, -0.0800000037997961, 0.09600000455975533, 1.008000047877431, 0.0, 0.0, 0.0, 0.0, 0.0, 1.648086198232134E9, 0.0, 2022-03-23 20:43:18.232
19.0, 903.0904718502425, 587.3176289414987, 1629.0761113488115, 846.7507489677519, -0.0800000037997961, 0.09600000455975533, 1.008000047877431, 0.0, 0.0, 0.0, 0.0, 0.0, 1.648086198232134E9, 0.0, 2022-03-23 20:43:18.232
20.0, 916.1240231958218, 599.2628693999723, 1633.870663092006, 854.5222610756755, -0.0800000037997961, 0.09600000455975533, 1.008000047877431, 0.0, 0.0, 0.0, 0.0, 0.0, 1.648086198245662E9, 0.0, 2022-03-23 20:43:18.245
20.0, 903.5616992446594, 605.2878482285887, 1640.9241144084372, 852.1025458043441, -0.0800000037997961, 0.09600000455975533, 1.008000047877431, 0.0, 0.0, 0.0, 0.0, 0.0, 1.648086198245662E9, 0.0, 2022-03-23 20:43:18.245
21.0, 914.9384749098681, 607.7038235999644, 1655.580782334786, 862.7949197776616, -0.0800000037997961, 0.09600000455975533, 1.008000047877431, 0.0, 0.0, 0.0, 0.0, 0.0, 1.648086198261341E9, 0.0, 2022-03-23 20:43:18.261
21.0, 907.256720400881, 601.4918497735634, 1635.6994741703384, 851.4705027118325, -0.0800000037997961, 0.09600000455975533, 1.008000047877431, 0.0, 0.0, 0.0, 0.0, 0.0, 1.648086198261341E9, 0.0, 2022-03-23 20:43:18.261
22.0, 906.0711721149273, 605.1532118301839, 1630.7403668290935, 856.3435923540965, -0.06400000303983688, 0.09600000455975533, 1.008000047877431, 0.0, 0.0, 0.0, 0.0, 0.0, 1.6480861982621384E9, 0.0, 2022-03-23 20:43:18.262
22.0, 912.8590905345045, 596.3943661339581, 1642.9174810848199, 861.523353792727, -0.06400000303983688, 0.09600000455975533, 1.008000047877431, 0.0, 0.0, 0.0, 0.0, 0.0, 1.6480861982621384E9, 0.0, 2022-03-23 20:43:18.262
23.0, 911.2359739537351, 596.8805531281978, 1634.6410824828781, 851.9753892058507, -0.06400000303983688, 0.09600000455975533, 1.008000047877431, 0.0, 0.0, 0.0, 0.0, 0.0, 1.6480861982756157E9, 0.0, 2022-03-23 20:43:18.275
23.0, 901.4823148692958, 592.9050394752994, 1625.78873928776, 847.9288174537942, -0.06400000303983688, 0.09600000455975533, 1.008000047877431, 0.0, 0.0, 0.0, 0.0, 0.0, 1.6480861982756157E9, 0.0, 2022-03-23 20:43:18.275
24.0, 900.6109181796201, 581.2664708131924, 1622.5761652258225, 845.6250390810892, -0.06400000303983688, 0.09600000455975533, 1.008000047877431, 0.0, 0.0, 0.0, 0.0, 0.0, 1.648086198307898E9, 0.0, 2022-03-23 20:43:18.307
24.0, 900.4276630817913, 592.7479636771604, 1620.8146723466925, 851.6799371093512, -0.06400000303983688, 0.09600000455975533, 1.008000047877431, 0.0, 0.0, 0.0, 0.0, 0.0, 1.648086198307898E9, 0.0, 2022-03-23 20:43:18.307
25.0, 899.7096022902988, 589.4680714160204, 1630.3514172337018, 857.5927189392969, -0.06400000303983688, 0.09600000455975533, 1.008000047877431, 0.0, 0.0, 0.0, 0.0, 0.0, 1.648086198308478E9, 0.0, 2022-03-23 20:43:18.308
25.0, 913.8763433224522, 590.9116727989167, 1637.5806438480504, 860.2256085081026, -0.06400000303983688, 0.09600000455975533, 1.008000047877431, 0.0, 0.0, 0.0, 0.0, 0.0, 1.648086198308478E9, 0.0, 2022-03-23 20:43:18.308
26.0, 927.1305487654172, 599.0384754026309, 1640.2097935169004, 864.4442156581208, -0.06400000303983688, 0.09600000455975533, 1.008000047877431, 0.0, 0.0, 0.0, 0.0, 0.0, 1.6480861983092637E9, 0.0, 2022-03-23 20:43:18.309
26.0, 915.132949707564, 615.0976058123633, 1650.8460689908825, 861.9160432880744, -0.06400000303983688, 0.09600000455975533, 1.008000047877431, 0.0, 0.0, 0.0, 0.0, 0.0, 1.6480861983092637E9, 0.0, 2022-03-23 20:43:18.309
27.0, 905.424169422593, 603.5861937487498, 1650.4458996956237, 855.8162664603442, -0.06400000303983688, 0.09600000455975533, 1.008000047877431, 0.0, 0.0, 0.0, 0.0, 0.0, 1.6480861983100407E9, 0.0, 2022-03-23 20:43:18.310
27.0, 905.8654776173644, 590.7471172008663, 1642.0647838949226, 854.2716877786443, -0.06400000303983688, 0.09600000455975533, 1.008000047877431, 0.0, 0.0, 0.0, 0.0, 0.0, 1.6480861983100407E9, 0.0, 2022-03-23 20:43:18.310
28.0, 912.0998908434995, 599.2366901002824, 1647.618535329122, 866.5722187329084, -0.06400000303983688, 0.09600000455975533, 1.008000047877431, 0.0, 0.0, 0.0, 0.0, 0.0, 1.6480861983206437E9, 0.0, 2022-03-23 20:43:18.320
28.0, 908.7601601830684, 595.4780906448141, 1640.348169815261, 860.4275631057099, -0.06400000303983688, 0.09600000455975533, 1.008000047877431, 0.0, 0.0, 0.0, 0.0, 0.0, 1.6480861983206437E9, 0.0, 2022-03-23 20:43:18.320
29.0, 904.3994368347339, 600.785008681938, 1645.471832754556, 858.6698101265356, -0.06400000303983688, 0.09600000455975533, 1.008000047877431, 0.0, 0.0, 0.0, 0.0, 0.0, 1.6480861983356717E9, 0.0, 2022-03-23 20:43:18.335
29.0, 911.1275168550201, 593.6829386660829, 1637.838696944993, 852.4129575006664, -0.06400000303983688, 0.09600000455975533, 1.008000047877431, 0.0, 0.0, 0.0, 0.0, 0.0, 1.6480861983356717E9, 0.0, 2022-03-23 20:43:18.335
30.0, 901.2242617723532, 597.2134042242542, 1639.3795357267372, 860.7678940016776, -0.06400000303983688, 0.09600000455975533, 1.0240000486373901, 0.0, 0.0, 0.0, 0.0, 0.0, 1.6480861983513985E9, 0.0, 2022-03-23 20:43:18.351
30.0, 905.5027073216625, 583.5702491858974, 1647.0687700356357, 861.2129420964047, -0.06400000303983688, 0.09600000455975533, 1.0240000486373901, 0.0, 0.0, 0.0, 0.0, 0.0, 1.6480861983513985E9, 0.0, 2022-03-23 20:43:18.351
31.0, 910.5179131622426, 580.2454781252891, 1635.377842774149, 849.0807066401467, -0.06400000303983688, 0.09600000455975533, 1.0240000486373901, 0.0, 0.0, 0.0, 0.0, 0.0, 1.6480861983520796E9, 0.0, 2022-03-23 20:43:18.352
31.0, 895.184323343914, 593.7390371654183, 1629.2967654461972, 845.8980517778546, -0.06400000303983688, 0.09600000455975533, 1.0240000486373901, 0.0, 0.0, 0.0, 0.0, 0.0, 1.6480861983520796E9, 0.0, 2022-03-23 20:43:18.352
32.0, 903.5803987444378, 585.7730502597988, 1636.488593060989, 850.9917955175042, -0.06400000303983688, 0.09600000455975533, 1.0240000486373901, 0.0, 0.0, 0.0, 0.0, 0.0, 1.648086198365772E9, 0.0, 2022-03-23 20:43:18.365
32.0, 916.7261470886879, 599.3713264986873, 1651.5790893821977, 868.1504565142095, -0.06400000303983688, 0.09600000455975533, 1.0240000486373901, 0.0, 0.0, 0.0, 0.0, 0.0, 1.648086198365772E9, 0.0, 2022-03-23 20:43:18.365
33.0, 923.6337423068471, 605.4935427261516, 1661.441205565352, 870.7048081839457, -0.06400000303983688, 0.09600000455975533, 1.0240000486373901, 0.0, 0.0, 0.0, 0.0, 0.0, 1.6480861983814087E9, 0.0, 2022-03-23 20:43:18.381
33.0, 920.4286480448209, 606.6977905118838, 1660.4950108765624, 867.806385718286, -0.06400000303983688, 0.09600000455975533, 1.0240000486373901, 0.0, 0.0, 0.0, 0.0, 0.0, 1.6480861983814087E9, 0.0, 2022-03-23 20:43:18.381
34.0, 912.7543733357452, 604.2257166411728, 1645.4793125544675, 858.3706181300804, -0.06400000303983688, 0.09600000455975533, 1.0240000486373901, 0.0, 0.0, 0.0, 0.0, 0.0, 1.648086198382127E9, 0.0, 2022-03-23 20:43:18.382
34.0, 904.9118031286635, 596.2971287351102, 1642.191940493416, 851.86319220718, -0.06400000303983688, 0.09600000455975533, 1.0240000486373901, 0.0, 0.0, 0.0, 0.0, 0.0, 1.648086198382127E9, 0.0, 2022-03-23 20:43:18.382
35.0, 898.2884403071366, 588.9744046218693, 1636.2193202641793, 842.9584904126823, -0.06400000303983688, 0.09600000455975533, 1.0240000486373901, 0.0, 0.0, 0.0, 0.0, 0.0, 1.6480861983957105E9, 0.0, 2022-03-23 20:43:18.395
35.0, 895.6929497378878, 581.8461553063244, 1620.7174349478446, 844.9630767889321, -0.06400000303983688, 0.09600000455975533, 1.0240000486373901, 0.0, 0.0, 0.0, 0.0, 0.0, 1.6480861983957105E9, 0.0, 2022-03-23 20:43:18.395
36.0, 896.1155584328808, 574.0896027982235, 1629.7904322403483, 847.6670244568959, -0.06400000303983688, 0.09600000455975533, 1.0240000486373901, 0.0, 0.0, 0.0, 0.0, 0.0, 1.6480861984114084E9, 0.0, 2022-03-23 20:43:18.411
36.0, 891.1340116919018, 574.1980598969385, 1638.9793664314784, 845.8756123781204, -0.06400000303983688, 0.09600000455975533, 1.0240000486373901, 0.0, 0.0, 0.0, 0.0, 0.0, 1.6480861984114084E9, 0.0, 2022-03-23 20:43:18.411
37.0, 903.8646311410703, 592.1458397842944, 1643.7701782747172, 856.3697716537863, -0.06400000303983688, 0.09600000455975533, 1.0240000486373901, 0.0, 0.0, 0.0, 0.0, 0.0, 1.6480861984121282E9, 0.0, 2022-03-23 20:43:18.412
37.0, 912.2083479422145, 599.9323114920408, 1636.9635603553616, 854.129571580328, -0.06400000303983688, 0.09600000455975533, 1.0240000486373901, 0.0, 0.0, 0.0, 0.0, 0.0, 1.6480861984121282E9, 0.0, 2022-03-23 20:43:18.412
38.0, 912.6945349364541, 603.2533426526934, 1651.3247761852108, 857.5852391393855, -0.06400000303983688, 0.09600000455975533, 1.0240000486373901, 0.0, 0.0, 0.0, 0.0, 0.0, 1.6480861984256995E9, 0.0, 2022-03-23 20:43:18.425
38.0, 916.0417453967966, 603.9788832440972, 1662.7239912501536, 864.0477862628177, -0.06400000303983688, 0.09600000455975533, 1.0240000486373901, 0.0, 0.0, 0.0, 0.0, 0.0, 1.6480861984256995E9, 0.0, 2022-03-23 20:43:18.425
39.0, 917.0103794853203, 607.9095180975273, 1657.327315614093, 856.6652237502858, -0.06400000303983688, 0.09600000455975533, 1.0240000486373901, 0.0, 0.0, 0.0, 0.0, 0.0, 1.6480861984413512E9, 0.0, 2022-03-23 20:43:18.441
39.0, 918.7756122644059, 612.8536658389494, 1658.340828502085, 869.8820301936939, -0.06400000303983688, 0.09600000455975533, 1.0240000486373901, 0.0, 0.0, 0.0, 0.0, 0.0, 1.6480861984413512E9, 0.0, 2022-03-23 20:43:18.441
40.0, 916.699967788998, 620.6064784470946, 1656.3063229261898, 862.054419586435, -0.06400000303983688, 0.09600000455975533, 1.008000047877431, 0.0, 0.0, 0.0, 0.0, 0.0, 1.6480861984421024E9, 0.0, 2022-03-23 20:43:18.442
40.0, 912.0849312436767, 616.2794141983613, 1658.5727022993378, 864.9453622521833, -0.06400000303983688, 0.09600000455975533, 1.008000047877431, 0.0, 0.0, 0.0, 0.0, 0.0, 1.6480861984421024E9, 0.0, 2022-03-23 20:43:18.442
41.0, 934.1989596816711, 612.3749586446211, 1675.7837218954228, 878.8129112878814, -0.06400000303983688, 0.09600000455975533, 1.008000047877431, 0.0, 0.0, 0.0, 0.0, 0.0, 1.6480861984556873E9, 0.0, 2022-03-23 20:43:18.455
41.0, 923.8618762041442, 613.5717266304418, 1667.1969115971588, 863.9281094642356, -0.06400000303983688, 0.09600000455975533, 1.008000047877431, 0.0, 0.0, 0.0, 0.0, 0.0, 1.6480861984556873E9, 0.0, 2022-03-23 20:43:18.455
42.0, 916.2100408948027, 617.57341958303, 1668.591894280631, 865.985054439865, -0.06400000303983688, 0.09600000455975533, 1.008000047877431, 0.0, 0.0, 0.0, 0.0, 0.0, 1.6480861984713292E9, 0.0, 2022-03-23 20:43:18.471
42.0, 925.5747503838502, 612.6217920416966, 1678.7457226603292, 870.6187904849648, -0.06400000303983688, 0.09600000455975533, 1.008000047877431, 0.0, 0.0, 0.0, 0.0, 0.0, 1.6480861984713292E9, 0.0, 2022-03-23 20:43:18.471
43.0, 927.1604679650627, 621.6050317352638, 1690.096319025848, 873.3750967523083, -0.06400000303983688, 0.09600000455975533, 1.008000047877431, 0.0, 0.0, 0.0, 0.0, 0.0, 1.648086198472144E9, 0.0, 2022-03-23 20:43:18.472
43.0, 916.699967788998, 618.6505107702687, 1660.1247607809491, 866.9237693287432, -0.06400000303983688, 0.09600000455975533, 1.008000047877431, 0.0, 0.0, 0.0, 0.0, 0.0, 1.648086198472144E9, 0.0, 2022-03-23 20:43:18.472
44.0, 923.031618413981, 618.0296873776242, 1663.8758804365061, 868.4795677103102, -0.06400000303983688, 0.09600000455975533, 1.008000047877431, 0.0, 0.0, 0.0, 0.0, 0.0, 1.6480861984857223E9, 0.0, 2022-03-23 20:43:18.485
44.0, 922.9792598146014, 612.53203444276, 1685.754295177292, 861.2466011960059, -0.06400000303983688, 0.09600000455975533, 1.008000047877431, 0.0, 0.0, 0.0, 0.0, 0.0, 1.6480861984857223E9, 0.0, 2022-03-23 20:43:18.485
45.0, 921.5917569310404, 620.7448547454551, 1694.0381735791452, 878.7418531887233, -0.06400000303983688, 0.09600000455975533, 1.008000047877431, 0.0, 0.0, 0.0, 0.0, 0.0, 1.6480861985013857E9, 0.0, 2022-03-23 20:43:18.501
45.0, 922.272418722976, 608.2461090935394, 1682.13781192014, 874.6354430373758, -0.06400000303983688, 0.09600000455975533, 1.008000047877431, 0.0, 0.0, 0.0, 0.0, 0.0, 1.6480861985013857E9, 0.0, 2022-03-23 20:43:18.501
46.0, 926.023538378533, 599.1244931016117, 1675.3311940007843, 866.8751506293193, -0.06400000303983688, 0.09600000455975533, 1.008000047877431, 0.0, 0.0, 0.0, 0.0, 0.0, 1.648086198502081E9, 0.0, 2022-03-23 20:43:18.502
46.0, 910.7348273596726, 595.5940275434405, 1671.8568269419484, 865.8130190419033, -0.06400000303983688, 0.09600000455975533, 1.008000047877431, 0.0, 0.0, 0.0, 0.0, 0.0, 1.648086198502081E9, 0.0, 2022-03-23 20:43:18.502
47.0, 913.9287019218318, 598.1259398134425, 1676.0642143920995, 874.392349540256, -0.06400000303983688, 0.09600000455975533, 1.008000047877431, 0.0, 0.0, 0.0, 0.0, 0.0, 1.6480861985157087E9, 0.0, 2022-03-23 20:43:18.515
47.0, 922.2387596233748, 596.9516112273559, 1661.7478773617186, 871.4153891755268, -0.06400000303983688, 0.09600000455975533, 1.008000047877431, 0.0, 0.0, 0.0, 0.0, 0.0, 1.6480861985157087E9, 0.0, 2022-03-23 20:43:18.515
48.0, 917.3469704813324, 599.2067709006369, 1670.0579350632615, 865.9626150401309, -0.06400000303983688, 0.09600000455975533, 1.008000047877431, 0.0, 0.0, 0.0, 0.0, 0.0, 1.6480861985313735E9, 0.0, 2022-03-23 20:43:18.531
48.0, 905.5775053207763, 599.2217305004597, 1655.2703706384636, 857.1925496440381, -0.06400000303983688, 0.09600000455975533, 1.008000047877431, 0.0, 0.0, 0.0, 0.0, 0.0, 1.6480861985313735E9, 0.0, 2022-03-23 20:43:18.531
49.0, 913.5397523264401, 593.4585446687415, 1647.510078230407, 853.1758970916271, -0.06400000303983688, 0.09600000455975533, 1.008000047877431, 0.0, 0.0, 0.0, 0.0, 0.0, 1.6480861985321107E9, 0.0, 2022-03-23 20:43:18.532
49.0, 898.9878015988506, 586.7603838481009, 1640.1686546173878, 852.8954045949504, -0.06400000303983688, 0.09600000455975533, 1.008000047877431, 0.0, 0.0, 0.0, 0.0, 0.0, 1.6480861985321107E9, 0.0, 2022-03-23 20:43:18.532
50.0, 883.3138808845542, 557.8359975907952, 1628.5787046547048, 832.6288867350668, -0.06400000303983688, 0.09600000455975533, 1.008000047877431, 0.0, 0.0, 0.0, 0.0, 0.0, 1.648086198545688E9, 0.0, 2022-03-23 20:43:18.545
50.0, 902.3836307586171, 560.6259629577398, 1642.349016291555, 851.3545658132061, -0.06400000303983688, 0.09600000455975533, 1.008000047877431, 0.0, 0.0, 0.0, 0.0, 0.0, 1.648086198545688E9, 0.0, 2022-03-23 20:43:18.545
51.0, 905.6822225195356, 560.1322961635888, 1629.8166115400381, 848.7553353440017, -0.06400000303983688, 0.09600000455975533, 1.008000047877431, 0.0, 0.0, 0.0, 0.0, 0.0, 1.6480861985613196E9, 0.0, 2022-03-23 20:43:18.561
51.0, 879.9629305242561, 564.5752973109484, 1623.3765038163401, 840.8828459372744, -0.06400000303983688, 0.09600000455975533, 1.008000047877431, 0.0, 0.0, 0.0, 0.0, 0.0, 1.6480861985613196E9, 0.0, 2022-03-23 20:43:18.561
52.0, 894.5971590508707, 571.7895643254742, 1636.7877850574441, 845.27722838521, -0.0800000037997961, 0.09600000455975533, 1.008000047877431, 0.0, 0.0, 0.0, 0.0, 0.0, 1.6480861985620594E9, 0.0, 2022-03-23 20:43:18.562
52.0, 905.4877477218397, 581.0869556153193, 1640.2097935169004, 856.5530267516151, -0.0800000037997961, 0.09600000455975533, 1.008000047877431, 0.0, 0.0, 0.0, 0.0, 0.0, 1.6480861985620594E9, 0.0, 2022-03-23 20:43:18.562
53.0, 893.0338808693923, 571.2024000324309, 1634.5513248839416, 851.9080710066482, -0.0800000037997961, 0.09600000455975533, 1.008000047877431, 0.0, 0.0, 0.0, 0.0, 0.0, 1.648086198575699E9, 0.0, 2022-03-23 20:43:18.575
53.0, 891.3995445887558, 568.2516189673916, 1640.565084012691, 848.7141964444891, -0.0800000037997961, 0.09600000455975533, 1.008000047877431, 0.0, 0.0, 0.0, 0.0, 0.0, 1.648086198575699E9, 0.0, 2022-03-23 20:43:18.575
54.0, 904.5602525328286, 581.7189987078309, 1649.596942405682, 860.135850909166, -0.0800000037997961, 0.09600000455975533, 1.008000047877431, 0.0, 0.0, 0.0, 0.0, 0.0, 1.6480861985913188E9, 0.0, 2022-03-23 20:43:18.591
54.0, 904.5041540334933, 588.1441468317062, 1646.5788431414403, 858.7259086258709, -0.0800000037997961, 0.09600000455975533, 1.008000047877431, 0.0, 0.0, 0.0, 0.0, 0.0, 1.6480861985913188E9, 0.0, 2022-03-23 20:43:18.591
55.0, 903.0867319502868, 581.5993219092488, 1639.948000520002, 857.1439309446141, -0.0800000037997961, 0.09600000455975533, 1.008000047877431, 0.0, 0.0, 0.0, 0.0, 0.0, 1.6480861985920508E9, 0.0, 2022-03-23 20:43:18.592
55.0, 900.8540116767399, 581.8947740057483, 1646.5040451423265, 854.5372206754982, -0.0800000037997961, 0.09600000455975533, 1.008000047877431, 0.0, 0.0, 0.0, 0.0, 0.0, 1.6480861985920508E9, 0.0, 2022-03-23 20:43:18.592
56.0, 904.1825226373039, 577.6911264555529, 1639.1065230299719, 848.7889944436029, -0.0800000037997961, 0.09600000455975533, 1.008000047877431, 0.0, 0.0, 0.0, 0.0, 0.0, 1.6480861986057143E9, 0.0, 2022-03-23 20:43:18.605
56.0, 884.9145580655895, 579.8565285298973, 1632.8421906041913, 850.8758586188778, -0.0800000037997961, 0.09600000455975533, 1.008000047877431, 0.0, 0.0, 0.0, 0.0, 0.0, 1.6480861986057143E9, 0.0, 2022-03-23 20:43:18.605
57.0, 891.5528804869391, 577.9342199526727, 1625.5755649902858, 855.2814607666805, -0.0800000037997961, 0.09600000455975533, 1.008000047877431, 0.0, 0.0, 0.0, 0.0, 0.0, 1.6480861986213677E9, 0.0, 2022-03-23 20:43:18.621
57.0, 899.4852082929574, 590.9303722986951, 1652.1251147757284, 858.8007066249847, -0.0800000037997961, 0.09600000455975533, 1.008000047877431, 0.0, 0.0, 0.0, 0.0, 0.0, 1.6480861986213677E9, 0.0, 2022-03-23 20:43:18.621
58.0, 901.6954891667701, 601.2936350759119, 1645.3259766562842, 866.299206036143, -0.0800000037997961, 0.09600000455975533, 1.008000047877431, 0.0, 0.0, 0.0, 0.0, 0.0, 1.648086198622122E9, 0.0, 2022-03-23 20:43:18.622
58.0, 907.4848542981781, 607.165278006345, 1649.2154726102017, 866.564738932997, -0.0800000037997961, 0.09600000455975533, 1.008000047877431, 0.0, 0.0, 0.0, 0.0, 0.0, 1.648086198622122E9, 0.0, 2022-03-23 20:43:18.622
59.0, 913.3452775287442, 595.6463861428201, 1659.2870231908746, 867.9410221166909, -0.0800000037997961, 0.09600000455975533, 1.008000047877431, 0.0, 0.0, 0.0, 0.0, 0.0, 1.6480861986520278E9, 0.0, 2022-03-23 20:43:18.652
59.0, 904.9679016279988, 592.8489409759641, 1645.0305245597847, 854.7952737724409, -0.0800000037997961, 0.09600000455975533, 1.008000047877431, 0.0, 0.0, 0.0, 0.0, 0.0, 1.6480861986520278E9, 0.0, 2022-03-23 20:43:18.652
60.0, 894.436343352776, 587.8075558356941, 1634.5962036834098, 854.4699024762958, -0.0800000037997961, 0.09600000455975533, 1.008000047877431, 0.0, 0.0, 0.0, 0.0, 0.0, 1.6480861986527772E9, 0.0, 2022-03-23 20:43:18.652
60.0, 896.3474322301336, 594.4234388573095, 1634.5625445838086, 862.488247981295, -0.0800000037997961, 0.09600000455975533, 1.008000047877431, 0.0, 0.0, 0.0, 0.0, 0.0, 1.6480861986527772E9, 0.0, 2022-03-23 20:43:18.652
61.0, 893.4377900646068, 602.812034457922, 1644.6266153645702, 857.3047466427088, -0.0800000037997961, 0.09600000455975533, 1.008000047877431, 0.0, 0.0, 0.0, 0.0, 0.0, 1.6480861986536288E9, 0.0, 2022-03-23 20:43:18.653
61.0, 903.1540501494892, 599.9435311919078, 1641.5486777010374, 858.6548505267128, -0.0800000037997961, 0.09600000455975533, 1.008000047877431, 0.0, 0.0, 0.0, 0.0, 0.0, 1.6480861986536288E9, 0.0, 2022-03-23 20:43:18.653
62.0, 902.7239616545849, 586.8052626475692, 1644.8771886616014, 862.0095407869667, -0.06400000303983688, 0.09600000455975533, 1.008000047877431, 0.0, 0.0, 0.0, 0.0, 0.0, 1.6480861986657045E9, 0.0, 2022-03-23 20:43:18.665
62.0, 908.2664933889173, 596.8730733282864, 1641.8703090972267, 862.2414145842195, -0.06400000303983688, 0.09600000455975533, 1.008000047877431, 0.0, 0.0, 0.0, 0.0, 0.0, 1.6480861986657045E9, 0.0, 2022-03-23 20:43:18.665
63.0, 909.2613067771308, 600.7326500825584, 1644.4695395664312, 857.869471536018, -0.06400000303983688, 0.09600000455975533, 1.008000047877431, 0.0, 0.0, 0.0, 0.0, 0.0, 1.6480861986813548E9, 0.0, 2022-03-23 20:43:18.681
63.0, 905.9514953163452, 609.3531194804236, 1653.4490393600427, 859.5673861159012, -0.06400000303983688, 0.09600000455975533, 1.008000047877431, 0.0, 0.0, 0.0, 0.0, 0.0, 1.6480861986813548E9, 0.0, 2022-03-23 20:43:18.681
64.0, 910.5029535624199, 599.7340967943892, 1648.1533410227858, 862.8061394775286, -0.06400000303983688, 0.09600000455975533, 1.008000047877431, 0.0, 0.0, 0.0, 0.0, 0.0, 1.6480861986821485E9, 0.0, 2022-03-23 20:43:18.682
64.0, 903.0568127506413, 601.4843699736521, 1651.0555033884011, 864.0178670631722, -0.06400000303983688, 0.09600000455975533, 1.008000047877431, 0.0, 0.0, 0.0, 0.0, 0.0, 1.6480861986821485E9, 0.0, 2022-03-23 20:43:18.682
65.0, 913.6482094251551, 617.7641544807702, 1667.4512247941457, 878.6072167903185, -0.06400000303983688, 0.09600000455975533, 1.008000047877431, 0.0, 0.0, 0.0, 0.0, 0.0, 1.6480861986957183E9, 0.0, 2022-03-23 20:43:18.695
65.0, 921.0158123378642, 631.5531656173989, 1673.0835141274147, 883.2409528354183, -0.06400000303983688, 0.09600000455975533, 1.008000047877431, 0.0, 0.0, 0.0, 0.0, 0.0, 1.6480861986957183E9, 0.0, 2022-03-23 20:43:18.695
66.0, 920.3688096455298, 620.7111956458539, 1668.2740027843975, 873.1170436553657, -0.06400000303983688, 0.09600000455975533, 1.008000047877431, 0.0, 0.0, 0.0, 0.0, 0.0, 1.6480861987114027E9, 0.0, 2022-03-23 20:43:18.711
66.0, 894.7542348490097, 603.3244007518515, 1637.1692548529245, 865.0874784504995, -0.06400000303983688, 0.09600000455975533, 1.008000047877431, 0.0, 0.0, 0.0, 0.0, 0.0, 1.6480861987114027E9, 0.0, 2022-03-23 20:43:18.711
67.0, 923.3756892099045, 615.6361514059827, 1659.5413363878615, 882.0853237491101, -0.06400000303983688, 0.09600000455975533, 1.008000047877431, 0.0, 0.0, 0.0, 0.0, 0.0, 1.6480861987121108E9, 0.0, 2022-03-23 20:43:18.712
67.0, 929.4642463377677, 618.4522960726172, 1673.6781582203694, 887.1528881890699, -0.06400000303983688, 0.09600000455975533, 1.008000047877431, 0.0, 0.0, 0.0, 0.0, 0.0, 1.6480861987121108E9, 0.0, 2022-03-23 20:43:18.712
68.0, 917.9565741741098, 607.8085407987237, 1657.8770809075795, 877.0701179085299, -0.06400000303983688, 0.09600000455975533, 1.008000047877431, 0.0, 0.0, 0.0, 0.0, 0.0, 1.648086198725726E9, 0.0, 2022-03-23 20:43:18.725
68.0, 905.1062779263593, 604.1434388421476, 1668.7788892784156, 871.3667704761028, -0.06400000303983688, 0.09600000455975533, 1.008000047877431, 0.0, 0.0, 0.0, 0.0, 0.0, 1.648086198725726E9, 0.0, 2022-03-23 20:43:18.725
69.0, 922.7623456171714, 619.3049932625145, 1668.1057072863914, 878.7867319881916, -0.06400000303983688, 0.09600000455975533, 1.008000047877431, 0.0, 0.0, 0.0, 0.0, 0.0, 1.6480861987414105E9, 0.0, 2022-03-23 20:43:18.741
69.0, 917.7172205769457, 628.6771825514734, 1652.431786572095, 879.2990982821211, -0.06400000303983688, 0.09600000455975533, 1.008000047877431, 0.0, 0.0, 0.0, 0.0, 0.0, 1.6480861987414105E9, 0.0, 2022-03-23 20:43:18.741
70.0, 924.5126187964343, 636.7404068559408, 1677.3956187763251, 888.069163678214, -0.06400000303983688, 0.09600000455975533, 1.008000047877431, 0.0, 0.0, 0.0, 0.0, 0.0, 1.648086198742087E9, 0.0, 2022-03-23 20:43:18.742
70.0, 925.1259623891674, 626.691295675002, 1674.0184891163372, 884.7182133179158, -0.06400000303983688, 0.09600000455975533, 1.008000047877431, 0.0, 0.0, 0.0, 0.0, 0.0, 1.648086198742087E9, 0.0, 2022-03-23 20:43:18.742
71.0, 928.2001601527445, 633.5091332942247, 1671.572594545316, 894.6738269999623, -0.06400000303983688, 0.09600000455975533, 1.008000047877431, 0.0, 0.0, 0.0, 0.0, 0.0, 1.6480861987557232E9, 0.0, 2022-03-23 20:43:18.755
71.0, 923.0166588141583, 628.2994526559487, 1666.1759189092554, 886.1618147008121, -0.06400000303983688, 0.09600000455975533, 1.008000047877431, 0.0, 0.0, 0.0, 0.0, 0.0, 1.6480861987557232E9, 0.0, 2022-03-23 20:43:18.755
72.0, 902.2489943602122, 617.2031694874167, 1653.6397742577828, 871.714581171982, -0.06400000303983688, 0.09600000455975533, 1.008000047877431, 0.0, 0.0, 0.0, 0.0, 0.0, 1.648086198771349E9, 0.0, 2022-03-23 20:43:18.771
72.0, 920.8325572400354, 625.1467169933021, 1670.9667307524942, 874.3811298403889, -0.06400000303983688, 0.09600000455975533, 1.008000047877431, 0.0, 0.0, 0.0, 0.0, 0.0, 1.648086198771349E9, 0.0, 2022-03-23 20:43:18.771
73.0, 927.156728065107, 636.2430001618341, 1686.4386968691833, 890.3766819508746, -0.06400000303983688, 0.09600000455975533, 1.008000047877431, 0.0, 0.0, 0.0, 0.0, 0.0, 1.648086198772174E9, 0.0, 2022-03-23 20:43:18.772
73.0, 926.5022455728613, 632.1964284097776, 1688.6414979430847, 886.7676784936339, -0.06400000303983688, 0.09600000455975533, 1.008000047877431, 0.0, 0.0, 0.0, 0.0, 0.0, 1.648086198772174E9, 0.0, 2022-03-23 20:43:18.772
74.0, 937.4190135435201, 640.7720190081745, 1706.3611439331435, 906.9294791547582, -0.06400000303983688, 0.09600000455975533, 1.008000047877431, 0.0, 0.0, 0.0, 0.0, 0.0, 1.6480861987856665E9, 0.0, 2022-03-23 20:43:18.785
74.0, 930.2384056285955, 635.0798912756145, 1703.1784890708514, 897.7966434629634, -0.06400000303983688, 0.09600000455975533, 1.008000047877431, 0.0, 0.0, 0.0, 0.0, 0.0, 1.6480861987856665E9, 0.0, 2022-03-23 20:43:18.785
75.0, 926.939813867677, 618.2877404745668, 1687.070739961695, 886.5358046963811, -0.06400000303983688, 0.09600000455975533, 1.008000047877431, 0.0, 0.0, 0.0, 0.0, 0.0, 1.6480861988013372E9, 0.0, 2022-03-23 20:43:18.801
75.0, 919.0561047610827, 607.1839775061235, 1672.7880620309152, 881.9993060501292, -0.06400000303983688, 0.09600000455975533, 1.008000047877431, 0.0, 0.0, 0.0, 0.0, 0.0, 1.6480861988013372E9, 0.0, 2022-03-23 20:43:18.801
76.0, 922.1228227247484, 621.4404761372134, 1662.346261354629, 890.5000986494124, -0.06400000303983688, 0.09600000455975533, 1.008000047877431, 0.0, 0.0, 0.0, 0.0, 0.0, 1.6480861988020756E9, 0.0, 2022-03-23 20:43:18.802
76.0, 926.5546041722409, 630.7229078272358, 1691.8054533055983, 893.2077862173319, -0.06400000303983688, 0.09600000455975533, 1.008000047877431, 0.0, 0.0, 0.0, 0.0, 0.0, 1.6480861988020756E9, 0.0, 2022-03-23 20:43:18.802
77.0, 927.3325033630244, 627.6487100636587, 1691.0836526141502, 893.6079555125907, -0.06400000303983688, 0.09600000455975533, 1.008000047877431, 0.0, 0.0, 0.0, 0.0, 0.0, 1.6480861988156793E9, 0.0, 2022-03-23 20:43:18.815
77.0, 917.6873013773002, 615.8680252032354, 1680.1631447435357, 887.2389058880508, -0.06400000303983688, 0.09600000455975533, 1.008000047877431, 0.0, 0.0, 0.0, 0.0, 0.0, 1.6480861988156793E9, 0.0, 2022-03-23 20:43:18.815
78.0, 928.5068319491111, 626.7473941743374, 1688.3273463468067, 892.3775284271687, -0.06400000303983688, 0.09600000455975533, 1.008000047877431, 0.0, 0.0, 0.0, 0.0, 0.0, 1.6480861988314207E9, 0.0, 2022-03-23 20:43:18.831
78.0, 923.0764972134493, 619.6079251589254, 1702.08643828379, 894.9244002969936, -0.06400000303983688, 0.09600000455975533, 1.008000047877431, 0.0, 0.0, 0.0, 0.0, 0.0, 1.6480861988314207E9, 0.0, 2022-03-23 20:43:18.831
79.0, 934.4270935789682, 618.3326192740351, 1692.833925793413, 897.2693175692111, -0.06400000303983688, 0.09600000455975533, 1.008000047877431, 0.0, 0.0, 0.0, 0.0, 0.0, 1.6480861988321288E9, 0.0, 2022-03-23 20:43:18.832
79.0, 928.8808219446801, 611.5746200541034, 1680.1294856439345, 891.3640155391768, -0.06400000303983688, 0.09600000455975533, 1.008000047877431, 0.0, 0.0, 0.0, 0.0, 0.0, 1.6480861988321288E9, 0.0, 2022-03-23 20:43:18.832
80.0, 931.1584210176952, 625.3598912907764, 1677.9341643699445, 886.1842541005462, -0.06400000303983688, 0.09600000455975533, 1.008000047877431, 0.0, 0.0, 0.0, 0.0, 0.0, 1.64808619884581E9, 0.0, 2022-03-23 20:43:18.845
80.0, 931.2930574161, 625.0906184939668, 1678.8766191587783, 891.8202833337709, -0.06400000303983688, 0.09600000455975533, 1.008000047877431, 0.0, 0.0, 0.0, 0.0, 0.0, 1.64808619884581E9, 0.0, 2022-03-23 20:43:18.845
81.0, 934.4345733788796, 632.7499336032197, 1684.924037387129, 904.4723648838699, -0.06400000303983688, 0.09600000455975533, 1.008000047877431, 0.0, 0.0, 0.0, 0.0, 0.0, 1.6480861988613591E9, 0.0, 2022-03-23 20:43:18.861
81.0, 923.1849543121643, 628.0077404594049, 1693.3799511869438, 894.7149658994749, -0.06400000303983688, 0.09600000455975533, 1.008000047877431, 0.0, 0.0, 0.0, 0.0, 0.0, 1.6480861988613591E9, 0.0, 2022-03-23 20:43:18.861
82.0, 930.4515799260698, 630.3002991322428, 1679.3441066532396, 897.1795599702746, -0.06400000303983688, 0.09600000455975533, 1.008000047877431, 0.0, 0.0, 0.0, 0.0, 0.0, 1.64808619886211E9, 0.0, 2022-03-23 20:43:18.862
82.0, 935.6163817648776, 617.1695103878155, 1676.8271539830603, 889.0041386671364, -0.06400000303983688, 0.09600000455975533, 1.008000047877431, 0.0, 0.0, 0.0, 0.0, 0.0, 1.64808619886211E9, 0.0, 2022-03-23 20:43:18.862
83.0, 923.8581363041885, 610.8528193626553, 1692.19440290099, 889.6025226600468, -0.06400000303983688, 0.09600000455975533, 1.008000047877431, 0.0, 0.0, 0.0, 0.0, 0.0, 1.6480861988757503E9, 0.0, 2022-03-23 20:43:18.875
83.0, 913.7080478244461, 602.4006454627961, 1669.7101243673824, 875.3909028284252, -0.06400000303983688, 0.09600000455975533, 1.008000047877431, 0.0, 0.0, 0.0, 0.0, 0.0, 1.6480861988757503E9, 0.0, 2022-03-23 20:43:18.875
84.0, 920.0135191497393, 600.5643545845523, 1667.0211362992413, 874.4559278395027, -0.06400000303983688, 0.09600000455975533, 1.008000047877431, 0.0, 0.0, 0.0, 0.0, 0.0, 1.6480861988913388E9, 0.0, 2022-03-23 20:43:18.891
84.0, 928.2861778517254, 608.227409593761, 1684.0563805974089, 891.5771898366511, -0.06400000303983688, 0.09600000455975533, 1.008000047877431, 0.0, 0.0, 0.0, 0.0, 0.0, 1.6480861988913388E9, 0.0, 2022-03-23 20:43:18.891
85.0, 921.7114337296225, 615.0265477132052, 1678.3455533650704, 886.947193691507, -0.06400000303983688, 0.09600000455975533, 1.008000047877431, 0.0, 0.0, 0.0, 0.0, 0.0, 1.6480861988920872E9, 0.0, 2022-03-23 20:43:18.892
85.0, 910.2598600653, 622.6522037228569, 1664.249870432075, 883.1923341359943, -0.06400000303983688, 0.09600000455975533, 1.008000047877431, 0.0, 0.0, 0.0, 0.0, 0.0, 1.6480861988920872E9, 0.0, 2022-03-23 20:43:18.892
86.0, 919.6096099545248, 601.4469709740952, 1664.5004437291063, 884.3217839226127, -0.06400000303983688, 0.09600000455975533, 1.008000047877431, 0.0, 0.0, 0.0, 0.0, 0.0, 1.6480861989057357E9, 0.0, 2022-03-23 20:43:18.905
86.0, 916.8832228868268, 606.62299251277, 1675.9931562929414, 880.9670936623588, -0.06400000303983688, 0.09600000455975533, 1.008000047877431, 0.0, 0.0, 0.0, 0.0, 0.0, 1.6480861989057357E9, 0.0, 2022-03-23 20:43:18.905
87.0, 911.9016761458479, 617.405124085024, 1663.419612641912, 880.7987981643528, -0.06400000303983688, 0.09600000455975533, 1.008000047877431, 0.0, 0.0, 0.0, 0.0, 0.0, 1.6480861989213967E9, 0.0, 2022-03-23 20:43:18.921
87.0, 913.046085532289, 616.3841313971207, 1669.8672001655214, 882.3171975463629, -0.06400000303983688, 0.09600000455975533, 1.008000047877431, 0.0, 0.0, 0.0, 0.0, 0.0, 1.6480861989213967E9, 0.0, 2022-03-23 20:43:18.921
88.0, 933.9184671849944, 629.1633695457131, 1708.0777580128051, 901.214912022464, -0.06400000303983688, 0.09600000455975533, 1.008000047877431, 0.0, 0.0, 0.0, 0.0, 0.0, 1.6480861989221444E9, 0.0, 2022-03-23 20:43:18.922
88.0, 920.9223148389719, 620.4419228490442, 1693.4173501865007, 885.440014009364, -0.06400000303983688, 0.09600000455975533, 1.008000047877431, 0.0, 0.0, 0.0, 0.0, 0.0, 1.6480861989221444E9, 0.0, 2022-03-23 20:43:18.922
89.0, 921.789971628692, 604.5810071369633, 1674.6654918086715, 875.3796831285581, -0.06400000303983688, 0.09600000455975533, 1.008000047877431, 0.0, 0.0, 0.0, 0.0, 0.0, 1.6480861989356732E9, 0.0, 2022-03-23 20:43:18.935
89.0, 925.1259623891674, 626.1901490809396, 1686.431217069272, 881.1054699607193, -0.06400000303983688, 0.09600000455975533, 1.008000047877431, 0.0, 0.0, 0.0, 0.0, 0.0, 1.6480861989356732E9, 0.0, 2022-03-23 20:43:18.935
90.0, 923.5701640076004, 630.3002991322428, 1689.5241143326275, 883.0988366371021, -0.06400000303983688, 0.09600000455975533, 1.008000047877431, 0.0, 0.0, 0.0, 0.0, 0.0, 1.6480861989513085E9, 0.0, 2022-03-23 20:43:18.951
90.0, 920.1107565485872, 615.7184292050079, 1685.428923881147, 883.3606296340004, -0.06400000303983688, 0.09600000455975533, 1.008000047877431, 0.0, 0.0, 0.0, 0.0, 0.0, 1.6480861989513085E9, 0.0, 2022-03-23 20:43:18.951
91.0, 933.1517876940779, 634.9078558776528, 1691.8839912046678, 889.684800459072, -0.06400000303983688, 0.09600000455975533, 1.008000047877431, 0.0, 0.0, 0.0, 0.0, 0.0, 1.648086198952065E9, 0.0, 2022-03-23 20:43:18.952
91.0, 930.002791931387, 641.6172363981605, 1704.7716864519753, 891.289217540063, -0.06400000303983688, 0.09600000455975533, 1.008000047877431, 0.0, 0.0, 0.0, 0.0, 0.0, 1.648086198952065E9, 0.0, 2022-03-23 20:43:18.952
92.0, 929.1426149415784, 645.3234772542492, 1693.6230446840636, 896.5811759773642, -0.0800000037997961, 0.09600000455975533, 1.008000047877431, 0.0, 0.0, 0.0, 0.0, 0.0, 1.648086198965731E9, 0.0, 2022-03-23 20:43:18.965
92.0, 942.5651158825494, 639.9305415181443, 1701.84334478667, 902.2471244102344, -0.0800000037997961, 0.09600000455975533, 1.008000047877431, 0.0, 0.0, 0.0, 0.0, 0.0, 1.648086198965731E9, 0.0, 2022-03-23 20:43:18.965
93.0, 943.4963509715162, 653.8504491532221, 1714.7534794337116, 896.7083325758576, -0.0800000037997961, 0.09600000455975533, 1.008000047877431, 0.0, 0.0, 0.0, 0.0, 0.0, 1.64808619898135E9, 0.0, 2022-03-23 20:43:18.981
93.0, 946.0843617408536, 664.4755049273372, 1712.012132766191, 898.0285172602162, -0.0800000037997961, 0.09600000455975533, 1.008000047877431, 0.0, 0.0, 0.0, 0.0, 0.0, 1.64808619898135E9, 0.0, 2022-03-23 20:43:18.981
94.0, 920.7465395410545, 648.1732810204849, 1685.7580350772478, 877.9676938978955, -0.0800000037997961, 0.09600000455975533, 1.008000047877431, 0.0, 0.0, 0.0, 0.0, 0.0, 1.6480861989821854E9, 0.0, 2022-03-23 20:43:18.982
94.0, 919.9013221510686, 636.2990986611694, 1685.9861689745449, 865.5138270454481, -0.0800000037997961, 0.09600000455975533, 1.008000047877431, 0.0, 0.0, 0.0, 0.0, 0.0, 1.6480861989821854E9, 0.0, 2022-03-23 20:43:18.982
95.0, 909.5492790737189, 633.1388831986114, 1688.4021443459205, 857.7684942372143, -0.0800000037997961, 0.09600000455975533, 1.008000047877431, 0.0, 0.0, 0.0, 0.0, 0.0, 1.6480861989956567E9, 0.0, 2022-03-23 20:43:18.995
95.0, 920.9671936384402, 645.458113652654, 1700.4633217030205, 870.1064241910353, -0.0800000037997961, 0.09600000455975533, 1.008000047877431, 0.0, 0.0, 0.0, 0.0, 0.0, 1.6480861989956567E9, 0.0, 2022-03-23 20:43:18.995
96.0, 918.9513875623234, 638.7487331321463, 1683.1887238076888, 867.2790598245338, -0.0800000037997961, 0.09600000455975533, 1.008000047877431, 0.0, 0.0, 0.0, 0.0, 0.0, 1.6480861990113316E9, 0.0, 2022-03-23 20:43:19.011
96.0, 925.4999523847364, 648.7342660138384, 1686.7491085655056, 880.6641617659479, -0.0800000037997961, 0.09600000455975533, 1.008000047877431, 0.0, 0.0, 0.0, 0.0, 0.0, 1.6480861990113316E9, 0.0, 2022-03-23 20:43:19.011
97.0, 933.7838307865895, 656.7563514187932, 1695.5042143617757, 887.9831459792331, -0.0800000037997961, 0.09600000455975533, 1.008000047877431, 0.0, 0.0, 0.0, 0.0, 0.0, 1.6480861990121691E9, 0.0, 2022-03-23 20:43:19.012
97.0, 933.3425225918181, 647.3018843308091, 1688.1403513490222, 882.605169842951, -0.0800000037997961, 0.09600000455975533, 1.008000047877431, 0.0, 0.0, 0.0, 0.0, 0.0, 1.6480861990121691E9, 0.0, 2022-03-23 20:43:19.012
98.0, 915.518159403, 629.3279251437634, 1673.8651532181539, 874.7588597359136, -0.0800000037997961, 0.09600000455975533, 1.008000047877431, 0.0, 0.0, 0.0, 0.0, 0.0, 1.64808619902567E9, 0.0, 2022-03-23 20:43:19.025
98.0, 934.7412451752461, 644.2725653667003, 1696.7458611470647, 879.2467396827415, -0.0800000037997961, 0.09600000455975533, 1.008000047877431, 0.0, 0.0, 0.0, 0.0, 0.0, 1.64808619902567E9, 0.0, 2022-03-23 20:43:19.025
99.0, 939.0570897241123, 650.0843698978424, 1705.8637372390367, 886.4984056968242, -0.0800000037997961, 0.09600000455975533, 1.008000047877431, 0.0, 0.0, 0.0, 0.0, 0.0, 1.6480861990414217E9, 0.0, 2022-03-23 20:43:19.041
99.0, 932.40380770294, 652.7583983661607, 1699.9920943086036, 859.159737020731, -0.0800000037997961, 0.09600000455975533, 1.008000047877431, 0.0, 0.0, 0.0, 0.0, 0.0, 1.6480861990414217E9, 0.0, 2022-03-23 20:43:19.041
100.0, 936.6635537524708, 649.5159051045775, 1712.4534409609623, 886.7938577933237, -0.0800000037997961, 0.09600000455975533, 1.008000047877431, 0.0, 0.0, 0.0, 0.0, 0.0, 1.6480861990421743E9, 0.0, 2022-03-23 20:43:19.042
100.0, 938.155773834791, 648.3752356180921, 1706.8772501270287, 882.605169842951, -0.0800000037997961, 0.09600000455975533, 1.008000047877431, 0.0, 0.0, 0.0, 0.0, 0.0, 1.6480861990421743E9, 0.0, 2022-03-23 20:43:19.042
0.0, 944.4818146098405, 645.3571363538504, 1699.6106245131232, 887.8223302811384, -0.0800000037997961, 0.09600000455975533, 1.008000047877431, 0.0, 0.0, 0.0, 0.0, 0.0, 1.6480861990563476E9, 0.0, 2022-03-23 20:43:19.056
1.0, 933.3256930420175, 635.54363887012, 1694.6028984724544, 875.6639155251905, -0.0800000037997961, 0.09600000455975533, 1.008000047877431, 0.0, 0.0, 0.0, 0.0, 0.0, 1.6480861990570729E9, 0.0, 2022-03-23 20:43:19.057
1.0, 920.5875937929377, 647.544977827929, 1699.5507861138321, 883.7794984290376, -0.0800000037997961, 0.09600000455975533, 1.008000047877431, 0.0, 0.0, 0.0, 0.0, 0.0, 1.6480861990570729E9, 0.0, 2022-03-23 20:43:19.057
2.0, 923.6430920567364, 652.6088023679331, 1693.4958880855702, 878.3790828930214, -0.0800000037997961, 0.09600000455975533, 1.008000047877431, 0.0, 0.0, 0.0, 0.0, 0.0, 1.6480861990707004E9, 0.0, 2022-03-23 20:43:19.070
2.0, 933.1461778441444, 662.0333502562717, 1702.363190880511, 874.0669782441109, -0.0800000037997961, 0.09600000455975533, 1.008000047877431, 0.0, 0.0, 0.0, 0.0, 0.0, 1.6480861990707004E9, 0.0, 2022-03-23 20:43:19.070
3.0, 918.377312919125, 648.509872016497, 1703.350524468813, 858.1013453332707, -0.0800000037997961, 0.09600000455975533, 1.008000047877431, 0.0, 0.0, 0.0, 0.0, 0.0, 1.6480861990864928E9, 0.0, 2022-03-23 20:43:19.086
3.0, 916.3428073432297, 645.4020151533186, 1702.8718172744848, 855.6554507622495, -0.0800000037997961, 0.09600000455975533, 1.008000047877431, 0.0, 0.0, 0.0, 0.0, 0.0, 1.6480861990864928E9, 0.0, 2022-03-23 20:43:19.086
4.0, 919.8096946021542, 656.300083624199, 1696.850578345824, 856.5866858512163, -0.0800000037997961, 0.09600000455975533, 1.008000047877431, 0.0, 0.0, 0.0, 0.0, 0.0, 1.6480861990871885E9, 0.0, 2022-03-23 20:43:19.087
4.0, 920.8531266897917, 655.6568208318204, 1694.8272924697958, 861.5383133925498, -0.0800000037997961, 0.09600000455975533, 1.008000047877431, 0.0, 0.0, 0.0, 0.0, 0.0, 1.6480861990871885E9, 0.0, 2022-03-23 20:43:19.087
5.0, 919.9817300001159, 647.3243237305433, 1709.2296471991576, 855.9621225586161, -0.0800000037997961, 0.09600000455975533, 1.008000047877431, 0.0, 0.0, 0.0, 0.0, 0.0, 1.6480861991008112E9, 0.0, 2022-03-23 20:43:19.100
5.0, 920.2136037973687, 641.8266707956791, 1713.2238603518344, 862.7575207781047, -0.0800000037997961, 0.09600000455975533, 1.008000047877431, 0.0, 0.0, 0.0, 0.0, 0.0, 1.6480861991008112E9, 0.0, 2022-03-23 20:43:19.100
6.0, 919.4880632059649, 660.5972286732867, 1696.0464998553507, 859.0699794217944, -0.0800000037997961, 0.09600000455975533, 1.008000047877431, 0.0, 0.0, 0.0, 0.0, 0.0, 1.6480861991164384E9, 0.0, 2022-03-23 20:43:19.116
6.0, 915.5088096531108, 658.0877558030188, 1690.9003975163214, 852.2147428030148, -0.0800000037997961, 0.09600000455975533, 1.008000047877431, 0.0, 0.0, 0.0, 0.0, 0.0, 1.6480861991164384E9, 0.0, 2022-03-23 20:43:19.116
7.0, 925.6888173324987, 669.7637234646827, 1707.5579119189642, 864.1749428613111, -0.0800000037997961, 0.09600000455975533, 1.008000047877431, 0.0, 0.0, 0.0, 0.0, 0.0, 1.6480861991171808E9, 0.0, 2022-03-23 20:43:19.117
7.0, 914.3419608669356, 661.4536657631397, 1711.1893547759391, 862.1479170853272, -0.0800000037997961, 0.09600000455975533, 1.008000047877431, 0.0, 0.0, 0.0, 0.0, 0.0, 1.6480861991171808E9, 0.0, 2022-03-23 20:43:19.117
8.0, 910.5235230121762, 646.845616536215, 1694.0232139793225, 853.4451698884368, -0.0800000037997961, 0.09600000455975533, 1.008000047877431, 0.0, 0.0, 0.0, 0.0, 0.0, 1.6480861991307704E9, 0.0, 2022-03-23 20:43:19.130
8.0, 918.5830074166879, 651.2624383838847, 1688.817273241002, 853.045000593178, -0.0800000037997961, 0.09600000455975533, 1.008000047877431, 0.0, 0.0, 0.0, 0.0, 0.0, 1.6480861991307704E9, 0.0, 2022-03-23 20:43:19.130
9.0, 920.5950735928491, 652.4218073701486, 1699.756480611395, 850.7262626206502, -0.0800000037997961, 0.09600000455975533, 1.008000047877431, 0.0, 0.0, 0.0, 0.0, 0.0, 1.6480861991464317E9, 0.0, 2022-03-23 20:43:19.146
9.0, 918.3025149200112, 654.2767977481708, 1689.2473617359065, 858.2098024319857, -0.0800000037997961, 0.09600000455975533, 1.008000047877431, 0.0, 0.0, 0.0, 0.0, 0.0, 1.6480861991464317E9, 0.0, 2022-03-23 20:43:19.146
10.0, 904.2330112867057, 644.2650855667889, 1682.8222136120312, 857.398244141601, -0.0800000037997961, 0.09600000455975533, 1.008000047877431, 0.0, 0.0, 0.0, 0.0, 0.0, 1.6480861991471107E9, 0.0, 2022-03-23 20:43:19.147
10.0, 916.7878554379568, 645.6675480501726, 1700.8373116985895, 854.9673091704026, -0.0800000037997961, 0.09600000455975533, 1.008000047877431, 0.0, 0.0, 0.0, 0.0, 0.0, 1.6480861991471107E9, 0.0, 2022-03-23 20:43:19.147
11.0, 905.4148196727037, 642.0922036925331, 1709.491440196056, 850.5205681230873, -0.0800000037997961, 0.11200000531971455, 1.008000047877431, 0.0, 0.0, 0.0, 0.0, 0.0, 1.648086199160747E9, 0.0, 2022-03-23 20:43:19.160
11.0, 907.1015145527199, 646.8717958359048, 1695.6388507601805, 858.6959894262254, -0.0800000037997961, 0.11200000531971455, 1.008000047877431, 0.0, 0.0, 0.0, 0.0, 0.0, 1.648086199160747E9, 0.0, 2022-03-23 20:43:19.160
12.0, 904.7939962800592, 649.859975900501, 1685.731855777558, 854.2417685789987, -0.06400000303983688, 0.11200000531971455, 1.008000047877431, 0.0, 0.0, 0.0, 0.0, 0.0, 1.6480861991764913E9, 0.0, 2022-03-23 20:43:19.176
12.0, 909.3529343260452, 652.9902721634135, 1702.9727945732884, 859.0662395218387, -0.06400000303983688, 0.11200000531971455, 1.008000047877431, 0.0, 0.0, 0.0, 0.0, 0.0, 1.6480861991764913E9, 0.0, 2022-03-23 20:43:19.176
13.0, 902.4715184075758, 647.9750663228333, 1696.2185352533124, 848.594519645907, -0.06400000303983688, 0.11200000531971455, 1.008000047877431, 0.0, 0.0, 0.0, 0.0, 0.0, 1.6480861991771936E9, 0.0, 2022-03-23 20:43:19.177
13.0, 901.5141040189192, 640.356890113093, 1690.5151878208853, 855.7265088614076, -0.06400000303983688, 0.11200000531971455, 1.008000047877431, 0.0, 0.0, 0.0, 0.0, 0.0, 1.6480861991771936E9, 0.0, 2022-03-23 20:43:19.177
14.0, 902.8754276027903, 638.8796296305954, 1690.3169731232338, 846.3206604728475, -0.06400000303983688, 0.11200000531971455, 1.008000047877431, 0.0, 0.0, 0.0, 0.0, 0.0, 1.6480861991907485E9, 0.0, 2022-03-23 20:43:19.190
14.0, 908.5750351352617, 650.4097411939874, 1692.3552185990848, 850.1951968269423, -0.06400000303983688, 0.11200000531971455, 1.008000047877431, 0.0, 0.0, 0.0, 0.0, 0.0, 1.6480861991907485E9, 0.0, 2022-03-23 20:43:19.190
15.0, 917.6629920275882, 660.6944660721347, 1714.349570238497, 855.6778901619837, -0.06400000303983688, 0.11200000531971455, 1.008000047877431, 0.0, 0.0, 0.0, 0.0, 0.0, 1.6480861992064395E9, 0.0, 2022-03-23 20:43:19.206
15.0, 921.4664702825248, 661.0609762677923, 1716.6458688112907, 862.753780878149, -0.06400000303983688, 0.11200000531971455, 1.008000047877431, 0.0, 0.0, 0.0, 0.0, 0.0, 1.6480861992064395E9, 0.0, 2022-03-23 20:43:19.206
16.0, 915.650925851427, 641.0188524052501, 1684.897858087439, 849.6790906330571, -0.06400000303983688, 0.11200000531971455, 1.008000047877431, 0.0, 0.0, 0.0, 0.0, 0.0, 1.648086199207147E9, 0.0, 2022-03-23 20:43:19.207
16.0, 919.2075707092881, 641.0038928054273, 1677.0440681804903, 863.0866319742054, -0.06400000303983688, 0.11200000531971455, 1.008000047877431, 0.0, 0.0, 0.0, 0.0, 0.0, 1.648086199207147E9, 0.0, 2022-03-23 20:43:19.207
17.0, 943.4720416218042, 655.3389293355867, 1695.0030677677132, 885.982299502939, -0.06400000303983688, 0.11200000531971455, 1.008000047877431, 0.0, 0.0, 0.0, 0.0, 0.0, 1.6480861992206714E9, 0.0, 2022-03-23 20:43:19.220
17.0, 937.7013759901747, 650.2115264963359, 1693.95589578012, 881.4158816570416, -0.06400000303983688, 0.11200000531971455, 1.008000047877431, 0.0, 0.0, 0.0, 0.0, 0.0, 1.6480861992206714E9, 0.0, 2022-03-23 20:43:19.220
18.0, 934.4663625285029, 639.0329655287787, 1689.4792355331592, 877.8554968992248, -0.06400000303983688, 0.11200000531971455, 1.008000047877431, 0.0, 0.0, 0.0, 0.0, 0.0, 1.6480861992364228E9, 0.0, 2022-03-23 20:43:19.236
18.0, 936.7963202008978, 650.402261394076, 1705.3700704448856, 878.8914491869509, -0.06400000303983688, 0.11200000531971455, 1.008000047877431, 0.0, 0.0, 0.0, 0.0, 0.0, 1.6480861992364228E9, 0.0, 2022-03-23 20:43:19.236
19.0, 927.4129112120718, 660.6533271726221, 1715.4416210255586, 864.2310413606465, -0.06400000303983688, 0.11200000531971455, 1.008000047877431, 0.0, 0.0, 0.0, 0.0, 0.0, 1.64808619923722E9, 0.0, 2022-03-23 20:43:19.237
19.0, 905.2053852751851, 650.9782059872523, 1694.6402974720113, 853.1497177919373, -0.06400000303983688, 0.11200000531971455, 1.008000047877431, 0.0, 0.0, 0.0, 0.0, 0.0, 1.64808619923722E9, 0.0, 2022-03-23 20:43:19.237
20.0, 931.4033844647929, 664.9579520216212, 1712.5618980596773, 861.0334268985316, -0.06400000303983688, 0.11200000531971455, 0.9920000471174717, 0.0, 0.0, 0.0, 0.0, 0.0, 1.648086199250674E9, 0.0, 2022-03-23 20:43:19.250
20.0, 914.3531805668026, 672.7743429290131, 1710.5086929840036, 842.5358817176893, -0.06400000303983688, 0.11200000531971455, 0.9920000471174717, 0.0, 0.0, 0.0, 0.0, 0.0, 1.648086199250674E9, 0.0, 2022-03-23 20:43:19.250
21.0, 895.1151351947337, 667.5609223907813, 1716.6982274106704, 825.4707182198763, -0.06400000303983688, 0.0800000037997961, 0.9920000471174717, 0.0, 0.0, 0.0, 0.0, 0.0, 1.6480861992664587E9, 0.0, 2022-03-23 20:43:19.266
21.0, 888.6376284714788, 662.7252317480743, 1721.0252916594036, 825.6128344181925, -0.06400000303983688, 0.0800000037997961, 0.9920000471174717, 0.0, 0.0, 0.0, 0.0, 0.0, 1.6480861992664587E9, 0.0, 2022-03-23 20:43:19.266
22.0, 907.6587596461177, 675.8784598922357, 1731.7475848323666, 842.913611613214, -0.04800000227987766, 0.0800000037997961, 0.9920000471174717, 0.0, 0.0, 0.0, 0.0, 0.0, 1.648086199267162E9, 0.0, 2022-03-23 20:43:19.267
22.0, 917.255342932418, 671.147486448288, 1727.5289776823483, 855.674150262028, -0.04800000227987766, 0.0800000037997961, 0.9920000471174717, 0.0, 0.0, 0.0, 0.0, 0.0, 1.648086199267162E9, 0.0, 2022-03-23 20:43:19.267
23.0, 935.9698023106903, 670.2349508590996, 1727.8917479780503, 868.7151814075187, -0.04800000227987766, 0.0800000037997961, 0.9920000471174717, 0.0, 0.0, 0.0, 0.0, 0.0, 1.6480861992806916E9, 0.0, 2022-03-23 20:43:19.280
23.0, 957.3620300572366, 668.047109385021, 1709.6672154939733, 889.7857777578756, -0.04800000227987766, 0.0800000037997961, 0.9920000471174717, 0.0, 0.0, 0.0, 0.0, 0.0, 1.6480861992806916E9, 0.0, 2022-03-23 20:43:19.280
24.0, 965.5673705600202, 675.5381289962679, 1725.6590277045034, 903.4401524960995, -0.04800000227987766, 0.0800000037997961, 0.9920000471174717, 0.0, 0.0, 0.0, 0.0, 0.0, 1.64808619929648E9, 0.0, 2022-03-23 20:43:19.296
24.0, 962.530571796, 681.7276634229347, 1745.4243989703245, 906.64150685817, -0.04800000227987766, 0.0800000037997961, 0.9920000471174717, 0.0, 0.0, 0.0, 0.0, 0.0, 1.64808619929648E9, 0.0, 2022-03-23 20:43:19.296
25.0, 943.2027688249946, 675.9981366908178, 1743.7601434900425, 881.5991367548704, -0.04800000227987766, 0.0800000037997961, 0.9920000471174717, 0.0, 0.0, 0.0, 0.0, 0.0, 1.6480861992971609E9, 0.0, 2022-03-23 20:43:19.297
25.0, 931.3772051651031, 679.1845314530656, 1744.1079541859217, 865.8504180414602, -0.04800000227987766, 0.0800000037997961, 0.9920000471174717, 0.0, 0.0, 0.0, 0.0, 0.0, 1.6480861992971609E9, 0.0, 2022-03-23 20:43:19.297
26.0, 941.340298647061, 697.4502028366551, 1760.047407797072, 870.3943964876235, -0.04800000227987766, 0.0800000037997961, 0.9920000471174717, 0.0, 0.0, 0.0, 0.0, 0.0, 1.6480861993107588E9, 0.0, 2022-03-23 20:43:19.310
26.0, 952.0700716199353, 702.8431385727599, 1768.720235794317, 874.2390136420727, -0.04800000227987766, 0.0800000037997961, 0.9920000471174717, 0.0, 0.0, 0.0, 0.0, 0.0, 1.6480861993107588E9, 0.0, 2022-03-23 20:43:19.310
27.0, 950.7798061352223, 690.890418314375, 1736.0821288810112, 879.9423610744998, -0.04800000227987766, 0.0800000037997961, 0.9920000471174717, 0.0, 0.0, 0.0, 0.0, 0.0, 1.648086199326417E9, 0.0, 2022-03-23 20:43:19.326
27.0, 955.559398278594, 711.1270169746131, 1770.6799433710985, 880.5220455676317, -0.04800000227987766, 0.0800000037997961, 0.9920000471174717, 0.0, 0.0, 0.0, 0.0, 0.0, 1.648086199326417E9, 0.0, 2022-03-23 20:43:19.326
28.0, 955.1180900838226, 723.2031539315358, 1794.5105858887546, 879.7254468770698, -0.04800000227987766, 0.0800000037997961, 0.9920000471174717, 0.0, 0.0, 0.0, 0.0, 0.0, 1.648086199327149E9, 0.0, 2022-03-23 20:43:19.327
28.0, 937.9482093872502, 709.1486098980531, 1767.5571269080974, 868.9919340042397, -0.04800000227987766, 0.0800000037997961, 0.9920000471174717, 0.0, 0.0, 0.0, 0.0, 0.0, 1.648086199327149E9, 0.0, 2022-03-23 20:43:19.327
29.0, 935.12832482066, 690.0040620248765, 1748.435018434655, 861.8898639883846, -0.04800000227987766, 0.0800000037997961, 0.9920000471174717, 0.0, 0.0, 0.0, 0.0, 0.0, 1.6480861993408327E9, 0.0, 2022-03-23 20:43:19.340
29.0, 955.4434613799676, 699.0209608180448, 1762.605499366764, 881.1129497606307, -0.04800000227987766, 0.0800000037997961, 0.9920000471174717, 0.0, 0.0, 0.0, 0.0, 0.0, 1.6480861993408327E9, 0.0, 2022-03-23 20:43:19.340
30.0, 965.3953351620585, 693.2689946861938, 1760.421397792641, 899.3038231451064, -0.04800000227987766, 0.0800000037997961, 0.9920000471174717, 0.0, 0.0, 0.0, 0.0, 0.0, 1.648086199356263E9, 0.0, 2022-03-23 20:43:19.356
30.0, 978.8066164031625, 679.6220997478813, 1757.7473693243228, 910.0223764181137, -0.04800000227987766, 0.0800000037997961, 0.9920000471174717, 0.0, 0.0, 0.0, 0.0, 0.0, 1.648086199356263E9, 0.0, 2022-03-23 20:43:19.356
31.0, 988.7472704853863, 702.106378281489, 1754.9761034571566, 917.8873860249296, -0.04800000227987766, 0.06400000303983688, 0.9920000471174717, 0.0, 0.0, 0.0, 0.0, 0.0, 1.648086199371442E9, 0.0, 2022-03-23 20:43:19.371
31.0, 998.3962123710662, 709.9526883885264, 1774.629277724307, 930.6292251739651, -0.04800000227987766, 0.06400000303983688, 0.9920000471174717, 0.0, 0.0, 0.0, 0.0, 0.0, 1.648086199371442E9, 0.0, 2022-03-23 20:43:19.371
32.0, 1002.1884709261358, 697.4950816361234, 1767.3551723104902, 923.538374857977, 0.0, 0.06400000303983688, 0.9920000471174717, 0.0, 0.0, 0.0, 0.0, 0.0, 1.648086199372183E9, 0.0, 2022-03-23 20:43:19.372
32.0, 990.7742962613702, 689.5440543303266, 1763.2899010586552, 925.3746657362208, 0.0, 0.06400000303983688, 0.9920000471174717, 0.0, 0.0, 0.0, 0.0, 0.0, 1.648086199372183E9, 0.0, 2022-03-23 20:43:19.372
33.0, 1001.7471627313644, 680.1456857416779, 1764.366992245894, 933.0938192447647, 0.0, 0.06400000303983688, 0.9920000471174717, 0.0, 0.0, 0.0, 0.0, 0.0, 1.64808619938641E9, 0.0, 2022-03-23 20:43:19.386
33.0, 998.2952350722626, 674.1543660126626, 1749.5233293217607, 925.7224764320999, 0.0, 0.06400000303983688, 0.9920000471174717, 0.0, 0.0, 0.0, 0.0, 0.0, 1.64808619938641E9, 0.0, 2022-03-23 20:43:19.386
34.0, 1009.2755813421682, 699.7577211093158, 1754.837727158796, 935.0348273217678, 0.0, 0.06400000303983688, 0.9920000471174717, 0.0, 0.0, 0.0, 0.0, 0.0, 1.6480861993871808E9, 0.0, 2022-03-23 20:43:19.387
34.0, 1018.8497252287343, 698.6170516228303, 1749.7178041194566, 931.3921647649258, 0.0, 0.06400000303983688, 0.9920000471174717, 0.0, 0.0, 0.0, 0.0, 0.0, 1.6480861993871808E9, 0.0, 2022-03-23 20:43:19.387
35.0, 1015.57357286755, 698.8564052199945, 1757.2200434305705, 933.6884633377194, 0.0, 0.06400000303983688, 0.9920000471174717, 0.0, 0.0, 0.0, 0.0, 0.0, 1.6480861994007866E9, 0.0, 2022-03-23 20:43:19.400
35.0, 1015.947562863119, 701.7922266852111, 1760.8178271879442, 937.0057545984164, 0.0, 0.06400000303983688, 0.9920000471174717, 0.0, 0.0, 0.0, 0.0, 0.0, 1.6480861994007866E9, 0.0, 2022-03-23 20:43:19.400
36.0, 1011.2465086188167, 700.7113955980167, 1762.5718402671628, 941.1944425487891, 0.0, 0.06400000303983688, 0.9920000471174717, 0.0, 0.0, 0.0, 0.0, 0.0, 1.648086199416391E9, 0.0, 2022-03-23 20:43:19.416
36.0, 1007.0391211686656, 696.9004375431687, 1759.856672899332, 936.5382671039551, 0.0, 0.06400000303983688, 0.9920000471174717, 0.0, 0.0, 0.0, 0.0, 0.0, 1.648086199416391E9, 0.0, 2022-03-23 20:43:19.416
37.0, 1011.7962739123031, 696.4404298486188, 1761.1955570834689, 940.6558969551697, 0.0, 0.06400000303983688, 0.9920000471174717, 0.0, 0.0, 0.0, 0.0, 0.0, 1.6480861994171329E9, 0.0, 2022-03-23 20:43:19.417
37.0, 1008.5388210508972, 694.9856087658554, 1779.1096778712235, 953.4575745034963, 0.0, 0.06400000303983688, 0.9920000471174717, 0.0, 0.0, 0.0, 0.0, 0.0, 1.6480861994171329E9, 0.0, 2022-03-23 20:43:19.417
38.0, 1009.3989980407059, 701.5827922876924, 1775.9045836091973, 955.0320723848417, 0.0, 0.06400000303983688, 0.9920000471174717, 0.0, 0.0, 0.0, 0.0, 0.0, 1.6480861994307196E9, 0.0, 2022-03-23 20:43:19.430
38.0, 1019.6912027187645, 699.9895949065685, 1767.6768037066795, 953.7455468000844, 0.0, 0.06400000303983688, 0.9920000471174717, 0.0, 0.0, 0.0, 0.0, 0.0, 1.6480861994307196E9, 0.0, 2022-03-23 20:43:19.430
39.0, 1025.3272319519892, 708.8419381016865, 1765.8479926283471, 963.2336729876697, 0.0, 0.06400000303983688, 0.9920000471174717, 0.0, 0.0, 0.0, 0.0, 0.0, 1.648086199446493E9, 0.0, 2022-03-23 20:43:19.446
39.0, 1012.9406832987443, 708.8381982017308, 1756.2289699423127, 952.3804833162576, 0.0, 0.06400000303983688, 0.9920000471174717, 0.0, 0.0, 0.0, 0.0, 0.0, 1.648086199446493E9, 0.0, 2022-03-23 20:43:19.446
40.0, 993.7213374264538, 697.4240235369653, 1748.592094232794, 934.2307488312945, 0.0, 0.06400000303983688, 1.008000047877431, 0.0, 0.0, 0.0, 0.0, 0.0, 1.6480861994471252E9, 0.0, 2022-03-23 20:43:19.447
40.0, 985.1233074283227, 695.5914725586772, 1748.0647683390416, 914.0091097708791, 0.0, 0.06400000303983688, 1.008000047877431, 0.0, 0.0, 0.0, 0.0, 0.0, 1.6480861994471252E9, 0.0, 2022-03-23 20:43:19.447
41.0, 992.9097791360691, 693.9234771784395, 1770.1264381776564, 929.2155429907143, 0.0, -0.03200000151991844, 1.008000047877431, 0.0, 0.0, 0.0, 0.0, 0.0, 1.6480861994607737E9, 0.0, 2022-03-23 20:43:19.460
41.0, 988.0329495938495, 679.4351047500968, 1755.6866844487377, 920.9690635884181, 0.0, -0.03200000151991844, 1.008000047877431, 0.0, 0.0, 0.0, 0.0, 0.0, 1.6480861994607737E9, 0.0, 2022-03-23 20:43:19.460
42.0, 984.5585825350136, 669.2251778710634, 1756.9208514341153, 919.0617146110162, 0.0, -0.03200000151991844, 1.008000047877431, 0.0, 0.0, 0.0, 0.0, 0.0, 1.64808619947639E9, 0.0, 2022-03-23 20:43:19.476
42.0, 986.783823008649, 688.0480943480507, 1757.94932392193, 926.4293175237253, 0.0, -0.03200000151991844, 1.008000047877431, 0.0, 0.0, 0.0, 0.0, 0.0, 1.64808619947639E9, 0.0, 2022-03-23 20:43:19.476
43.0, 988.9118260834366, 693.5868861824274, 1765.9639295269735, 925.5392213342711, 0.0, -0.03200000151991844, 1.008000047877431, 0.0, 0.0, 0.0, 0.0, 0.0, 1.648086199477138E9, 0.0, 2022-03-23 20:43:19.477
43.0, 989.0726417815313, 681.6379058239982, 1755.7016440485604, 921.7694021789357, 0.0, -0.03200000151991844, 1.008000047877431, 0.0, 0.0, 0.0, 0.0, 0.0, 1.648086199477138E9, 0.0, 2022-03-23 20:43:19.477
44.0, 977.3966741198674, 659.7707107830793, 1716.571070812177, 909.6371667226776, 0.0, -0.03200000151991844, 1.008000047877431, 0.0, 0.0, 0.0, 0.0, 0.0, 1.648086199490772E9, 0.0, 2022-03-23 20:43:19.490
44.0, 984.625900734216, 663.2188985422254, 1737.6304474626668, 918.8223610138521, 0.0, -0.03200000151991844, 1.008000047877431, 0.0, 0.0, 0.0, 0.0, 0.0, 1.648086199490772E9, 0.0, 2022-03-23 20:43:19.490
45.0, 988.1601061923429, 674.5021767085418, 1751.8607667940669, 925.7748350314796, 0.0, -0.03200000151991844, 1.008000047877431, 0.0, 0.0, 0.0, 0.0, 0.0, 1.6480861995064297E9, 0.0, 2022-03-23 20:43:19.506
45.0, 985.2317645270377, 680.5084560373798, 1740.3830138300546, 919.3459470076486, 0.0, -0.03200000151991844, 1.008000047877431, 0.0, 0.0, 0.0, 0.0, 0.0, 1.6480861995064297E9, 0.0, 2022-03-23 20:43:19.506
46.0, 972.3141500800848, 677.2659627757967, 1737.170439768117, 911.5482556000352, 0.0, -0.03200000151991844, 1.008000047877431, 0.0, 0.0, 0.0, 0.0, 0.0, 1.6480861995071373E9, 0.0, 2022-03-23 20:43:19.507
46.0, 962.736266293563, 671.7757896408439, 1751.2062843018211, 907.1538731520995, 0.0, -0.03200000151991844, 1.008000047877431, 0.0, 0.0, 0.0, 0.0, 0.0, 1.6480861995071373E9, 0.0, 2022-03-23 20:43:19.507
47.0, 955.2863855818287, 661.7191986599937, 1740.5176502284594, 897.9387596612796, 0.0, -0.03200000151991844, 1.008000047877431, 0.0, 0.0, 0.0, 0.0, 0.0, 1.64808619952072E9, 0.0, 2022-03-23 20:43:19.520
47.0, 955.7127341767773, 655.6605607317761, 1728.6509476690553, 891.8464626334608, 0.0, -0.03200000151991844, 1.008000047877431, 0.0, 0.0, 0.0, 0.0, 0.0, 1.64808619952072E9, 0.0, 2022-03-23 20:43:19.520
48.0, 963.7086402820423, 660.3204760765657, 1727.0689699877985, 889.3369897631928, 0.0, -0.03200000151991844, 1.008000047877431, 0.0, 0.0, 0.0, 0.0, 0.0, 1.6480861995364175E9, 0.0, 2022-03-23 20:43:19.536
48.0, 973.854988861829, 659.2770439889282, 1733.538996911142, 898.5147042544559, 0.0, -0.03200000151991844, 1.008000047877431, 0.0, 0.0, 0.0, 0.0, 0.0, 1.6480861995364175E9, 0.0, 2022-03-23 20:43:19.536
49.0, 958.3231843458489, 646.4304876411334, 1703.6347568654455, 883.1100563369691, 0.0, -0.03200000151991844, 1.008000047877431, 0.0, 0.0, 0.0, 0.0, 0.0, 1.6480861995371602E9, 0.0, 2022-03-23 20:43:19.537
49.0, 953.0461855083704, 650.0881097977981, 1693.5482466849498, 881.1914876597002, 0.0, -0.03200000151991844, 1.008000047877431, 0.0, 0.0, 0.0, 0.0, 0.0, 1.6480861995371602E9, 0.0, 2022-03-23 20:43:19.537
50.0, 946.7706333827227, 649.8038774011657, 1707.4606745201163, 886.5545041961595, 0.0, -0.03200000151991844, 0.9920000471174717, 0.0, 0.0, 0.0, 0.0, 0.0, 1.6480861995507653E9, 0.0, 2022-03-23 20:43:19.550
50.0, 945.4878476979211, 638.1428693393245, 1703.930208961945, 880.2153737712651, 0.0, -0.03200000151991844, 0.9920000471174717, 0.0, 0.0, 0.0, 0.0, 0.0, 1.6480861995507653E9, 0.0, 2022-03-23 20:43:19.550
51.0, 938.9205833757296, 624.5034542009234, 1707.801005416084, 873.1918416544795, 0.0, -0.01600000075995922, 0.9920000471174717, 0.0, 0.0, 0.0, 0.0, 0.0, 1.6480861995663524E9, 0.0, 2022-03-23 20:43:19.566
51.0, 925.8496330305934, 611.4100644560531, 1686.442436769139, 867.7054084194824, 0.0, -0.01600000075995922, 0.9920000471174717, 0.0, 0.0, 0.0, 0.0, 0.0, 1.6480861995663524E9, 0.0, 2022-03-23 20:43:19.566
52.0, 920.2996214963496, 610.5536273662001, 1663.9955572350882, 855.9583826586604, 0.0, -0.01600000075995922, 0.9920000471174717, 0.0, 0.0, 0.0, 0.0, 0.0, 1.6480861995671556E9, 0.0, 2022-03-23 20:43:19.567
52.0, 933.3406526418403, 611.88129185047, 1687.033340962138, 881.6477554542944, 0.0, -0.01600000075995922, 0.9920000471174717, 0.0, 0.0, 0.0, 0.0, 0.0, 1.6480861995671556E9, 0.0, 2022-03-23 20:43:19.567
53.0, 924.443430647254, 620.2100490517914, 1683.211163207423, 881.6290559545159, 0.0, -0.01600000075995922, 0.9920000471174717, 0.0, 0.0, 0.0, 0.0, 0.0, 1.6480861995807304E9, 0.0, 2022-03-23 20:43:19.580
53.0, 924.82864034269, 601.1178597779945, 1651.4855918833055, 867.7914261184633, 0.0, -0.01600000075995922, 0.9920000471174717, 0.0, 0.0, 0.0, 0.0, 0.0, 1.6480861995807304E9, 0.0, 2022-03-23 20:43:19.580
54.0, 924.6940039442852, 595.4332118453458, 1651.3621751847677, 863.7598139662296, 0.0, -0.01600000075995922, 0.9920000471174717, 0.0, 0.0, 0.0, 0.0, 0.0, 1.648086199596373E9, 0.0, 2022-03-23 20:43:19.596
54.0, 922.7380362674594, 606.5444546137005, 1665.03524942277, 870.6374899847433, 0.0, -0.01600000075995922, 0.9920000471174717, 0.0, 0.0, 0.0, 0.0, 0.0, 1.648086199596373E9, 0.0, 2022-03-23 20:43:19.596
55.0, 915.591087452136, 598.8963592043146, 1667.3689469951205, 873.4685942512006, 0.0, -0.01600000075995922, 0.9920000471174717, 0.0, 0.0, 0.0, 0.0, 0.0, 1.6480861995971315E9, 0.0, 2022-03-23 20:43:19.597
55.0, 1010.7827610243112, 597.4639775212854, 1660.053702681791, 885.4100948097184, 0.0, -0.01600000075995922, 0.9920000471174717, 0.0, 0.0, 0.0, 0.0, 0.0, 1.6480861995971315E9, 0.0, 2022-03-23 20:43:19.597
56.0, 1202.463853453286, 604.8839390333742, 1674.7851686072536, 907.6251005465165, 0.0, -0.01600000075995922, 0.9920000471174717, 0.0, 0.0, 0.0, 0.0, 0.0, 1.648086199610751E9, 0.0, 2022-03-23 20:43:19.610
56.0, 1019.9473858657293, 575.9184138765559, 1653.0413902648725, 1024.388517063111, 0.0, -0.01600000075995922, 0.9920000471174717, 0.0, 0.0, 0.0, 0.0, 0.0, 1.648086199610751E9, 0.0, 2022-03-23 20:43:19.610
57.0, 843.0033692121506, 538.9719422142953, 1616.2781737004407, 1233.5648614848033, 0.0, -0.01600000075995922, 0.9920000471174717, 0.0, 0.0, 0.0, 0.0, 0.0, 1.6480861996264665E9, 0.0, 2022-03-23 20:43:19.626
57.0, 792.6175670591183, 502.66499344445765, 1565.5127717019059, 1036.9040922648273, 0.0, -0.01600000075995922, 0.9920000471174717, 0.0, 0.0, 0.0, 0.0, 0.0, 1.6480861996264665E9, 0.0, 2022-03-23 20:43:19.626
58.0, 707.2524806205183, 459.5813459549099, 1509.705984563101, 875.7798524238169, 0.0, -0.01600000075995922, 0.9920000471174717, 0.0, 0.0, 0.0, 0.0, 0.0, 1.64808619962707E9, 0.0, 2022-03-23 20:43:19.627
58.0, 771.7545351563022, 360.18602483253926, 1406.7727180826478, 965.8777822563425, 0.0, -0.01600000075995922, 0.9920000471174717, 0.0, 0.0, 0.0, 0.0, 0.0, 1.64808619962707E9, 0.0, 2022-03-23 20:43:19.627
59.0, 801.3670630054548, 276.89845281932503, 1322.767085277941, 1098.9770817793906, 0.0, -0.01600000075995922, 0.9920000471174717, 0.0, 0.0, 0.0, 0.0, 0.0, 1.6480861996407728E9, 0.0, 2022-03-23 20:43:19.640
59.0, 761.1837079315446, 157.97337412834167, 1210.267154710833, 1091.0279244235717, 0.0, -0.01600000075995922, 0.9920000471174717, 0.0, 0.0, 0.0, 0.0, 0.0, 1.6480861996407728E9, 0.0, 2022-03-23 20:43:19.640
60.0, 747.9818610879593, 80.46768744662404, 1131.0074549498968, 1142.2196750170551, 0.0, -0.01600000075995922, 1.0240000486373901, 0.0, 0.0, 0.0, 0.0, 0.0, 1.6480861996565251E9, 0.0, 2022-03-23 20:43:19.656
60.0, 982.1800061631948, 19.817729865200818, 1080.8292172444053, 1355.4126719911583, 0.0, -0.01600000075995922, 1.0240000486373901, 0.0, 0.0, 0.0, 0.0, 0.0, 1.6480861996565251E9, 0.0, 2022-03-23 20:43:19.656
61.0, 1204.7040535267442, -50.35401300340891, 1012.5984824527986, 1486.986092332285, 0.0, 0.06400000303983688, 1.0240000486373901, 0.0, 0.0, 0.0, 0.0, 0.0, 1.6480861996570857E9, 0.0, 2022-03-23 20:43:19.657
61.0, 979.1918260985985, -38.24421694688499, 1013.6643539401703, 1527.1152188568376, 0.0, 0.06400000303983688, 1.0240000486373901, 0.0, 0.0, 0.0, 0.0, 0.0, 1.6480861996570857E9, 0.0, 2022-03-23 20:43:19.657
62.0, 1092.9277936010621, -34.64269328955561, 1025.1047079046257, 1383.215088261757, 0.01600000075995922, 0.06400000303983688, 1.0240000486373901, 0.0, 0.0, 0.0, 0.0, 0.0, 1.648086199670725E9, 0.0, 2022-03-23 20:43:19.670
62.0, 968.3105871775188, -27.72013847157359, 1029.4654312529601, 1154.0788977765478, 0.01600000075995922, 0.06400000303983688, 1.0240000486373901, 0.0, 0.0, 0.0, 0.0, 0.0, 1.648086199670725E9, 0.0, 2022-03-23 20:43:19.670
63.0, 1197.8375972080976, -8.343716801144183, 1037.7006909553893, 1059.71374209458, 0.01600000075995922, 0.06400000303983688, 1.0240000486373901, 0.0, 0.0, 0.0, 0.0, 0.0, 1.648086199686346E9, 0.0, 2022-03-23 20:43:19.686
63.0, 1332.5431837621145, -0.7180607914924622, 1061.3106793756597, 842.5265319678001, 0.01600000075995922, 0.06400000303983688, 1.0240000486373901, 0.0, 0.0, 0.0, 0.0, 0.0, 1.648086199686346E9, 0.0, 2022-03-23 20:43:19.686
64.0, 1492.9568426115438, 3.9343747533857822, 1061.0750656784512, 633.3875865456648, 0.01600000075995922, 0.06400000303983688, 1.0240000486373901, 0.0, 0.0, 0.0, 0.0, 0.0, 1.6480861996870859E9, 0.0, 2022-03-23 20:43:19.687
64.0, 1455.4867849554867, 36.26580987032503, 1078.349663573783, 402.59836028004065, 0.01600000075995922, 0.06400000303983688, 1.0240000486373901, 0.0, 0.0, 0.0, 0.0, 0.0, 1.6480861996870859E9, 0.0, 2022-03-23 20:43:19.687
65.0, 1222.7715102126822, 74.20709492079914, 1122.3421067525633, 594.2588832592592, 0.01600000075995922, 0.06400000303983688, 1.0240000486373901, 0.0, 0.0, 0.0, 0.0, 0.0, 1.648086199700741E9, 0.0, 2022-03-23 20:43:19.700
65.0, 1213.354442124255, 90.0792303327471, 1149.3441844326444, 787.0675555248745, 0.01600000075995922, 0.06400000303983688, 1.0240000486373901, 0.0, 0.0, 0.0, 0.0, 0.0, 1.648086199700741E9, 0.0, 2022-03-23 20:43:19.700
66.0, 1005.6478783851489, 85.76338578388095, 1184.241190919187, 937.5854390915483, 0.01600000075995922, 0.06400000303983688, 1.0240000486373901, 0.0, 0.0, 0.0, 0.0, 0.0, 1.6480861997164507E9, 0.0, 2022-03-23 20:43:19.716
66.0, 836.424885190092, 151.20789510849863, 1202.0318950084038, 1177.5916487979703, 0.01600000075995922, 0.06400000303983688, 1.0240000486373901, 0.0, 0.0, 0.0, 0.0, 0.0, 1.6480861997164507E9, 0.0, 2022-03-23 20:43:19.716
67.0, 857.9966281345114, 172.23735255934298, 1198.6248461487703, 953.2948888554238, 0.01600000075995922, 0.06400000303983688, 1.0240000486373901, 0.0, 0.0, 0.0, 0.0, 0.0, 1.6480861997171834E9, 0.0, 2022-03-23 20:43:19.717
67.0, 1076.5919105946086, 186.65466688852757, 1223.9177895491011, 834.953234557528, 0.01600000075995922, 0.06400000303983688, 1.0240000486373901, 0.0, 0.0, 0.0, 0.0, 0.0, 1.6480861997171834E9, 0.0, 2022-03-23 20:43:19.717
68.0, 1034.6601522914134, 208.10673303436488, 1253.3246229006909, 783.0135039729066, 0.01600000075995922, 0.06400000303983688, 1.0240000486373901, 0.0, 0.0, 0.0, 0.0, 0.0, 1.6480861997307596E9, 0.0, 2022-03-23 20:43:19.730
68.0, 871.4471783251502, 212.2505421852693, 1254.2670776895247, 677.0116495788097, 0.01600000075995922, 0.06400000303983688, 1.0240000486373901, 0.0, 0.0, 0.0, 0.0, 0.0, 1.6480861997307596E9, 0.0, 2022-03-23 20:43:19.730
69.0, 826.3103257599287, 184.3808077154681, 1233.0917641404085, 736.9547660686076, 0.01600000075995922, 0.06400000303983688, 1.0240000486373901, 0.0, 0.0, 0.0, 0.0, 0.0, 1.648086199762745E9, 0.0, 2022-03-23 20:43:19.762
69.0, 712.8978596036322, 186.0862020952627, 1230.3391977730207, 871.9875938687474, 0.01600000075995922, 0.06400000303983688, 1.0240000486373901, 0.0, 0.0, 0.0, 0.0, 0.0, 1.648086199762745E9, 0.0, 2022-03-23 20:43:19.762
70.0, 703.7762436117046, 164.88096934650093, 1215.271140851546, 1005.382345488295, 0.01600000075995922, 0.06400000303983688, 1.0400000493973494, 0.0, 0.0, 0.0, 0.0, 0.0, 1.648086199763468E9, 0.0, 2022-03-23 20:43:19.763
70.0, 654.5180212953128, 157.80507863033563, 1210.2222759113647, 988.2872627908364, 0.01600000075995922, 0.06400000303983688, 1.0400000493973494, 0.0, 0.0, 0.0, 0.0, 0.0, 1.648086199763468E9, 0.0, 2022-03-23 20:43:19.763
71.0, 642.6662783357315, 159.73112710751593, 1210.9590362026356, 1132.0041382880881, 0.01600000075995922, 0.09600000455975533, 1.0400000493973494, 0.0, 0.0, 0.0, 0.0, 0.0, 1.648086199764321E9, 0.0, 2022-03-23 20:43:19.764
71.0, 605.3645161776803, 168.46753340400755, 1216.2435148400255, 921.2570358850062, 0.01600000075995922, 0.09600000455975533, 1.0400000493973494, 0.0, 0.0, 0.0, 0.0, 0.0, 1.648086199764321E9, 0.0, 2022-03-23 20:43:19.764
72.0, 621.4049470876344, 165.57285083830357, 1208.9357503266074, 706.0220535350963, 0.03200000151991844, 0.09600000455975533, 1.0400000493973494, 0.0, 0.0, 0.0, 0.0, 0.0, 1.6480861997649643E9, 0.0, 2022-03-23 20:43:19.764
72.0, 734.1816302514635, 182.44727943837643, 1244.3638226068579, 858.9708720729686, 0.03200000151991844, 0.09600000455975533, 1.0400000493973494, 0.0, 0.0, 0.0, 0.0, 0.0, 1.6480861997649643E9, 0.0, 2022-03-23 20:43:19.764
73.0, 720.5534348129295, 194.56829519476742, 1255.699459372554, 639.5696411724202, 0.03200000151991844, 0.09600000455975533, 1.0400000493973494, 0.0, 0.0, 0.0, 0.0, 0.0, 1.6480861997757475E9, 0.0, 2022-03-23 20:43:19.775
