%OpenBCI Raw EEG Data
%Number of channels = 4
%Sample Rate = 200 Hz
%Board = OpenBCI_GUI$BoardGanglionBLE
Sample Index, EXG Channel 0, EXG Channel 1, EXG Channel 2, EXG Channel 3, Accel Channel 0, Accel Channel 1, Accel Channel 2, Other, Other, Other, Other, Other, Timestamp, Other, Timestamp (Formatted)
2.0, 1.3912427835166454, 11.324417065829039, 0.19073489774018526, -3.9680338529869914, -0.17600000835955143, 0.0, 0.0, 0.0, 0.0, 0.0, 0.0, 0.0, 1.648336032927343E9, 0.0, 2022-03-26 18:07:12.927
2.0, 2.1915813740342855, 6.885155818425119, 0.9499345887452364, -12.48004615213722, -0.17600000835955143, 0.0, 0.0, 0.0, 0.0, 0.0, 0.0, 0.0, 1.648336032927343E9, 0.0, 2022-03-26 18:07:12.927
3.0, 5.62106963340193, 14.286417830735445, 1.1481492863968015, 6.604663321748376, -0.17600000835955143, 0.0, 0.0, 0.0, 0.0, 0.0, 0.0, 0.0, 1.6483360329417496E9, 0.0, 2022-03-26 18:07:12.941
3.0, 11.197260467335582, 26.92727968096733, 12.308010754175484, 22.016791039146483, -0.17600000835955143, 0.0, 0.0, 0.0, 0.0, 0.0, 0.0, 0.0, 1.6483360329417496E9, 0.0, 2022-03-26 18:07:12.941
4.0, 4.050311652012169, 15.599122715182602, 2.857283566147089, 17.128741797059774, -0.17600000835955143, 0.0, 0.0, 0.0, 0.0, 0.0, 0.0, 0.0, 1.6483360329425228E9, 0.0, 2022-03-26 18:07:12.942
4.0, -3.298591760918498, 20.778884153813124, -1.3426240840926766, 6.3391304248943925, -0.17600000835955143, 0.0, 0.0, 0.0, 0.0, 0.0, 0.0, 0.0, 1.6483360329425228E9, 0.0, 2022-03-26 18:07:12.942
5.0, 3.6351827569305897, 25.40140049904585, 10.251065778546035, 15.023178122006357, -0.17600000835955143, 0.0, 0.0, 0.0, 0.0, 0.0, 0.0, 0.0, 1.648336032956172E9, 0.0, 2022-03-26 18:07:12.956
5.0, 4.959107341244817, 23.430473222397268, 5.905302030034363, 18.07493648584932, -0.17600000835955143, 0.0, 0.0, 0.0, 0.0, 0.0, 0.0, 0.0, 1.648336032956172E9, 0.0, 2022-03-26 18:07:12.956
6.0, -1.933528277091682, 24.9002539049834, 3.335990760475397, -8.972019993700087, -0.17600000835955143, 0.0, 0.0, 0.0, 0.0, 0.0, 0.0, 0.0, 1.6483360329717364E9, 0.0, 2022-03-26 18:07:12.971
6.0, 17.944039987400174, 33.81617539934814, 3.3920892598107457, 4.83943054266274, -0.17600000835955143, 0.0, 0.0, 0.0, 0.0, 0.0, 0.0, 0.0, 1.6483360329717364E9, 0.0, 2022-03-26 18:07:12.971
7.0, 25.195706001482904, 24.690819507464767, 6.5784840220585465, 16.96418619900942, -0.17600000835955143, 0.0, 0.0, 0.0, 0.0, 0.0, 0.0, 0.0, 1.6483360329724867E9, 0.0, 2022-03-26 18:07:12.972
7.0, 14.86984222382307, 12.85403614770621, 1.1743285860866308, 6.264332425780594, -0.17600000835955143, 0.0, 0.0, 0.0, 0.0, 0.0, 0.0, 0.0, 1.6483360329724867E9, 0.0, 2022-03-26 18:07:12.972
8.0, 6.7430396201089025, 16.373282006010413, 5.688387832604349, 11.919061158783734, -0.17600000835955143, 0.0, 0.0, 0.0, 0.0, 0.0, 0.0, 0.0, 1.64833603298621E9, 0.0, 2022-03-26 18:07:12.986
8.0, 8.968280093744397, 21.822316241450608, 9.27121199015528, 10.45302037615329, -0.17600000835955143, 0.0, 0.0, 0.0, 0.0, 0.0, 0.0, 0.0, 1.64833603298621E9, 0.0, 2022-03-26 18:07:12.986
9.0, 3.6875413563102484, 13.418761041015387, -3.2237937618047, 13.347702941857278, -0.17600000835955143, 0.0, 0.0, 0.0, 0.0, 0.0, 0.0, 0.0, 1.6483360330181377E9, 0.0, 2022-03-26 18:07:13.018
9.0, 9.155275091528893, 17.790704089216888, 2.1878414740785956, 4.5664178458973765, -0.17600000835955143, 0.0, 0.0, 0.0, 0.0, 0.0, 0.0, 0.0, 1.6483360330181377E9, 0.0, 2022-03-26 18:07:13.018
10.0, -2.053205075673759, 19.36146207060665, 4.674874944612384, 1.3127048844471574, -0.17600000835955143, 0.0, 0.9920000471174717, 0.0, 0.0, 0.0, 0.0, 0.0, 1.648336033018904E9, 0.0, 2022-03-26 18:07:13.018
10.0, 4.682354744523764, 19.3427625708282, 5.142362439073622, 21.848495541140437, -0.17600000835955143, 0.0, 0.9920000471174717, 0.0, 0.0, 0.0, 0.0, 0.0, 1.648336033018904E9, 0.0, 2022-03-26 18:07:13.018
11.0, 10.385702176950872, 13.220546343363822, 5.995059628970921, 10.89058867096901, -0.17600000835955143, 0.20800000987946987, 0.9920000471174717, 0.0, 0.0, 0.0, 0.0, 0.0, 1.6483360330197308E9, 0.0, 2022-03-26 18:07:13.019
11.0, -7.924848006106913, 5.688387832604349, -9.959353582002223, -13.411281241104007, -0.17600000835955143, 0.20800000987946987, 0.9920000471174717, 0.0, 0.0, 0.0, 0.0, 0.0, 1.6483360330197308E9, 0.0, 2022-03-26 18:07:13.019
12.0, 8.998199293389916, 12.139715256169438, -7.23670641425997, 11.578730262815952, -0.17600000835955143, 0.20800000987946987, 0.9920000471174717, 0.0, 0.0, 0.0, 0.0, 0.0, 1.6483360330203907E9, 0.0, 2022-03-26 18:07:13.020
12.0, -3.4444478591904044, 22.323462835513055, 6.84027701895684, 14.09942283295095, -0.17600000835955143, 0.20800000987946987, 0.9920000471174717, 0.0, 0.0, 0.0, 0.0, 0.0, 1.6483360330203907E9, 0.0, 2022-03-26 18:07:13.020
13.0, 17.095082697458565, 18.632181579247117, 2.610450169071555, -1.8063716785982251, -0.17600000835955143, 0.20800000987946987, 0.9920000471174717, 0.0, 0.0, 0.0, 0.0, 0.0, 1.6483360330311327E9, 0.0, 2022-03-26 18:07:13.031
13.0, 13.774051536805928, 18.92763367574662, 1.0135128879919648, -5.62480953335762, -0.17600000835955143, 0.20800000987946987, 0.9920000471174717, 0.0, 0.0, 0.0, 0.0, 0.0, 1.6483360330311327E9, 0.0, 2022-03-26 18:07:13.031
14.0, 8.108103103935719, 15.154074620455503, 3.7548595555126667, 15.786117712967098, -0.17600000835955143, 0.20800000987946987, 0.9920000471174717, 0.0, 0.0, 0.0, 0.0, 0.0, 1.648336033046062E9, 0.0, 2022-03-26 18:07:13.046
14.0, 8.803724495694041, 14.035844533704221, -2.1167833749204874, 0.9611542886123061, -0.17600000835955143, 0.20800000987946987, 0.9920000471174717, 0.0, 0.0, 0.0, 0.0, 0.0, 1.648336033046062E9, 0.0, 2022-03-26 18:07:13.046
15.0, 12.760538648813963, 25.4200999988243, -5.845463630743325, 7.2628857139497995, -0.17600000835955143, 0.20800000987946987, 0.9920000471174717, 0.0, 0.0, 0.0, 0.0, 0.0, 1.648336033061816E9, 0.0, 2022-03-26 18:07:13.061
15.0, 4.4093420477584, 14.413574429228902, -4.977806841023266, 3.945594453252852, -0.17600000835955143, 0.20800000987946987, 0.9920000471174717, 0.0, 0.0, 0.0, 0.0, 0.0, 1.648336033061816E9, 0.0, 2022-03-26 18:07:13.061
16.0, 5.751966131851077, 7.408741812221706, -2.501993070356548, -7.124509415589273, -0.17600000835955143, 0.20800000987946987, 0.9920000471174717, 0.0, 0.0, 0.0, 0.0, 0.0, 1.648336033062496E9, 0.0, 2022-03-26 18:07:13.062
16.0, 6.152135427109897, 5.3742362363263965, -12.255652154795825, 7.2628857139497995, -0.17600000835955143, 0.20800000987946987, 0.9920000471174717, 0.0, 0.0, 0.0, 0.0, 0.0, 1.648336033062496E9, 0.0, 2022-03-26 18:07:13.062
17.0, 13.908687935210764, 14.989519022405148, -9.24129279050976, -2.457114270888269, -0.17600000835955143, 0.20800000987946987, 0.9920000471174717, 0.0, 0.0, 0.0, 0.0, 0.0, 1.6483360330760643E9, 0.0, 2022-03-26 18:07:13.076
17.0, 12.539884551428258, 15.513105016201735, -4.259746049530804, -7.539638310670853, -0.17600000835955143, 0.20800000987946987, 0.9920000471174717, 0.0, 0.0, 0.0, 0.0, 0.0, 1.6483360330760643E9, 0.0, 2022-03-26 18:07:13.076
18.0, 2.976960364729166, 17.016544798389077, -6.933774517849088, -15.236352419480681, -0.17600000835955143, 0.20800000987946987, 0.9920000471174717, 0.0, 0.0, 0.0, 0.0, 0.0, 1.6483360330918343E9, 0.0, 2022-03-26 18:07:13.091
18.0, 15.561723715625703, 23.232258524745703, -11.956460158340633, 9.27121199015528, -0.17600000835955143, 0.20800000987946987, 0.9920000471174717, 0.0, 0.0, 0.0, 0.0, 0.0, 1.6483360330918343E9, 0.0, 2022-03-26 18:07:13.091
19.0, 16.728572501800954, 14.297637530602515, -5.194721038453281, 11.436614064499736, -0.17600000835955143, 0.20800000987946987, 0.9920000471174717, 0.0, 0.0, 0.0, 0.0, 0.0, 1.648336033092559E9, 0.0, 2022-03-26 18:07:13.092
19.0, -3.6725817564874887, 6.170834926888347, -9.218853390775621, 3.8782762540504336, -0.17600000835955143, 0.20800000987946987, 0.9920000471174717, 0.0, 0.0, 0.0, 0.0, 0.0, 1.648336033092559E9, 0.0, 2022-03-26 18:07:13.092
20.0, 3.751119655556977, 7.191827614791691, -2.135482874698937, 5.789365131407976, -0.17600000835955143, 0.20800000987946987, 0.9920000471174717, 0.0, 0.0, 0.0, 0.0, 0.0, 1.648336033106042E9, 0.0, 2022-03-26 18:07:13.106
20.0, 12.50996535178274, 11.728326261043549, -1.5520584816113114, 11.870442459359765, -0.17600000835955143, 0.20800000987946987, 0.9920000471174717, 0.0, 0.0, 0.0, 0.0, 0.0, 1.648336033106042E9, 0.0, 2022-03-26 18:07:13.106
21.0, 6.481246623210609, 13.69925353769213, -5.8940823301672935, 2.782485567033291, -0.17600000835955143, 0.20800000987946987, 0.9920000471174717, 0.0, 0.0, 0.0, 0.0, 0.0, 1.6483360331218748E9, 0.0, 2022-03-26 18:07:13.121
21.0, -5.568711034022272, 6.645802221260965, -2.329957672394812, 7.846310107037425, -0.17600000835955143, 0.20800000987946987, 0.9920000471174717, 0.0, 0.0, 0.0, 0.0, 0.0, 1.6483360331218748E9, 0.0, 2022-03-26 18:07:13.121
22.0, 12.726879549212754, 17.480292392894626, -3.5678645577281713, 28.030550167895854, -0.17600000835955143, 0.20800000987946987, 0.9920000471174717, 0.0, 0.0, 0.0, 0.0, 0.0, 1.6483360331224864E9, 0.0, 2022-03-26 18:07:13.122
22.0, 7.180607914924622, 13.433720640838146, -6.286771825514734, -4.3682031482458115, -0.17600000835955143, 0.20800000987946987, 0.9920000471174717, 0.0, 0.0, 0.0, 0.0, 0.0, 1.6483360331224864E9, 0.0, 2022-03-26 18:07:13.122
23.0, 4.282185449264944, 7.356383212842047, 1.129449786618352, 1.731573679484427, -0.17600000835955143, 0.20800000987946987, 0.9920000471174717, 0.0, 0.0, 0.0, 0.0, 0.0, 1.6483360331360252E9, 0.0, 2022-03-26 18:07:13.136
23.0, 8.82242399547249, 10.927987670525908, 7.808911107480526, 12.685740649700165, -0.17600000835955143, 0.20800000987946987, 0.9920000471174717, 0.0, 0.0, 0.0, 0.0, 0.0, 1.6483360331360252E9, 0.0, 2022-03-26 18:07:13.136
24.0, 11.829303559847176, 22.226225436665118, 6.44384762365371, 17.24093879573047, -0.17600000835955143, 0.20800000987946987, 0.9920000471174717, 0.0, 0.0, 0.0, 0.0, 0.0, 1.6483360331517687E9, 0.0, 2022-03-26 18:07:13.151
24.0, -0.9162754891440272, 24.89277410507202, 0.8078183904290199, 11.69466716144234, -0.17600000835955143, 0.20800000987946987, 0.9920000471174717, 0.0, 0.0, 0.0, 0.0, 0.0, 1.6483360331517687E9, 0.0, 2022-03-26 18:07:13.151
25.0, -7.872489406727254, 22.49549823347479, -5.138622539117932, 12.236952655017376, -0.17600000835955143, 0.20800000987946987, 0.9920000471174717, 0.0, 0.0, 0.0, 0.0, 0.0, 1.648336033152597E9, 0.0, 2022-03-26 18:07:13.152
25.0, 14.652928026393056, 20.15058096125722, -1.3762831836938858, 15.146594820544124, -0.17600000835955143, 0.20800000987946987, 0.9920000471174717, 0.0, 0.0, 0.0, 0.0, 0.0, 1.648336033152597E9, 0.0, 2022-03-26 18:07:13.152
26.0, 4.783332043327391, 14.982039222493768, -1.0621315874159336, -7.195567514747381, -0.17600000835955143, 0.20800000987946987, 0.9920000471174717, 0.0, 0.0, 0.0, 0.0, 0.0, 1.6483360331661456E9, 0.0, 2022-03-26 18:07:13.166
26.0, 4.469180447049439, 13.041031145490706, -19.122108473442495, -11.791904560290277, -0.17600000835955143, 0.20800000987946987, 0.9920000471174717, 0.0, 0.0, 0.0, 0.0, 0.0, 1.6483360331661456E9, 0.0, 2022-03-26 18:07:13.166
27.0, 7.498499411158264, 7.004832617007196, -25.41636009886861, 7.872489406727254, -0.17600000835955143, 0.20800000987946987, 0.9920000471174717, 0.0, 0.0, 0.0, 0.0, 0.0, 1.6483360331817691E9, 0.0, 2022-03-26 18:07:13.181
27.0, 10.995305869728327, 7.820130807347596, -4.293405149132013, 7.378822612576187, -0.17600000835955143, 0.20800000987946987, 0.9920000471174717, 0.0, 0.0, 0.0, 0.0, 0.0, 1.6483360331817691E9, 0.0, 2022-03-26 18:07:13.181
28.0, 8.201600602827966, 14.611789126880467, 7.053451316431165, 8.680307797156274, -0.17600000835955143, 0.20800000987946987, 0.9920000471174717, 0.0, 0.0, 0.0, 0.0, 0.0, 1.64833603318252E9, 0.0, 2022-03-26 18:07:13.182
28.0, 0.5572450933977962, -2.053205075673759, -3.22753366176039, -3.941854553297162, -0.17600000835955143, 0.20800000987946987, 0.9920000471174717, 0.0, 0.0, 0.0, 0.0, 0.0, 1.64833603318252E9, 0.0, 2022-03-26 18:07:13.182
29.0, 2.8685032660141587, 2.1130434749647975, 10.415621376596391, 11.350596365518868, -0.17600000835955143, 0.20800000987946987, 0.9920000471174717, 0.0, 0.0, 0.0, 0.0, 0.0, 1.6483360331961212E9, 0.0, 2022-03-26 18:07:13.196
29.0, 6.4176683239638805, 9.503085787408054, 26.377514387480915, 5.119923039339483, -0.17600000835955143, 0.20800000987946987, 0.9920000471174717, 0.0, 0.0, 0.0, 0.0, 0.0, 1.6483360331961212E9, 0.0, 2022-03-26 18:07:13.196
30.0, -5.669688332825899, -5.456514035351574, 24.52626390941441, 19.956106163561344, -0.17600000835955143, 0.20800000987946987, 0.9920000471174717, 0.0, 0.0, 0.0, 0.0, 0.0, 1.6483360332117748E9, 0.0, 2022-03-26 18:07:13.211
30.0, 4.248526349663734, 3.702500956133008, 25.3453019997105, 24.810496306046844, -0.17600000835955143, 0.20800000987946987, 0.9920000471174717, 0.0, 0.0, 0.0, 0.0, 0.0, 1.6483360332117748E9, 0.0, 2022-03-26 18:07:13.211
31.0, 13.994705634191632, 6.331650624983013, 46.902085344307125, 22.439399734139442, -0.17600000835955143, 0.20800000987946987, 0.9920000471174717, 0.0, 0.0, 0.0, 0.0, 0.0, 1.6483360332125504E9, 0.0, 2022-03-26 18:07:13.212
31.0, -6.372789524495602, 0.02617929968982935, 42.1299730008468, 18.45640628132969, -0.17600000835955143, 0.20800000987946987, 0.9920000471174717, 0.0, 0.0, 0.0, 0.0, 0.0, 1.6483360332125504E9, 0.0, 2022-03-26 18:07:13.212
32.0, -4.615036545321345, -3.3920892598107457, 37.57103495486081, 18.366648682393134, -0.17600000835955143, 0.20800000987946987, 0.9920000471174717, 0.0, 0.0, 0.0, 0.0, 0.0, 1.6483360332261462E9, 0.0, 2022-03-26 18:07:13.226
32.0, -2.973220464773476, -0.022439399734139442, 39.39984603319317, 38.042262349277735, -0.17600000835955143, 0.20800000987946987, 0.9920000471174717, 0.0, 0.0, 0.0, 0.0, 0.0, 1.6483360332261462E9, 0.0, 2022-03-26 18:07:13.226
33.0, 4.356983448378742, -4.749672943726182, 32.92607920989394, 15.935713711194694, -0.17600000835955143, 0.20800000987946987, 0.9920000471174717, 0.0, 0.0, 0.0, 0.0, 0.0, 1.648336033241858E9, 0.0, 2022-03-26 18:07:13.241
33.0, 10.45302037615329, -17.835582888685167, 31.650773325003684, 22.58151593245566, -0.17600000835955143, 0.20800000987946987, 0.9920000471174717, 0.0, 0.0, 0.0, 0.0, 0.0, 1.648336033241858E9, 0.0, 2022-03-26 18:07:13.241
34.0, -1.7839322788640857, 4.989026540890336, 40.832227716222405, 21.68020004313439, -0.17600000835955143, 0.20800000987946987, 0.9920000471174717, 0.0, 0.0, 0.0, 0.0, 0.0, 1.648336033242511E9, 0.0, 2022-03-26 18:07:13.242
34.0, 7.498499411158264, 2.8385840663686395, 34.036829496733844, 15.172774120233953, -0.17600000835955143, 0.20800000987946987, 0.9920000471174717, 0.0, 0.0, 0.0, 0.0, 0.0, 1.648336033242511E9, 0.0, 2022-03-26 18:07:13.242
35.0, 11.978899558074772, -5.972620229236782, 27.536883373744786, 19.3801615703851, -0.17600000835955143, 0.20800000987946987, 0.9920000471174717, 0.0, 0.0, 0.0, 0.0, 0.0, 1.6483360332561474E9, 0.0, 2022-03-26 18:07:13.256
35.0, 7.356383212842047, 6.574744122102857, 30.483924538828433, 30.678399336524308, -0.17600000835955143, 0.20800000987946987, 0.9920000471174717, 0.0, 0.0, 0.0, 0.0, 0.0, 1.6483360332561474E9, 0.0, 2022-03-26 18:07:13.256
36.0, 5.950180829502642, 4.42056174762547, 33.11681410763413, 19.395121170207858, -0.17600000835955143, 0.20800000987946987, 0.9920000471174717, 0.0, 0.0, 0.0, 0.0, 0.0, 1.6483360332718637E9, 0.0, 2022-03-26 18:07:13.271
36.0, 17.854282388463616, 12.595983050763607, 28.673812960274518, 19.552196968346834, -0.17600000835955143, 0.20800000987946987, 0.9920000471174717, 0.0, 0.0, 0.0, 0.0, 0.0, 1.6483360332718637E9, 0.0, 2022-03-26 18:07:13.271
37.0, 17.887941488064826, 8.384855700656772, 37.10728736035526, 37.00257016159594, -0.17600000835955143, 0.20800000987946987, 0.9920000471174717, 0.0, 0.0, 0.0, 0.0, 0.0, 1.6483360332725348E9, 0.0, 2022-03-26 18:07:13.272
37.0, 15.70383991394192, 0.7816390907391906, 26.407433587126434, 34.837168087251484, -0.17600000835955143, 0.20800000987946987, 0.9920000471174717, 0.0, 0.0, 0.0, 0.0, 0.0, 1.6483360332725348E9, 0.0, 2022-03-26 18:07:13.272
38.0, 16.178807208314538, -0.9611542886123061, 26.51215078588575, 17.491512092761695, -0.17600000835955143, 0.20800000987946987, 0.9920000471174717, 0.0, 0.0, 0.0, 0.0, 0.0, 1.6483360332861316E9, 0.0, 2022-03-26 18:07:13.286
38.0, 1.3762831836938858, 9.540484786964953, 22.428180034272373, 15.602862615138292, -0.17600000835955143, 0.20800000987946987, 0.9920000471174717, 0.0, 0.0, 0.0, 0.0, 0.0, 1.6483360332861316E9, 0.0, 2022-03-26 18:07:13.286
39.0, 14.140561732463539, 3.695021156221628, 17.67850709054619, 9.069257392548025, -0.17600000835955143, 0.20800000987946987, 0.9920000471174717, 0.0, 0.0, 0.0, 0.0, 0.0, 1.6483360333018775E9, 0.0, 2022-03-26 18:07:13.301
39.0, 7.726633308455348, 1.60815698094666, 21.463285845704377, 8.695267396979034, -0.17600000835955143, 0.20800000987946987, 0.9920000471174717, 0.0, 0.0, 0.0, 0.0, 0.0, 1.6483360333018775E9, 0.0, 2022-03-26 18:07:13.301
40.0, 7.846310107037425, 2.1093035750091076, 23.101362026296556, 16.50791840441525, -0.17600000835955143, 0.20800000987946987, 0.9760000463575125, 0.0, 0.0, 0.0, 0.0, 0.0, 1.6483360333025165E9, 0.0, 2022-03-26 18:07:13.302
40.0, 0.6395228924229741, 12.801677548326552, 27.981931468471885, 23.74462481867522, -0.17600000835955143, 0.20800000987946987, 0.9760000463575125, 0.0, 0.0, 0.0, 0.0, 0.0, 1.6483360333025165E9, 0.0, 2022-03-26 18:07:13.302
41.0, 19.118368573486805, 5.8155444310978055, 21.003278151154518, 24.679599807597697, -0.17600000835955143, 0.20800000987946987, 0.9760000463575125, 0.0, 0.0, 0.0, 0.0, 0.0, 1.6483360333161447E9, 0.0, 2022-03-26 18:07:13.316
41.0, 9.28617158997804, -2.1093035750091076, 14.155521332286298, 12.988672546111047, -0.17600000835955143, 0.20800000987946987, 0.9760000463575125, 0.0, 0.0, 0.0, 0.0, 0.0, 1.6483360333161447E9, 0.0, 2022-03-26 18:07:13.316
42.0, 10.995305869728327, -3.4444478591904044, 11.66100806184113, 26.343855287879705, -0.17600000835955143, 0.20800000987946987, 0.9760000463575125, 0.0, 0.0, 0.0, 0.0, 0.0, 1.6483360333318076E9, 0.0, 2022-03-26 18:07:13.331
42.0, 8.919661394320428, 0.13837629836052656, 20.16928046103567, 16.96044629905373, -0.17600000835955143, 0.20800000987946987, 0.9760000463575125, 0.0, 0.0, 0.0, 0.0, 0.0, 1.6483360333318076E9, 0.0, 2022-03-26 18:07:13.331
43.0, 5.164801838807762, -1.4623008826747537, 11.604909562505782, -8.598029998131096, -0.17600000835955143, 0.20800000987946987, 0.9760000463575125, 0.0, 0.0, 0.0, 0.0, 0.0, 1.6483360333325076E9, 0.0, 2022-03-26 18:07:13.332
43.0, 7.281585213728249, -5.722046932205558, 7.726633308455348, 11.911581358872354, -0.17600000835955143, 0.20800000987946987, 0.9760000463575125, 0.0, 0.0, 0.0, 0.0, 0.0, 1.6483360333325076E9, 0.0, 2022-03-26 18:07:13.332
44.0, 6.671981520950794, 4.218607150018215, 16.691173502244055, 19.847649064846337, -0.17600000835955143, 0.20800000987946987, 0.9760000463575125, 0.0, 0.0, 0.0, 0.0, 0.0, 1.648336033346176E9, 0.0, 2022-03-26 18:07:13.346
44.0, 7.199307414703071, 14.813743724487722, 19.37642167042941, 12.48378605209291, -0.17600000835955143, 0.20800000987946987, 0.9760000463575125, 0.0, 0.0, 0.0, 0.0, 0.0, 1.648336033346176E9, 0.0, 2022-03-26 18:07:13.346
45.0, 3.7735590552911162, 17.076383197680116, 3.900715653784573, -9.020638693124056, -0.17600000835955143, 0.20800000987946987, 0.9760000463575125, 0.0, 0.0, 0.0, 0.0, 0.0, 1.6483360333617496E9, 0.0, 2022-03-26 18:07:13.361
45.0, 17.065163497813046, 20.034644062630832, 22.349642135202885, 24.21211231313646, -0.17600000835955143, 0.20800000987946987, 0.9760000463575125, 0.0, 0.0, 0.0, 0.0, 0.0, 1.6483360333617496E9, 0.0, 2022-03-26 18:07:13.361
46.0, 3.6464024567976594, 4.3644632482901216, 10.150088479742408, 18.51998458057642, -0.17600000835955143, 0.20800000987946987, 0.9760000463575125, 0.0, 0.0, 0.0, 0.0, 0.0, 1.6483360333625348E9, 0.0, 2022-03-26 18:07:13.362
46.0, 9.188934191130102, 4.641215845011175, 14.90724122337997, 19.548457068391144, -0.17600000835955143, 0.20800000987946987, 0.9760000463575125, 0.0, 0.0, 0.0, 0.0, 0.0, 1.6483360333625348E9, 0.0, 2022-03-26 18:07:13.362
47.0, 14.47715272847563, 7.995906105265021, 24.14105421397835, 26.49719118606299, -0.17600000835955143, 0.20800000987946987, 0.9760000463575125, 0.0, 0.0, 0.0, 0.0, 0.0, 1.6483360333761666E9, 0.0, 2022-03-26 18:07:13.376
47.0, 19.170727172866464, 23.666086919605732, 28.756090759299695, 28.52047706209123, -0.17600000835955143, 0.20800000987946987, 0.9760000463575125, 0.0, 0.0, 0.0, 0.0, 0.0, 1.6483360333761666E9, 0.0, 2022-03-26 18:07:13.376
48.0, 11.047664469107985, 23.217298924922943, 23.3444555234164, 13.777791436761618, -0.17600000835955143, 0.20800000987946987, 0.9760000463575125, 0.0, 0.0, 0.0, 0.0, 0.0, 1.6483360333917868E9, 0.0, 2022-03-26 18:07:13.391
48.0, 8.08192380424589, 21.130434749647975, 18.46762598119676, 14.940900322981179, -0.17600000835955143, 0.20800000987946987, 0.9760000463575125, 0.0, 0.0, 0.0, 0.0, 0.0, 1.6483360333917868E9, 0.0, 2022-03-26 18:07:13.391
49.0, 7.038491716608405, 17.30077719502151, 14.177960732020438, 9.705040385015309, -0.17600000835955143, 0.20800000987946987, 0.9760000463575125, 0.0, 0.0, 0.0, 0.0, 0.0, 1.6483360333924863E9, 0.0, 2022-03-26 18:07:13.392
49.0, 15.27001151908189, 15.124155420809984, 17.65232779085636, 19.047310474328697, -0.17600000835955143, 0.20800000987946987, 0.9760000463575125, 0.0, 0.0, 0.0, 0.0, 0.0, 1.6483360333924863E9, 0.0, 2022-03-26 18:07:13.392
50.0, 11.64978836197406, 18.94259327556938, 18.45640628132969, 22.13272793777287, -0.17600000835955143, 0.20800000987946987, 0.9920000471174717, 0.0, 0.0, 0.0, 0.0, 0.0, 1.648336033406128E9, 0.0, 2022-03-26 18:07:13.406
50.0, 15.430827217176557, 20.408634058199823, 28.662593260407448, 31.097268131561577, -0.17600000835955143, 0.20800000987946987, 0.9920000471174717, 0.0, 0.0, 0.0, 0.0, 0.0, 1.648336033406128E9, 0.0, 2022-03-26 18:07:13.406
51.0, 3.5267256582155824, 15.483185816556215, 22.054190038703382, 6.720600220374763, -0.17600000835955143, 0.20800000987946987, 0.9920000471174717, 0.0, 0.0, 0.0, 0.0, 0.0, 1.6483360334217808E9, 0.0, 2022-03-26 18:07:13.421
51.0, 11.189780667424202, 14.48463252838701, 22.383301234804094, 0.8639168897643685, -0.17600000835955143, 0.20800000987946987, 0.9920000471174717, 0.0, 0.0, 0.0, 0.0, 0.0, 1.6483360334217808E9, 0.0, 2022-03-26 18:07:13.421
52.0, 4.521539046429098, 8.313797601498663, 14.047064233571291, 24.53374370932579, -0.17600000835955143, 0.20800000987946987, 0.9920000471174717, 0.0, 0.0, 0.0, 0.0, 0.0, 1.648336033422473E9, 0.0, 2022-03-26 18:07:13.422
52.0, 15.973112710751593, 16.246125407516956, 10.157568279653788, 30.24831084161997, -0.17600000835955143, 0.20800000987946987, 0.9920000471174717, 0.0, 0.0, 0.0, 0.0, 0.0, 1.648336033422473E9, 0.0, 2022-03-26 18:07:13.422
53.0, 3.0442785639315844, -1.1182300867512822, 10.48293957579881, -7.367602912709117, -0.17600000835955143, 0.20800000987946987, 0.9920000471174717, 0.0, 0.0, 0.0, 0.0, 0.0, 1.6483360334361675E9, 0.0, 2022-03-26 18:07:13.436
53.0, -0.18325509782880545, 14.50707192812115, 17.633628291077912, 14.387395129539073, -0.17600000835955143, 0.20800000987946987, 0.9920000471174717, 0.0, 0.0, 0.0, 0.0, 0.0, 1.6483360334361675E9, 0.0, 2022-03-26 18:07:13.436
54.0, 17.016544798389077, 18.10859558545053, 7.778991907835007, 14.196660231798887, -0.17600000835955143, 0.20800000987946987, 0.9920000471174717, 0.0, 0.0, 0.0, 0.0, 0.0, 1.6483360334518328E9, 0.0, 2022-03-26 18:07:13.451
54.0, 10.47545977588743, 25.049849903210998, 12.304270854219794, 9.009418993256986, -0.17600000835955143, 0.20800000987946987, 0.9920000471174717, 0.0, 0.0, 0.0, 0.0, 0.0, 1.6483360334518328E9, 0.0, 2022-03-26 18:07:13.451
55.0, 16.724832601845264, 16.05165060982108, 14.705286625772715, 17.558830291964114, -0.17600000835955143, 0.20800000987946987, 0.9920000471174717, 0.0, 0.0, 0.0, 0.0, 0.0, 1.6483360334525073E9, 0.0, 2022-03-26 18:07:13.452
55.0, 8.317537501454353, 13.497298940084875, 11.328156965784729, 1.5483185816556215, -0.17600000835955143, 0.20800000987946987, 0.9920000471174717, 0.0, 0.0, 0.0, 0.0, 0.0, 1.6483360334525073E9, 0.0, 2022-03-26 18:07:13.452
56.0, 6.110996527597308, 13.089649844914675, 7.924848006106913, -5.4939130349084735, -0.17600000835955143, 0.20800000987946987, 0.9920000471174717, 0.0, 0.0, 0.0, 0.0, 0.0, 1.6483360334661353E9, 0.0, 2022-03-26 18:07:13.466
56.0, 2.890942665748298, 7.408741812221706, 6.84775681886822, 9.013158893212676, -0.17600000835955143, 0.20800000987946987, 0.9920000471174717, 0.0, 0.0, 0.0, 0.0, 0.0, 1.6483360334661353E9, 0.0, 2022-03-26 18:07:13.466
57.0, 2.775005767121911, 3.4444478591904044, 10.367002677172422, 21.7138591427356, -0.17600000835955143, 0.20800000987946987, 0.9920000471174717, 0.0, 0.0, 0.0, 0.0, 0.0, 1.6483360334817812E9, 0.0, 2022-03-26 18:07:13.481
57.0, 3.4033089596778154, 10.393181976862252, 11.485232763923705, 4.82073104288429, -0.17600000835955143, 0.20800000987946987, 0.9920000471174717, 0.0, 0.0, 0.0, 0.0, 0.0, 1.6483360334817812E9, 0.0, 2022-03-26 18:07:13.481
58.0, 17.611188891343772, 12.693220449611545, 9.27121199015528, 11.193520567379892, -0.17600000835955143, 0.20800000987946987, 0.9920000471174717, 0.0, 0.0, 0.0, 0.0, 0.0, 1.6483360334824874E9, 0.0, 2022-03-26 18:07:13.482
58.0, 13.168187743984163, 9.065517492592335, 5.276998837478459, 1.6268564807251096, -0.17600000835955143, 0.20800000987946987, 0.9920000471174717, 0.0, 0.0, 0.0, 0.0, 0.0, 1.6483360334824874E9, 0.0, 2022-03-26 18:07:13.482
59.0, 13.220546343363822, 20.11692186165601, 12.08735665678978, 21.597922244109213, -0.17600000835955143, 0.20800000987946987, 0.9920000471174717, 0.0, 0.0, 0.0, 0.0, 0.0, 1.6483360334961135E9, 0.0, 2022-03-26 18:07:13.496
59.0, 7.371342812664807, 16.822070000693202, 6.7019007205963135, 13.044771045446396, -0.17600000835955143, 0.20800000987946987, 0.9920000471174717, 0.0, 0.0, 0.0, 0.0, 0.0, 1.6483360334961135E9, 0.0, 2022-03-26 18:07:13.496
60.0, 20.715305854566395, 19.866348564624786, 13.721692937426269, 10.04911118093878, -0.17600000835955143, 0.20800000987946987, 0.9920000471174717, 0.0, 0.0, 0.0, 0.0, 0.0, 1.648336033511763E9, 0.0, 2022-03-26 18:07:13.511
60.0, 26.373774487525225, 23.583809120580554, 15.898314711637795, 21.938253140076995, -0.17600000835955143, 0.20800000987946987, 0.9920000471174717, 0.0, 0.0, 0.0, 0.0, 0.0, 1.648336033511763E9, 0.0, 2022-03-26 18:07:13.511
61.0, 13.833889936096966, 12.169634455814958, 15.984332410618663, 14.675367426127195, -0.17600000835955143, 0.20800000987946987, 0.9920000471174717, 0.0, 0.0, 0.0, 0.0, 0.0, 1.6483360335124867E9, 0.0, 2022-03-26 18:07:13.512
61.0, 9.562924186699092, 9.476906487718225, 9.854636383242905, 8.03330510482192, -0.17600000835955143, 0.20800000987946987, 0.9920000471174717, 0.0, 0.0, 0.0, 0.0, 0.0, 1.6483360335124867E9, 0.0, 2022-03-26 18:07:13.512
62.0, 6.44010772369802, 8.403555200435221, 6.42888802383095, 12.001338957808912, -0.17600000835955143, 0.20800000987946987, 0.9920000471174717, 0.0, 0.0, 0.0, 0.0, 0.0, 1.6483360335261889E9, 0.0, 2022-03-26 18:07:13.526
62.0, 7.719153508543968, 12.296791054308414, 11.410434764809906, 21.829796041361988, -0.17600000835955143, 0.20800000987946987, 0.9920000471174717, 0.0, 0.0, 0.0, 0.0, 0.0, 1.6483360335261889E9, 0.0, 2022-03-26 18:07:13.526
63.0, -6.43262792378664, 10.239846078678966, 8.411035000346601, -3.459407459013164, -0.17600000835955143, 0.20800000987946987, 0.9920000471174717, 0.0, 0.0, 0.0, 0.0, 0.0, 1.6483360335415645E9, 0.0, 2022-03-26 18:07:13.541
63.0, -2.221500573679805, 12.184594055637717, 7.980946505442262, 11.978899558074772, -0.17600000835955143, 0.20800000987946987, 0.9920000471174717, 0.0, 0.0, 0.0, 0.0, 0.0, 1.6483360335415645E9, 0.0, 2022-03-26 18:07:13.541
64.0, 10.87562907114625, 20.96213925164193, 12.936313946731389, 19.585856067948043, -0.17600000835955143, 0.20800000987946987, 0.9920000471174717, 0.0, 0.0, 0.0, 0.0, 0.0, 1.6483360335731626E9, 0.0, 2022-03-26 18:07:13.573
64.0, 14.701546725817025, 24.95261250436306, 14.608049226924777, 5.501392834819853, -0.17600000835955143, 0.20800000987946987, 0.9920000471174717, 0.0, 0.0, 0.0, 0.0, 0.0, 1.6483360335731626E9, 0.0, 2022-03-26 18:07:13.573
65.0, -0.523585993796587, 20.88734125252813, 1.1780684860423207, -5.9352212296798825, -0.17600000835955143, 0.20800000987946987, 0.9920000471174717, 0.0, 0.0, 0.0, 0.0, 0.0, 1.6483360335739305E9, 0.0, 2022-03-26 18:07:13.573
65.0, 9.069257392548025, 19.630734867416322, 3.982993452809751, 11.126202368177474, -0.17600000835955143, 0.20800000987946987, 0.9920000471174717, 0.0, 0.0, 0.0, 0.0, 0.0, 1.6483360335739305E9, 0.0, 2022-03-26 18:07:13.573
66.0, 2.2327202735468745, 16.10026930924505, 10.524078475311399, 2.139222774654627, -0.17600000835955143, 0.20800000987946987, 0.9920000471174717, 0.0, 0.0, 0.0, 0.0, 0.0, 1.6483360335746055E9, 0.0, 2022-03-26 18:07:13.574
66.0, 13.351442841812968, 9.084216992370784, 0.6806617919355631, 10.318383977748454, -0.17600000835955143, 0.20800000987946987, 0.9920000471174717, 0.0, 0.0, 0.0, 0.0, 0.0, 1.6483360335746055E9, 0.0, 2022-03-26 18:07:13.574
67.0, 12.581023450940847, 28.886987257748842, 2.3224778724834323, 13.602016138844192, -0.17600000835955143, 0.20800000987946987, 0.9920000471174717, 0.0, 0.0, 0.0, 0.0, 0.0, 1.6483360335754209E9, 0.0, 2022-03-26 18:07:13.575
67.0, 2.3897960716858506, 31.239384329877794, 3.8820161540061235, -1.6268564807251096, -0.17600000835955143, 0.20800000987946987, 0.9920000471174717, 0.0, 0.0, 0.0, 0.0, 0.0, 1.6483360335754209E9, 0.0, 2022-03-26 18:07:13.575
68.0, 3.134036162868142, 21.837275841273367, 3.339730660431087, 17.25215849559754, -0.17600000835955143, 0.20800000987946987, 0.9920000471174717, 0.0, 0.0, 0.0, 0.0, 0.0, 1.6483360335860772E9, 0.0, 2022-03-26 18:07:13.586
68.0, 14.832443224266171, 25.651973796077073, 5.190981138497591, 24.877814505249262, -0.17600000835955143, 0.20800000987946987, 0.9920000471174717, 0.0, 0.0, 0.0, 0.0, 0.0, 1.6483360335860772E9, 0.0, 2022-03-26 18:07:13.586
69.0, 13.957306634634733, 21.34734894707799, 3.62396305706352, 18.411527481861413, -0.17600000835955143, 0.20800000987946987, 0.9920000471174717, 0.0, 0.0, 0.0, 0.0, 0.0, 1.6483360336018312E9, 0.0, 2022-03-26 18:07:13.601
69.0, 2.778745667077601, 18.57234317995608, 4.9703270411118865, -2.8423239663243294, -0.17600000835955143, 0.20800000987946987, 0.9920000471174717, 0.0, 0.0, 0.0, 0.0, 0.0, 1.6483360336018312E9, 0.0, 2022-03-26 18:07:13.601
70.0, 1.810111578553915, 24.53374370932579, 8.695267396979034, 7.382562512531877, -0.17600000835955143, 0.20800000987946987, 0.9920000471174717, 0.0, 0.0, 0.0, 0.0, 0.0, 1.648336033602603E9, 0.0, 2022-03-26 18:07:13.602
70.0, 7.6667949091643095, 17.77200458943844, 7.045971516519785, 19.395121170207858, -0.17600000835955143, 0.20800000987946987, 0.9920000471174717, 0.0, 0.0, 0.0, 0.0, 0.0, 1.648336033602603E9, 0.0, 2022-03-26 18:07:13.602
71.0, 6.896375518292189, 9.985532881692052, 13.418761041015387, 16.425640605390072, -0.17600000835955143, 0.20800000987946987, 0.9920000471174717, 0.0, 0.0, 0.0, 0.0, 0.0, 1.6483360336160724E9, 0.0, 2022-03-26 18:07:13.616
71.0, -1.529619081877172, 15.011958422139287, 7.461100411601365, 8.964540193788707, -0.17600000835955143, 0.20800000987946987, 0.9920000471174717, 0.0, 0.0, 0.0, 0.0, 0.0, 1.6483360336160724E9, 0.0, 2022-03-26 18:07:13.616
72.0, 9.850896483287215, 15.27749131899327, -1.2678260849788785, 10.711073473095894, -0.17600000835955143, 0.20800000987946987, 0.9920000471174717, 0.0, 0.0, 0.0, 0.0, 0.0, 1.6483360336317925E9, 0.0, 2022-03-26 18:07:13.631
72.0, 5.561231234110892, 8.46713349968195, -15.984332410618663, -3.493066558614373, -0.17600000835955143, 0.20800000987946987, 0.9920000471174717, 0.0, 0.0, 0.0, 0.0, 0.0, 1.6483360336317925E9, 0.0, 2022-03-26 18:07:13.631
73.0, 3.134036162868142, 12.607202750630677, -10.280984978191555, -12.943793746642768, -0.17600000835955143, 0.20800000987946987, 0.9920000471174717, 0.0, 0.0, 0.0, 0.0, 0.0, 1.648336033632516E9, 0.0, 2022-03-26 18:07:13.632
73.0, 15.565463615581393, 12.962493246421218, -4.334544048644602, -3.6015236573293805, -0.17600000835955143, 0.20800000987946987, 0.9920000471174717, 0.0, 0.0, 0.0, 0.0, 0.0, 1.648336033632516E9, 0.0, 2022-03-26 18:07:13.632
74.0, 9.409588288515806, 10.112689480185509, -9.63772218581289, 15.528064616024494, -0.17600000835955143, 0.20800000987946987, 0.9920000471174717, 0.0, 0.0, 0.0, 0.0, 0.0, 1.6483360336460748E9, 0.0, 2022-03-26 18:07:13.646
74.0, -6.85897651873529, 5.946440929546952, -15.640261614695191, -6.664501721039414, -0.17600000835955143, 0.20800000987946987, 0.9920000471174717, 0.0, 0.0, 0.0, 0.0, 0.0, 1.6483360336460748E9, 0.0, 2022-03-26 18:07:13.646
75.0, -8.302577901631594, 12.169634455814958, -6.85149671882391, -6.724340120330453, -0.17600000835955143, 0.20800000987946987, 0.9920000471174717, 0.0, 0.0, 0.0, 0.0, 0.0, 1.648336033661755E9, 0.0, 2022-03-26 18:07:13.661
75.0, 5.441554435528815, 16.95670639909804, 1.368803383782506, 9.435767588205636, -0.17600000835955143, 0.20800000987946987, 0.9920000471174717, 0.0, 0.0, 0.0, 0.0, 0.0, 1.648336033661755E9, 0.0, 2022-03-26 18:07:13.661
76.0, 9.121615991927683, 8.713966896757483, -4.136329350993037, 9.136575591750443, -0.17600000835955143, 0.20800000987946987, 0.9920000471174717, 0.0, 0.0, 0.0, 0.0, 0.0, 1.648336033662484E9, 0.0, 2022-03-26 18:07:13.662
76.0, 3.414528659544885, 7.790211607702076, -6.668241620995104, -3.6314428569748998, -0.17600000835955143, 0.20800000987946987, 0.9920000471174717, 0.0, 0.0, 0.0, 0.0, 0.0, 1.648336033662484E9, 0.0, 2022-03-26 18:07:13.662
77.0, 0.9461946887895465, 8.661608297377825, -11.724586361087859, 4.682354744523764, -0.17600000835955143, 0.20800000987946987, 0.9920000471174717, 0.0, 0.0, 0.0, 0.0, 0.0, 1.6483360336760533E9, 0.0, 2022-03-26 18:07:13.676
77.0, -7.943547505885363, 7.7864717077463865, -15.393428217619658, 12.610942650586367, -0.17600000835955143, 0.20800000987946987, 0.9920000471174717, 0.0, 0.0, 0.0, 0.0, 0.0, 1.6483360336760533E9, 0.0, 2022-03-26 18:07:13.676
78.0, -13.25046554300934, 11.066363968886435, -3.941854553297162, 1.5221392819657922, -0.17600000835955143, 0.20800000987946987, 0.9920000471174717, 0.0, 0.0, 0.0, 0.0, 0.0, 1.6483360336917453E9, 0.0, 2022-03-26 18:07:13.691
78.0, -6.795398219488561, -4.450480947270989, -8.691527497023344, 3.0891573633998632, -0.17600000835955143, 0.20800000987946987, 0.9920000471174717, 0.0, 0.0, 0.0, 0.0, 0.0, 1.6483360336917453E9, 0.0, 2022-03-26 18:07:13.691
79.0, 2.9545209649950266, 3.134036162868142, 0.8788764895871282, 6.062377828173339, -0.17600000835955143, 0.20800000987946987, 0.9920000471174717, 0.0, 0.0, 0.0, 0.0, 0.0, 1.6483360336925437E9, 0.0, 2022-03-26 18:07:13.692
79.0, -6.769218919798732, 14.581869927234948, -3.751119655556977, 10.378222377039492, -0.17600000835955143, 0.20800000987946987, 0.9920000471174717, 0.0, 0.0, 0.0, 0.0, 0.0, 1.6483360336925437E9, 0.0, 2022-03-26 18:07:13.692
80.0, 7.390042312443256, 24.54870330914855, 2.3523970721289515, 7.498499411158264, -0.17600000835955143, 0.20800000987946987, 0.9920000471174717, 0.0, 0.0, 0.0, 0.0, 0.0, 1.648336033706109E9, 0.0, 2022-03-26 18:07:13.706
80.0, 5.583670633845031, 19.226825672201812, -1.6156367808580399, 20.58066945616156, -0.17600000835955143, 0.20800000987946987, 0.9920000471174717, 0.0, 0.0, 0.0, 0.0, 0.0, 1.648336033706109E9, 0.0, 2022-03-26 18:07:13.706
81.0, 0.34781069587916136, 11.29075796622783, -2.932081565260887, -1.5595382815226912, -0.17600000835955143, 0.20800000987946987, 0.9920000471174717, 0.0, 0.0, 0.0, 0.0, 0.0, 1.648336033721902E9, 0.0, 2022-03-26 18:07:13.721
81.0, 2.3187379725277424, 18.12729508522898, 3.61648325715214, 7.562077710404992, -0.17600000835955143, 0.20800000987946987, 0.9920000471174717, 0.0, 0.0, 0.0, 0.0, 0.0, 1.648336033721902E9, 0.0, 2022-03-26 18:07:13.721
82.0, -2.1541823744773865, 16.10774910915643, 1.0920507870614529, 17.431673693470657, -0.17600000835955143, 0.20800000987946987, 0.9920000471174717, 0.0, 0.0, 0.0, 0.0, 0.0, 1.6483360337225375E9, 0.0, 2022-03-26 18:07:13.722
82.0, 0.029919199645519257, 8.665348197333515, -12.655821450054646, 2.2327202735468745, -0.17600000835955143, 0.20800000987946987, 0.9920000471174717, 0.0, 0.0, 0.0, 0.0, 0.0, 1.6483360337225375E9, 0.0, 2022-03-26 18:07:13.722
83.0, -2.5057329703122377, 6.283031925559044, -16.0815698094666, -5.523832234553993, -0.17600000835955143, 0.20800000987946987, 0.9920000471174717, 0.0, 0.0, 0.0, 0.0, 0.0, 1.6483360337360952E9, 0.0, 2022-03-26 18:07:13.736
83.0, 2.172881874255836, 7.812651007436216, -9.443247388117015, 9.465686787851155, -0.17600000835955143, 0.20800000987946987, 0.9920000471174717, 0.0, 0.0, 0.0, 0.0, 0.0, 1.6483360337360952E9, 0.0, 2022-03-26 18:07:13.736
84.0, -1.7203539796173573, -1.772712578997016, -3.7735590552911162, 6.066117728129029, -0.17600000835955143, 0.20800000987946987, 0.9920000471174717, 0.0, 0.0, 0.0, 0.0, 0.0, 1.6483360337517753E9, 0.0, 2022-03-26 18:07:13.751
84.0, -11.67596766166389, 3.8109580548480153, -11.952720258384943, 0.8265178902074695, -0.17600000835955143, 0.20800000987946987, 0.9920000471174717, 0.0, 0.0, 0.0, 0.0, 0.0, 1.6483360337517753E9, 0.0, 2022-03-26 18:07:13.751
85.0, 1.4436013828963041, -8.42973450012505, -12.87273564748466, -1.0995305869728327, -0.17600000835955143, 0.20800000987946987, 0.9920000471174717, 0.0, 0.0, 0.0, 0.0, 0.0, 1.64833603375248E9, 0.0, 2022-03-26 18:07:13.752
85.0, 3.508026158437133, -2.528172370046377, -14.92220082320273, -5.007726040668786, -0.17600000835955143, 0.20800000987946987, 0.9920000471174717, 0.0, 0.0, 0.0, 0.0, 0.0, 1.64833603375248E9, 0.0, 2022-03-26 18:07:13.752
86.0, 3.7959984550252557, 7.894928806461394, -19.133328173309565, -6.671981520950794, -0.17600000835955143, 0.20800000987946987, 0.9920000471174717, 0.0, 0.0, 0.0, 0.0, 0.0, 1.648336033782454E9, 0.0, 2022-03-26 18:07:13.782
86.0, -0.6544824922457337, 9.731219684705138, -14.338776430115104, -3.982993452809751, -0.17600000835955143, 0.20800000987946987, 0.9920000471174717, 0.0, 0.0, 0.0, 0.0, 0.0, 1.648336033782454E9, 0.0, 2022-03-26 18:07:13.782
87.0, -0.4712273944169283, 1.6679953802376986, -12.50248555187136, 14.09194303303957, -0.17600000835955143, 0.20800000987946987, 0.9920000471174717, 0.0, 0.0, 0.0, 0.0, 0.0, 1.6483360337831292E9, 0.0, 2022-03-26 18:07:13.783
87.0, -4.775852243416011, 6.967433617450297, -6.544824922457337, 16.627595202997327, -0.17600000835955143, 0.20800000987946987, 0.9920000471174717, 0.0, 0.0, 0.0, 0.0, 0.0, 1.6483360337831292E9, 0.0, 2022-03-26 18:07:13.783
88.0, 3.010619464330375, 6.922554817982018, -3.2387533616274595, -2.0644247755408287, -0.17600000835955143, 0.20800000987946987, 0.9920000471174717, 0.0, 0.0, 0.0, 0.0, 0.0, 1.6483360337838607E9, 0.0, 2022-03-26 18:07:13.783
88.0, 9.806017683818936, 12.390288553200662, -4.600076945498586, 6.645802221260965, -0.17600000835955143, 0.20800000987946987, 0.9920000471174717, 0.0, 0.0, 0.0, 0.0, 0.0, 1.6483360337838607E9, 0.0, 2022-03-26 18:07:13.783
89.0, 3.6800615563988686, -1.4436013828963041, -4.772112343460321, 5.003986140713096, -0.17600000835955143, 0.20800000987946987, 0.9920000471174717, 0.0, 0.0, 0.0, 0.0, 0.0, 1.6483360337961135E9, 0.0, 2022-03-26 18:07:13.796
89.0, 6.44010772369802, 1.2977452846243978, -1.3052250845357776, -6.724340120330453, -0.17600000835955143, 0.20800000987946987, 0.9920000471174717, 0.0, 0.0, 0.0, 0.0, 0.0, 1.6483360337961135E9, 0.0, 2022-03-26 18:07:13.796
90.0, -9.013158893212676, 13.564617139287293, -8.276398601941764, 0.3590303957462311, -0.17600000835955143, 0.20800000987946987, 0.9920000471174717, 0.0, 0.0, 0.0, 0.0, 0.0, 1.6483360338117352E9, 0.0, 2022-03-26 18:07:13.811
90.0, 1.1032704869285226, 0.5161061938852072, -16.605155803263187, -6.694420920684934, -0.17600000835955143, 0.20800000987946987, 0.9920000471174717, 0.0, 0.0, 0.0, 0.0, 0.0, 1.6483360338117352E9, 0.0, 2022-03-26 18:07:13.811
91.0, -3.6464024567976594, 8.553151198662817, -12.524924951605499, -1.9410080770030618, -0.17600000835955143, 0.20800000987946987, 0.9920000471174717, 0.0, 0.0, 0.0, 0.0, 0.0, 1.648336033812553E9, 0.0, 2022-03-26 18:07:13.812
91.0, 6.4999461229890585, 5.5724509339779615, -15.251312019303441, 1.20798768568784, -0.17600000835955143, 0.20800000987946987, 0.9920000471174717, 0.0, 0.0, 0.0, 0.0, 0.0, 1.648336033812553E9, 0.0, 2022-03-26 18:07:13.812
92.0, -0.5909041929990053, 4.41308194771409, -11.791904560290277, 14.940900322981179, -0.17600000835955143, 0.20800000987946987, 0.9920000471174717, 0.0, 0.0, 0.0, 0.0, 0.0, 1.6483360338261166E9, 0.0, 2022-03-26 18:07:13.826
92.0, -2.262639473192394, 6.466287023387849, -17.25589839555323, -2.8834628658369184, -0.17600000835955143, 0.20800000987946987, 0.9920000471174717, 0.0, 0.0, 0.0, 0.0, 0.0, 1.6483360338261166E9, 0.0, 2022-03-26 18:07:13.826
93.0, -3.979253552854061, 13.613235838711262, -6.073597528040409, -8.179161203093827, -0.17600000835955143, 0.20800000987946987, 0.9920000471174717, 0.0, 0.0, 0.0, 0.0, 0.0, 1.6483360338417196E9, 0.0, 2022-03-26 18:07:13.841
93.0, 6.533605222590268, 9.173974591307342, -2.0756444754078984, -0.28797229658812284, -0.17600000835955143, 0.20800000987946987, 0.9920000471174717, 0.0, 0.0, 0.0, 0.0, 0.0, 1.6483360338417196E9, 0.0, 2022-03-26 18:07:13.841
94.0, 3.777298955246806, 3.5229857582598925, -3.3172912606969476, 17.846802588552237, -0.17600000835955143, 0.20800000987946987, 0.9920000471174717, 0.0, 0.0, 0.0, 0.0, 0.0, 1.6483360338425117E9, 0.0, 2022-03-26 18:07:13.842
94.0, -4.401862247847021, 2.81240476667881, -8.949580593965948, -7.595736810006201, -0.17600000835955143, 0.20800000987946987, 0.9920000471174717, 0.0, 0.0, 0.0, 0.0, 0.0, 1.6483360338425117E9, 0.0, 2022-03-26 18:07:13.842
95.0, 8.893482094630599, 2.333697572350502, -9.533004987053573, -2.8348441664129496, -0.17600000835955143, 0.20800000987946987, 0.9920000471174717, 0.0, 0.0, 0.0, 0.0, 0.0, 1.6483360338561215E9, 0.0, 2022-03-26 18:07:13.856
95.0, 5.916521729901433, 17.532650992274284, -10.632535574026406, 0.9087956892326474, -0.17600000835955143, 0.20800000987946987, 0.9920000471174717, 0.0, 0.0, 0.0, 0.0, 0.0, 1.6483360338561215E9, 0.0, 2022-03-26 18:07:13.856
96.0, -15.6739207142964, 12.248172354884446, -22.274844136089087, -14.783824524842203, -0.17600000835955143, 0.20800000987946987, 0.9920000471174717, 0.0, 0.0, 0.0, 0.0, 0.0, 1.6483360338718126E9, 0.0, 2022-03-26 18:07:13.871
96.0, -10.161308179609478, 0.8265178902074695, -28.9393458571285, -27.278830276802182, -0.17600000835955143, 0.20800000987946987, 0.9920000471174717, 0.0, 0.0, 0.0, 0.0, 0.0, 1.6483360338718126E9, 0.0, 2022-03-26 18:07:13.871
97.0, 6.870196218602359, 6.473766823299229, -18.830396276898682, 1.9073489774018526, -0.17600000835955143, 0.20800000987946987, 0.9920000471174717, 0.0, 0.0, 0.0, 0.0, 0.0, 1.6483360338724556E9, 0.0, 2022-03-26 18:07:13.872
97.0, 2.9545209649950266, 7.004832617007196, -24.95635240431875, -0.5460253935307264, -0.17600000835955143, 0.20800000987946987, 0.9920000471174717, 0.0, 0.0, 0.0, 0.0, 0.0, 1.6483360338724556E9, 0.0, 2022-03-26 18:07:13.872
98.0, 2.2289803735911846, 8.46339359972626, -18.811696777120233, -20.730265454389155, -0.17600000835955143, 0.20800000987946987, 0.9920000471174717, 0.0, 0.0, 0.0, 0.0, 0.0, 1.648336033886097E9, 0.0, 2022-03-26 18:07:13.886
98.0, 2.700207768008113, 7.057191216386855, -17.869241988286376, -2.741346667520702, -0.17600000835955143, 0.20800000987946987, 0.9920000471174717, 0.0, 0.0, 0.0, 0.0, 0.0, 1.648336033886097E9, 0.0, 2022-03-26 18:07:13.886
99.0, 6.82905731908977, 6.720600220374763, -20.647987655363977, 17.035244298167527, -0.17600000835955143, 0.20800000987946987, 0.9920000471174717, 0.0, 0.0, 0.0, 0.0, 0.0, 1.6483360339017785E9, 0.0, 2022-03-26 18:07:13.901
99.0, 4.43926124740392, 7.027272016741335, -16.55279720388353, -12.45760675240308, -0.17600000835955143, 0.20800000987946987, 0.9920000471174717, 0.0, 0.0, 0.0, 0.0, 0.0, 1.6483360339017785E9, 0.0, 2022-03-26 18:07:13.901
100.0, -1.4286417830735445, -6.817837619222701, -28.651373560540378, -16.358322406187654, -0.17600000835955143, 0.20800000987946987, 0.9920000471174717, 0.0, 0.0, 0.0, 0.0, 0.0, 1.6483360339025385E9, 0.0, 2022-03-26 18:07:13.902
100.0, -12.674520949833095, -4.334544048644602, -27.170373178087175, -3.859576754271984, -0.17600000835955143, 0.20800000987946987, 0.9920000471174717, 0.0, 0.0, 0.0, 0.0, 0.0, 1.6483360339025385E9, 0.0, 2022-03-26 18:07:13.902
0.0, 649.919814299792, 5.806194681208581, 818.1610837564804, 425.991434502881, -0.17600000835955143, 0.20800000987946987, 0.9920000471174717, 0.0, 0.0, 0.0, 0.0, 0.0, 1.648336033916772E9, 0.0, 2022-03-26 18:07:13.916
1.0, 684.7569823870435, 14.191050381865352, 822.9070168002509, 447.978306342382, -0.17600000835955143, 0.20800000987946987, 0.9920000471174717, 0.0, 0.0, 0.0, 0.0, 0.0, 1.6483360339175546E9, 0.0, 2022-03-26 18:07:13.917
1.0, 682.520522213541, 9.976183131802827, 819.9936347347684, 443.6774213933386, -0.17600000835955143, 0.20800000987946987, 0.9920000471174717, 0.0, 0.0, 0.0, 0.0, 0.0, 1.6483360339175546E9, 0.0, 2022-03-26 18:07:13.917
2.0, 680.6281328359619, 9.08234704239294, 825.5286866691895, 449.9754129187204, -0.17600000835955143, 0.20800000987946987, 0.9920000471174717, 0.0, 0.0, 0.0, 0.0, 0.0, 1.648336033931105E9, 0.0, 2022-03-26 18:07:13.931
2.0, 685.1309723826125, 22.545986882876605, 834.242653565947, 436.69502817606553, -0.17600000835955143, 0.20800000987946987, 0.9920000471174717, 0.0, 0.0, 0.0, 0.0, 0.0, 1.648336033931105E9, 0.0, 2022-03-26 18:07:13.931
3.0, 677.0116495788097, 11.659138111863285, 827.8960433411412, 430.9318423443474, -0.17600000835955143, 0.20800000987946987, 0.9920000471174717, 0.0, 0.0, 0.0, 0.0, 0.0, 1.648336033946867E9, 0.0, 2022-03-26 18:07:13.946
3.0, 681.2115572290495, 10.395051926840097, 834.8634769585915, 450.16988771641627, -0.17600000835955143, 0.20800000987946987, 0.9920000471174717, 0.0, 0.0, 0.0, 0.0, 0.0, 1.648336033946867E9, 0.0, 2022-03-26 18:07:13.946
4.0, 675.9046391919255, 10.597006524447352, 824.9415223761462, 445.35663647344336, -0.17600000835955143, 0.20800000987946987, 0.9920000471174717, 0.0, 0.0, 0.0, 0.0, 0.0, 1.648336033947523E9, 0.0, 2022-03-26 18:07:13.947
4.0, 674.8051086049527, 14.931550573091954, 825.66706296755, 446.72917975718156, -0.17600000835955143, 0.20800000987946987, 0.9920000471174717, 0.0, 0.0, 0.0, 0.0, 0.0, 1.648336033947523E9, 0.0, 2022-03-26 18:07:13.947
5.0, 676.5067630847916, 10.215536728966981, 819.4812684408389, 446.0036391657777, -0.17600000835955143, 0.20800000987946987, 0.9920000471174717, 0.0, 0.0, 0.0, 0.0, 0.0, 1.648336033961048E9, 0.0, 2022-03-26 18:07:13.961
5.0, 673.1558127244934, 16.461169654969126, 825.4202295704745, 447.8324502441101, -0.17600000835955143, 0.20800000987946987, 0.9920000471174717, 0.0, 0.0, 0.0, 0.0, 0.0, 1.648336033961048E9, 0.0, 2022-03-26 18:07:13.961
6.0, 685.5573209775612, 16.625725253019482, 832.5222995863296, 445.6371289701201, -0.17600000835955143, 0.20800000987946987, 0.9920000471174717, 0.0, 0.0, 0.0, 0.0, 0.0, 1.6483360339768765E9, 0.0, 2022-03-26 18:07:13.976
6.0, 679.842753845267, 10.477329725865275, 840.9707335862331, 444.2197068869136, -0.17600000835955143, 0.20800000987946987, 0.9920000471174717, 0.0, 0.0, 0.0, 0.0, 0.0, 1.6483360339768765E9, 0.0, 2022-03-26 18:07:13.976
7.0, 659.0451701916754, 2.451504420954734, 844.6433153427206, 441.83365071518347, -0.17600000835955143, 0.20800000987946987, 0.9920000471174717, 0.0, 0.0, 0.0, 0.0, 0.0, 1.6483360339775653E9, 0.0, 2022-03-26 18:07:13.977
7.0, 678.3617534628138, -7.922978056129068, 844.3329036463983, 448.88710203161463, -0.17600000835955143, 0.20800000987946987, 0.9920000471174717, 0.0, 0.0, 0.0, 0.0, 0.0, 1.6483360339775653E9, 0.0, 2022-03-26 18:07:13.977
8.0, 678.2794756637886, 2.141092724632472, 853.4881787379272, 459.7627311027609, -0.17600000835955143, 0.20800000987946987, 0.9920000471174717, 0.0, 0.0, 0.0, 0.0, 0.0, 1.6483360339910576E9, 0.0, 2022-03-26 18:07:13.991
8.0, 683.4779366021976, 12.021908407565206, 848.0092253028415, 453.84620937285945, -0.17600000835955143, 0.20800000987946987, 0.9920000471174717, 0.0, 0.0, 0.0, 0.0, 0.0, 1.6483360339910576E9, 0.0, 2022-03-26 18:07:13.991
9.0, 684.7308030873537, 10.720423222985119, 850.7692714701407, 447.51455874787644, -0.17600000835955143, 0.20800000987946987, 0.9920000471174717, 0.0, 0.0, 0.0, 0.0, 0.0, 1.6483360340068452E9, 0.0, 2022-03-26 18:07:14.006
9.0, 686.7802682630718, 1.1350596365518868, 847.2350660120137, 454.72882576240227, -0.17600000835955143, 0.20800000987946987, 0.9920000471174717, 0.0, 0.0, 0.0, 0.0, 0.0, 1.6483360340068452E9, 0.0, 2022-03-26 18:07:14.006
10.0, 688.4108646437526, 7.335813763085753, 855.6087020128034, 471.78650946030393, -0.17600000835955143, 0.20800000987946987, 0.9920000471174717, 0.0, 0.0, 0.0, 0.0, 0.0, 1.6483360340075183E9, 0.0, 2022-03-26 18:07:14.007
10.0, 685.583500277251, 16.820200050715357, 855.3132499163039, 448.7113267336972, -0.17600000835955143, 0.20800000987946987, 0.9920000471174717, 0.0, 0.0, 0.0, 0.0, 0.0, 1.6483360340075183E9, 0.0, 2022-03-26 18:07:14.007
11.0, 688.8334733387455, 15.234482469502836, 859.7786904633977, 441.4447011197917, -0.17600000835955143, 0.20800000987946987, 0.9920000471174717, 0.0, 0.0, 0.0, 0.0, 0.0, 1.6483360340210617E9, 0.0, 2022-03-26 18:07:14.021
11.0, 683.9828230962157, 7.492889561224729, 856.9812452965416, 466.322515625041, -0.17600000835955143, 0.20800000987946987, 0.9920000471174717, 0.0, 0.0, 0.0, 0.0, 0.0, 1.6483360340210617E9, 0.0, 2022-03-26 18:07:14.021
12.0, 686.0322882719338, 11.408564814832062, 855.8256162102334, 470.62340057408437, -0.17600000835955143, 0.20800000987946987, 0.9920000471174717, 0.0, 0.0, 0.0, 0.0, 0.0, 1.648336034036802E9, 0.0, 2022-03-26 18:07:14.036
12.0, 672.4003529334441, 9.781708334106952, 857.2018993939273, 453.7115729744546, -0.17600000835955143, 0.20800000987946987, 0.9920000471174717, 0.0, 0.0, 0.0, 0.0, 0.0, 1.648336034036802E9, 0.0, 2022-03-26 18:07:14.036
13.0, 675.0968208014965, 9.84154673339799, 851.3526958632283, 461.14649408636615, -0.17600000835955143, 0.20800000987946987, 0.9920000471174717, 0.0, 0.0, 0.0, 0.0, 0.0, 1.6483360340375545E9, 0.0, 2022-03-26 18:07:14.037
13.0, 693.1193986879662, 5.82489418098703, 849.7407989823259, 475.08510122122243, -0.17600000835955143, 0.20800000987946987, 0.9920000471174717, 0.0, 0.0, 0.0, 0.0, 0.0, 1.6483360340375545E9, 0.0, 2022-03-26 18:07:14.037
14.0, 684.835520286113, 4.2429164997302, 846.9844927149825, 458.03489732323214, -0.17600000835955143, 0.20800000987946987, 0.9920000471174717, 0.0, 0.0, 0.0, 0.0, 0.0, 1.648336034051044E9, 0.0, 2022-03-26 18:07:14.051
14.0, 689.3084406331182, 13.012981895823032, 852.7813376463018, 449.7846780209802, -0.17600000835955143, 0.20800000987946987, 0.9920000471174717, 0.0, 0.0, 0.0, 0.0, 0.0, 1.648336034051044E9, 0.0, 2022-03-26 18:07:14.051
15.0, 685.2880481807515, -2.2757291230373085, 842.6050698668696, 458.229372120928, -0.17600000835955143, 0.20800000987946987, 0.9920000471174717, 0.0, 0.0, 0.0, 0.0, 0.0, 1.648336034066842E9, 0.0, 2022-03-26 18:07:14.066
15.0, 687.9882559487596, 2.2719892230816185, 850.65707447147, 453.1244086814113, -0.17600000835955143, 0.20800000987946987, 0.9920000471174717, 0.0, 0.0, 0.0, 0.0, 0.0, 1.648336034066842E9, 0.0, 2022-03-26 18:07:14.066
16.0, 672.7706030290574, 2.0775144253857434, 842.5676708673127, 430.9206226444803, -0.17600000835955143, 0.20800000987946987, 0.9920000471174717, 0.0, 0.0, 0.0, 0.0, 0.0, 1.648336034067532E9, 0.0, 2022-03-26 18:07:14.067
16.0, 683.3208608040586, 6.370919574517757, 849.3443695870228, 459.99086500005797, -0.17600000835955143, 0.20800000987946987, 0.9920000471174717, 0.0, 0.0, 0.0, 0.0, 0.0, 1.648336034067532E9, 0.0, 2022-03-26 18:07:14.067
17.0, 678.129879665561, 3.378999609965831, 844.4301410452463, 440.7154206284322, -0.17600000835955143, 0.20800000987946987, 0.9920000471174717, 0.0, 0.0, 0.0, 0.0, 0.0, 1.648336034081117E9, 0.0, 2022-03-26 18:07:14.081
17.0, 672.8267015283927, 0.282362446654588, 838.7305335127749, 438.4153821556829, -0.17600000835955143, 0.20800000987946987, 0.9920000471174717, 0.0, 0.0, 0.0, 0.0, 0.0, 1.648336034081117E9, 0.0, 2022-03-26 18:07:14.081
18.0, 676.1365129891783, -2.2345902235247195, 834.1828151666559, 448.7898646327667, -0.17600000835955143, 0.20800000987946987, 0.9920000471174717, 0.0, 0.0, 0.0, 0.0, 0.0, 1.6483360341288888E9, 0.0, 2022-03-26 18:07:14.128
18.0, 684.0314417956397, 7.571427460294217, 844.5011991444044, 461.5990219810046, -0.17600000835955143, 0.20800000987946987, 0.9920000471174717, 0.0, 0.0, 0.0, 0.0, 0.0, 1.6483360341288888E9, 0.0, 2022-03-26 18:07:14.128
19.0, 688.36972574424, 11.647918411996216, 852.586862848606, 462.246024673339, -0.17600000835955143, 0.20800000987946987, 0.9920000471174717, 0.0, 0.0, 0.0, 0.0, 0.0, 1.6483360341296632E9, 0.0, 2022-03-26 18:07:14.129
19.0, 688.4669631430879, 13.607625988777727, 851.2143195648678, 462.0926887751557, -0.17600000835955143, 0.20800000987946987, 0.9920000471174717, 0.0, 0.0, 0.0, 0.0, 0.0, 1.6483360341296632E9, 0.0, 2022-03-26 18:07:14.129
20.0, 685.4451239788905, 9.605933036189526, 842.6162895667367, 463.693365956191, -0.17600000835955143, 0.20800000987946987, 0.9920000471174717, 0.0, 0.0, 0.0, 0.0, 0.0, 1.6483360341304057E9, 0.0, 2022-03-26 18:07:14.130
20.0, 690.4715495193377, 14.763255075085908, 848.4954122970812, 457.66090732766315, -0.17600000835955143, 0.20800000987946987, 0.9920000471174717, 0.0, 0.0, 0.0, 0.0, 0.0, 1.6483360341304057E9, 0.0, 2022-03-26 18:07:14.130
21.0, 692.2667014980689, 17.826233138795942, 857.7928035869263, 441.4783602193929, -0.17600000835955143, 0.20800000987946987, 0.9920000471174717, 0.0, 0.0, 0.0, 0.0, 0.0, 1.6483360341311421E9, 0.0, 2022-03-26 18:07:14.131
21.0, 690.3967515202239, 12.717529799323529, 862.5649159303866, 473.81353523628786, -0.17600000835955143, 0.20800000987946987, 0.9920000471174717, 0.0, 0.0, 0.0, 0.0, 0.0, 1.6483360341311421E9, 0.0, 2022-03-26 18:07:14.131
22.0, 670.9717111503705, 13.89933818532154, 857.4412529910915, 457.7544048265554, -0.17600000835955143, 0.20800000987946987, 0.9920000471174717, 0.0, 0.0, 0.0, 0.0, 0.0, 1.64833603414184E9, 0.0, 2022-03-26 18:07:14.141
22.0, 679.5921805482358, 6.6588918711058795, 860.5565896541812, 442.3385372092016, -0.17600000835955143, 0.20800000987946987, 0.9920000471174717, 0.0, 0.0, 0.0, 0.0, 0.0, 1.64833603414184E9, 0.0, 2022-03-26 18:07:14.141
23.0, 692.2442620983347, 14.26958828093484, 860.6463472531177, 470.0885948804207, -0.17600000835955143, 0.20800000987946987, 0.9920000471174717, 0.0, 0.0, 0.0, 0.0, 0.0, 1.6483360341424844E9, 0.0, 2022-03-26 18:07:14.142
23.0, 683.8930654972792, 13.263555192854255, 848.1289021014236, 464.92379304161295, -0.17600000835955143, 0.20800000987946987, 0.9920000471174717, 0.0, 0.0, 0.0, 0.0, 0.0, 1.6483360341424844E9, 0.0, 2022-03-26 18:07:14.142
24.0, 683.0740274069831, 16.539707554038614, 842.6499486663379, 454.6091489638202, -0.17600000835955143, 0.20800000987946987, 0.9920000471174717, 0.0, 0.0, 0.0, 0.0, 0.0, 1.6483360341568115E9, 0.0, 2022-03-26 18:07:14.156
24.0, 689.02046833653, 12.489395902026445, 848.353296098765, 460.907140489202, -0.17600000835955143, 0.20800000987946987, 0.9920000471174717, 0.0, 0.0, 0.0, 0.0, 0.0, 1.6483360341568115E9, 0.0, 2022-03-26 18:07:14.156
25.0, 688.6128192413598, 3.296721810940653, 857.5085711902939, 465.88120743026957, -0.17600000835955143, 0.20800000987946987, 0.9920000471174717, 0.0, 0.0, 0.0, 0.0, 0.0, 1.648336034157564E9, 0.0, 2022-03-26 18:07:14.157
25.0, 682.2437696168199, -2.126133124809712, 855.7021995116957, 453.5993759757839, -0.17600000835955143, 0.20800000987946987, 0.9920000471174717, 0.0, 0.0, 0.0, 0.0, 0.0, 1.648336034157564E9, 0.0, 2022-03-26 18:07:14.157
26.0, 670.7996757524088, 11.244009216781706, 855.2870706166141, 439.0324656483717, -0.17600000835955143, 0.20800000987946987, 0.9920000471174717, 0.0, 0.0, 0.0, 0.0, 0.0, 1.6483360341711748E9, 0.0, 2022-03-26 18:07:14.171
26.0, 684.9028384853154, -1.9653174267150462, 840.9295946867205, 453.4871789771132, -0.17600000835955143, 0.20800000987946987, 0.9920000471174717, 0.0, 0.0, 0.0, 0.0, 0.0, 1.6483360341711748E9, 0.0, 2022-03-26 18:07:14.171
27.0, 684.8691793857142, 7.204917264636606, 839.2690791063942, 456.6473944396712, -0.17600000835955143, 0.20800000987946987, 0.9920000471174717, 0.0, 0.0, 0.0, 0.0, 0.0, 1.6483360341868725E9, 0.0, 2022-03-26 18:07:14.186
27.0, 676.574081283994, 8.147372053470463, 843.9439540510066, 439.47003394318745, -0.17600000835955143, 0.20800000987946987, 0.9920000471174717, 0.0, 0.0, 0.0, 0.0, 0.0, 1.6483360341868725E9, 0.0, 2022-03-26 18:07:14.186
28.0, 683.4554972024634, 19.621385117527097, 855.4890252142213, 458.66320051578805, -0.17600000835955143, 0.20800000987946987, 0.9920000471174717, 0.0, 0.0, 0.0, 0.0, 0.0, 1.6483360341875577E9, 0.0, 2022-03-26 18:07:14.187
28.0, 685.5161820780486, 19.04544052435085, 855.227232217323, 451.55365070002154, -0.17600000835955143, 0.20800000987946987, 0.9920000471174717, 0.0, 0.0, 0.0, 0.0, 0.0, 1.6483360341875577E9, 0.0, 2022-03-26 18:07:14.187
29.0, 683.6611917000264, 12.006948807742447, 848.9890790912323, 445.8203840679489, -0.17600000835955143, 0.20800000987946987, 0.9920000471174717, 0.0, 0.0, 0.0, 0.0, 0.0, 1.6483360342012067E9, 0.0, 2022-03-26 18:07:14.201
29.0, 672.7556434292346, 11.662878011818975, 845.5034923325293, 450.4653398129158, -0.17600000835955143, 0.20800000987946987, 0.9920000471174717, 0.0, 0.0, 0.0, 0.0, 0.0, 1.6483360342012067E9, 0.0, 2022-03-26 18:07:14.201
30.0, 664.1800528308377, 5.84733358072117, 837.6908413250931, 466.11682112747803, -0.17600000835955143, 0.20800000987946987, 0.9920000471174717, 0.0, 0.0, 0.0, 0.0, 0.0, 1.6483360342168176E9, 0.0, 2022-03-26 18:07:14.216
30.0, 679.0012763552368, 9.374059238936752, 844.7442926415242, 446.3851089612581, -0.17600000835955143, 0.20800000987946987, 0.9920000471174717, 0.0, 0.0, 0.0, 0.0, 0.0, 1.6483360342168176E9, 0.0, 2022-03-26 18:07:14.216
31.0, 687.6030462533236, 11.85361290955916, 848.0728036020882, 447.21910665137693, -0.17600000835955143, 0.20800000987946987, 0.9920000471174717, 0.0, 0.0, 0.0, 0.0, 0.0, 1.6483360342175555E9, 0.0, 2022-03-26 18:07:14.217
31.0, 692.1133655998856, 9.938784132245928, 850.9413068681024, 475.88543981174007, -0.17600000835955143, 0.20800000987946987, 0.9920000471174717, 0.0, 0.0, 0.0, 0.0, 0.0, 1.6483360342175555E9, 0.0, 2022-03-26 18:07:14.217
32.0, 688.6913571404293, 19.16885722288862, 847.9680864033289, 457.9451397242956, -0.17600000835955143, 0.20800000987946987, 0.9920000471174717, 0.0, 0.0, 0.0, 0.0, 0.0, 1.648336034231136E9, 0.0, 2022-03-26 18:07:14.231
32.0, 683.11142640654, 16.29661405691877, 849.0975361899473, 449.51166532421485, -0.17600000835955143, 0.20800000987946987, 0.9920000471174717, 0.0, 0.0, 0.0, 0.0, 0.0, 1.648336034231136E9, 0.0, 2022-03-26 18:07:14.231
33.0, 676.6451393831521, 14.583739877212793, 844.8452699403279, 437.0353590720333, -0.17600000835955143, 0.20800000987946987, 0.9920000471174717, 0.0, 0.0, 0.0, 0.0, 0.0, 1.648336034246838E9, 0.0, 2022-03-26 18:07:14.246
33.0, 690.5874864179641, 15.88148516183719, 846.6030229195021, 458.0573367229663, -0.17600000835955143, 0.20800000987946987, 0.9920000471174717, 0.0, 0.0, 0.0, 0.0, 0.0, 1.648336034246838E9, 0.0, 2022-03-26 18:07:14.246
34.0, 682.7598758107051, 9.172104641329497, 845.4137347335927, 460.0095644998364, -0.17600000835955143, 0.20800000987946987, 0.9920000471174717, 0.0, 0.0, 0.0, 0.0, 0.0, 1.648336034247636E9, 0.0, 2022-03-26 18:07:14.247
34.0, 668.9334656745195, 10.746602522674948, 848.6861471948214, 445.47257337206975, -0.17600000835955143, 0.20800000987946987, 0.9920000471174717, 0.0, 0.0, 0.0, 0.0, 0.0, 1.648336034247636E9, 0.0, 2022-03-26 18:07:14.247
35.0, 672.5200297320262, 9.46381683787331, 843.1884942599572, 451.58356989966705, -0.17600000835955143, 0.20800000987946987, 0.9920000471174717, 0.0, 0.0, 0.0, 0.0, 0.0, 1.6483360342610457E9, 0.0, 2022-03-26 18:07:14.261
35.0, 683.6237927004695, 16.73792225169018, 846.4160279217176, 449.5752436234616, -0.17600000835955143, 0.20800000987946987, 0.9920000471174717, 0.0, 0.0, 0.0, 0.0, 0.0, 1.6483360342610457E9, 0.0, 2022-03-26 18:07:14.261
36.0, 689.1588446348906, 17.695336640346795, 846.000899026636, 455.17387385712937, -0.17600000835955143, 0.20800000987946987, 0.9920000471174717, 0.0, 0.0, 0.0, 0.0, 0.0, 1.6483360342768695E9, 0.0, 2022-03-26 18:07:14.276
36.0, 684.9776364844292, 11.120592518243939, 841.5915569788776, 453.40864107804373, -0.17600000835955143, 0.20800000987946987, 0.9920000471174717, 0.0, 0.0, 0.0, 0.0, 0.0, 1.6483360342768695E9, 0.0, 2022-03-26 18:07:14.276
37.0, 680.8226076336578, 1.6025471310131252, 842.021645473782, 449.7435391214676, -0.17600000835955143, 0.20800000987946987, 0.9920000471174717, 0.0, 0.0, 0.0, 0.0, 0.0, 1.6483360342775035E9, 0.0, 2022-03-26 18:07:14.277
37.0, 677.7932886695489, 6.572874172125012, 843.8467166521586, 445.408995072823, -0.17600000835955143, 0.20800000987946987, 0.9920000471174717, 0.0, 0.0, 0.0, 0.0, 0.0, 1.6483360342775035E9, 0.0, 2022-03-26 18:07:14.277
38.0, 677.6586522711441, 3.0424086139537394, 847.0443311142735, 452.8700954844244, -0.17600000835955143, 0.20800000987946987, 0.9920000471174717, 0.0, 0.0, 0.0, 0.0, 0.0, 1.6483360342910528E9, 0.0, 2022-03-26 18:07:14.291
38.0, 667.8675941871479, -3.506156208459288, 846.255212223623, 454.467032765504, -0.17600000835955143, 0.20800000987946987, 0.9920000471174717, 0.0, 0.0, 0.0, 0.0, 0.0, 1.6483360342910528E9, 0.0, 2022-03-26 18:07:14.291
39.0, 656.7563514187932, 8.895352044608444, 844.7517724414356, 450.9290874074213, -0.17600000835955143, 0.20800000987946987, 0.9920000471174717, 0.0, 0.0, 0.0, 0.0, 0.0, 1.648336034306841E9, 0.0, 2022-03-26 18:07:14.306
39.0, 689.6487715290859, 21.97752208961174, 846.8685558163561, 439.6757284407504, -0.17600000835955143, 0.20800000987946987, 0.9920000471174717, 0.0, 0.0, 0.0, 0.0, 0.0, 1.648336034306841E9, 0.0, 2022-03-26 18:07:14.306
40.0, 687.8461397504434, 14.594959577079862, 845.3314569345675, 466.9769981172867, -0.17600000835955143, 0.20800000987946987, 0.9920000471174717, 0.0, 0.0, 0.0, 0.0, 0.0, 1.6483360343075063E9, 0.0, 2022-03-26 18:07:14.307
40.0, 679.6108800480142, 19.423170419875532, 847.1527882129885, 464.22069184994325, -0.17600000835955143, 0.20800000987946987, 0.9920000471174717, 0.0, 0.0, 0.0, 0.0, 0.0, 1.6483360343075063E9, 0.0, 2022-03-26 18:07:14.307
41.0, 685.2244698815048, 14.217229681555182, 843.3792291576974, 438.6061170534231, -0.17600000835955143, 0.20800000987946987, 0.9920000471174717, 0.0, 0.0, 0.0, 0.0, 0.0, 1.648336034321116E9, 0.0, 2022-03-26 18:07:14.321
41.0, 687.6890639523044, 9.418938038405031, 842.6836077659391, 441.9009689143859, -0.17600000835955143, 0.20800000987946987, 0.9920000471174717, 0.0, 0.0, 0.0, 0.0, 0.0, 1.648336034321116E9, 0.0, 2022-03-26 18:07:14.321
42.0, 682.786055110395, 20.238468610215932, 838.9773669098504, 449.751018921379, -0.17600000835955143, 0.20800000987946987, 0.9920000471174717, 0.0, 0.0, 0.0, 0.0, 0.0, 1.6483360343365471E9, 0.0, 2022-03-26 18:07:14.336
42.0, 680.7702490342781, 17.025894548278302, 840.9221148868091, 446.59080345882103, -0.17600000835955143, 0.20800000987946987, 0.9920000471174717, 0.0, 0.0, 0.0, 0.0, 0.0, 1.6483360343365471E9, 0.0, 2022-03-26 18:07:14.336
43.0, 681.6678250236437, 18.626571729313582, 842.5115723679774, 447.31634405022487, -0.17600000835955143, 0.20800000987946987, 0.9920000471174717, 0.0, 0.0, 0.0, 0.0, 0.0, 1.6483360343518007E9, 0.0, 2022-03-26 18:07:14.351
43.0, 685.1534117823467, 15.9151442614384, 845.9298409274779, 461.9842316764407, -0.17600000835955143, 0.20800000987946987, 0.9920000471174717, 0.0, 0.0, 0.0, 0.0, 0.0, 1.6483360343518007E9, 0.0, 2022-03-26 18:07:14.351
44.0, 674.692911606282, 18.013228136580437, 849.0414376906119, 449.268571827095, -0.17600000835955143, 0.20800000987946987, 0.9920000471174717, 0.0, 0.0, 0.0, 0.0, 0.0, 1.6483360343525085E9, 0.0, 2022-03-26 18:07:14.352
44.0, 681.4284714264795, 6.6514120711945, 846.3935885219835, 441.5606380184181, -0.17600000835955143, 0.20800000987946987, 0.9920000471174717, 0.0, 0.0, 0.0, 0.0, 0.0, 1.6483360343525085E9, 0.0, 2022-03-26 18:07:14.352
45.0, 682.5541813131422, 23.828772567678243, 853.611595436465, 465.88868723018095, -0.17600000835955143, 0.20800000987946987, 0.9920000471174717, 0.0, 0.0, 0.0, 0.0, 0.0, 1.6483360343667552E9, 0.0, 2022-03-26 18:07:14.366
45.0, 679.794135145843, 19.426910319831222, 852.1679940535687, 465.1369673390873, -0.17600000835955143, 0.20800000987946987, 0.9920000471174717, 0.0, 0.0, 0.0, 0.0, 0.0, 1.6483360343667552E9, 0.0, 2022-03-26 18:07:14.366
46.0, 669.0681020729244, 18.70136972842738, 850.1484480774961, 454.743785362225, -0.17600000835955143, 0.20800000987946987, 0.9920000471174717, 0.0, 0.0, 0.0, 0.0, 0.0, 1.6483360343675275E9, 0.0, 2022-03-26 18:07:14.367
46.0, 670.4780443562195, 11.06823391886428, 848.9516800916754, 460.40973379509524, -0.17600000835955143, 0.20800000987946987, 0.9920000471174717, 0.0, 0.0, 0.0, 0.0, 0.0, 1.6483360343675275E9, 0.0, 2022-03-26 18:07:14.367
47.0, 683.9304644968361, 18.72754902811721, 851.6743272594176, 453.29644407937303, -0.17600000835955143, 0.20800000987946987, 0.9920000471174717, 0.0, 0.0, 0.0, 0.0, 0.0, 1.648336034381101E9, 0.0, 2022-03-26 18:07:14.381
47.0, 684.9364975849167, 14.789434374775738, 843.106216460932, 443.8232774916105, -0.17600000835955143, 0.20800000987946987, 0.9920000471174717, 0.0, 0.0, 0.0, 0.0, 0.0, 1.648336034381101E9, 0.0, 2022-03-26 18:07:14.381
48.0, 684.5999065889046, 15.52619466604665, 845.3277170346119, 439.8290643389337, -0.17600000835955143, 0.20800000987946987, 0.9920000471174717, 0.0, 0.0, 0.0, 0.0, 0.0, 1.648336034396862E9, 0.0, 2022-03-26 18:07:14.396
48.0, 679.4126653503627, 12.889565197285265, 843.1024765609764, 447.61553604668006, -0.17600000835955143, 0.20800000987946987, 0.9920000471174717, 0.0, 0.0, 0.0, 0.0, 0.0, 1.648336034396862E9, 0.0, 2022-03-26 18:07:14.396
49.0, 680.9572440320626, 15.832866462413222, 838.584677414503, 448.39343523746356, -0.17600000835955143, 0.20800000987946987, 0.9920000471174717, 0.0, 0.0, 0.0, 0.0, 0.0, 1.6483360343975215E9, 0.0, 2022-03-26 18:07:14.397
49.0, 673.6120805190876, 7.694844158831984, 842.0702641732059, 448.3859554375522, -0.17600000835955143, 0.20800000987946987, 0.9920000471174717, 0.0, 0.0, 0.0, 0.0, 0.0, 1.6483360343975215E9, 0.0, 2022-03-26 18:07:14.397
50.0, 678.7320035584271, 11.202870317269117, 851.09090286633, 455.28607085580006, -0.17600000835955143, 0.20800000987946987, 0.9920000471174717, 0.0, 0.0, 0.0, 0.0, 0.0, 1.6483360344111953E9, 0.0, 2022-03-26 18:07:14.411
50.0, 677.804508369416, 6.744909570086747, 843.1398755605333, 456.7895106379874, -0.17600000835955143, 0.20800000987946987, 0.9920000471174717, 0.0, 0.0, 0.0, 0.0, 0.0, 1.6483360344111953E9, 0.0, 2022-03-26 18:07:14.411
51.0, 675.5830077957362, 9.684470935259014, 842.7060471656732, 452.00617859466, -0.17600000835955143, 0.20800000987946987, 0.9920000471174717, 0.0, 0.0, 0.0, 0.0, 0.0, 1.648336034426905E9, 0.0, 2022-03-26 18:07:14.426
51.0, 673.3428077222779, 10.144478629808873, 845.5483711319976, 454.3510958668776, -0.17600000835955143, 0.20800000987946987, 0.9920000471174717, 0.0, 0.0, 0.0, 0.0, 0.0, 1.648336034426905E9, 0.0, 2022-03-26 18:07:14.426
52.0, 680.0334887430072, 10.769041922409087, 843.360529657919, 456.52023784117773, -0.19200000911951065, 0.20800000987946987, 0.9920000471174717, 0.0, 0.0, 0.0, 0.0, 0.0, 1.6483360344274912E9, 0.0, 2022-03-26 18:07:14.427
52.0, 670.5004837559536, 10.122039230074733, 847.713773206342, 440.03101893654093, -0.19200000911951065, 0.20800000987946987, 0.9920000471174717, 0.0, 0.0, 0.0, 0.0, 0.0, 1.6483360344274912E9, 0.0, 2022-03-26 18:07:14.427
53.0, 681.2489562286064, 13.932997284922749, 855.6386212124489, 448.834743432235, -0.19200000911951065, 0.20800000987946987, 0.9920000471174717, 0.0, 0.0, 0.0, 0.0, 0.0, 1.6483360344411607E9, 0.0, 2022-03-26 18:07:14.441
53.0, 673.9112725155428, 7.298414763528854, 849.6173822837882, 452.0435775942169, -0.19200000911951065, 0.20800000987946987, 0.9920000471174717, 0.0, 0.0, 0.0, 0.0, 0.0, 1.6483360344411607E9, 0.0, 2022-03-26 18:07:14.441
54.0, 665.4890178153291, 6.872066168580204, 851.5060317614116, 446.1607149639167, -0.19200000911951065, 0.20800000987946987, 0.9920000471174717, 0.0, 0.0, 0.0, 0.0, 0.0, 1.6483360344568193E9, 0.0, 2022-03-26 18:07:14.456
54.0, 679.0872940542176, 6.183924576733261, 844.433880945202, 422.04584004962817, -0.19200000911951065, 0.20800000987946987, 0.9920000471174717, 0.0, 0.0, 0.0, 0.0, 0.0, 1.6483360344568193E9, 0.0, 2022-03-26 18:07:14.456
55.0, 688.6763975406066, 21.352958797011524, 852.9197139446624, 466.3075560252182, -0.19200000911951065, 0.20800000987946987, 0.9920000471174717, 0.0, 0.0, 0.0, 0.0, 0.0, 1.6483360344575164E9, 0.0, 2022-03-26 18:07:14.457
55.0, 676.3908261861652, 19.195036522578448, 852.4971052496694, 458.52108431747183, -0.19200000911951065, 0.20800000987946987, 0.9920000471174717, 0.0, 0.0, 0.0, 0.0, 0.0, 1.6483360344575164E9, 0.0, 2022-03-26 18:07:14.457
56.0, 686.499775766395, 31.1814158805646, 863.9262395142578, 463.47271185880527, -0.19200000911951065, 0.20800000987946987, 0.9920000471174717, 0.0, 0.0, 0.0, 0.0, 0.0, 1.6483360344711442E9, 0.0, 2022-03-26 18:07:14.471
56.0, 685.5648007774726, 30.8111657849513, 855.69845961174, 461.52048408193514, -0.19200000911951065, 0.20800000987946987, 0.9920000471174717, 0.0, 0.0, 0.0, 0.0, 0.0, 1.6483360344711442E9, 0.0, 2022-03-26 18:07:14.471
57.0, 681.6977442232892, 23.49592147162184, 851.367655463051, 463.4203532594256, -0.19200000911951065, 0.20800000987946987, 0.9920000471174717, 0.0, 0.0, 0.0, 0.0, 0.0, 1.64833603448686E9, 0.0, 2022-03-26 18:07:14.486
57.0, 676.6974979825318, 21.10612539993599, 844.4563203449361, 449.3022309266962, -0.19200000911951065, 0.20800000987946987, 0.9920000471174717, 0.0, 0.0, 0.0, 0.0, 0.0, 1.64833603448686E9, 0.0, 2022-03-26 18:07:14.486
58.0, 666.2182983066887, 4.923578291665763, 840.0245388974436, 443.1201762999408, -0.19200000911951065, 0.20800000987946987, 0.9920000471174717, 0.0, 0.0, 0.0, 0.0, 0.0, 1.6483360344875169E9, 0.0, 2022-03-26 18:07:14.487
58.0, 680.1008069422096, 9.407718338537961, 848.3308566990308, 440.1544356350787, -0.19200000911951065, 0.20800000987946987, 0.9920000471174717, 0.0, 0.0, 0.0, 0.0, 0.0, 1.6483360344875169E9, 0.0, 2022-03-26 18:07:14.487
59.0, 675.9869169909507, 3.8390073045156896, 846.0382980261929, 446.17193466378376, -0.19200000911951065, 0.20800000987946987, 0.9920000471174717, 0.0, 0.0, 0.0, 0.0, 0.0, 1.6483360345011213E9, 0.0, 2022-03-26 18:07:14.501
59.0, 665.5638158144429, 13.009241995867342, 845.7129267300479, 437.1064171711914, -0.19200000911951065, 0.20800000987946987, 0.9920000471174717, 0.0, 0.0, 0.0, 0.0, 0.0, 1.6483360345011213E9, 0.0, 2022-03-26 18:07:14.501
60.0, 668.4622382801026, 16.393851455766708, 850.0960894781165, 457.3392759314738, -0.19200000911951065, 0.20800000987946987, 0.9920000471174717, 0.0, 0.0, 0.0, 0.0, 0.0, 1.64833603451679E9, 0.0, 2022-03-26 18:07:14.516
60.0, 685.5274017779157, 14.508941878098994, 852.5793830486946, 457.7132659270428, -0.19200000911951065, 0.20800000987946987, 0.9920000471174717, 0.0, 0.0, 0.0, 0.0, 0.0, 1.64833603451679E9, 0.0, 2022-03-26 18:07:14.516
61.0, 685.3815456796438, 15.52619466604665, 850.0212914790027, 447.72399314539507, -0.19200000911951065, 0.20800000987946987, 0.9920000471174717, 0.0, 0.0, 0.0, 0.0, 0.0, 1.6483360345175133E9, 0.0, 2022-03-26 18:07:14.517
61.0, 682.5841005127877, 12.463216602336615, 846.1953738243319, 451.25819860352203, -0.19200000911951065, 0.20800000987946987, 0.9920000471174717, 0.0, 0.0, 0.0, 0.0, 0.0, 1.6483360345175133E9, 0.0, 2022-03-26 18:07:14.517
62.0, 673.2006915239617, 11.647918411996216, 841.815950976219, 458.32286961982027, -0.19200000911951065, 0.20800000987946987, 0.9920000471174717, 0.0, 0.0, 0.0, 0.0, 0.0, 1.6483360345311599E9, 0.0, 2022-03-26 18:07:14.531
62.0, 680.48227673769, 16.592066153418273, 843.094996761065, 451.05998390587047, -0.19200000911951065, 0.20800000987946987, 0.9920000471174717, 0.0, 0.0, 0.0, 0.0, 0.0, 1.6483360345311599E9, 0.0, 2022-03-26 18:07:14.531
63.0, 667.2804298941046, 4.7702423934824765, 836.4529344397597, 454.743785362225, -0.19200000911951065, 0.20800000987946987, 0.9920000471174717, 0.0, 0.0, 0.0, 0.0, 0.0, 1.648336034546824E9, 0.0, 2022-03-26 18:07:14.546
63.0, 676.6787984827533, 10.574567124713212, 842.1375823724084, 454.6764671630226, -0.19200000911951065, 0.20800000987946987, 0.9920000471174717, 0.0, 0.0, 0.0, 0.0, 0.0, 1.648336034546824E9, 0.0, 2022-03-26 18:07:14.546
64.0, 673.8738735159859, 13.390711791347712, 841.2325265831314, 433.2244010171853, -0.19200000911951065, 0.20800000987946987, 0.9920000471174717, 0.0, 0.0, 0.0, 0.0, 0.0, 1.6483360345475173E9, 0.0, 2022-03-26 18:07:14.547
64.0, 674.2927423110232, 9.613412836100906, 836.7409067363478, 444.32442408567294, -0.19200000911951065, 0.20800000987946987, 0.9920000471174717, 0.0, 0.0, 0.0, 0.0, 0.0, 1.6483360345475173E9, 0.0, 2022-03-26 18:07:14.547
65.0, 688.5567207420245, 19.019261224661022, 851.8014838579111, 454.84476266102865, -0.19200000911951065, 0.20800000987946987, 0.9920000471174717, 0.0, 0.0, 0.0, 0.0, 0.0, 1.6483360345611756E9, 0.0, 2022-03-26 18:07:14.561
65.0, 681.664085123688, 19.47926891921088, 854.251118328888, 458.62954141618684, -0.19200000911951065, 0.20800000987946987, 0.9920000471174717, 0.0, 0.0, 0.0, 0.0, 0.0, 1.6483360345611756E9, 0.0, 2022-03-26 18:07:14.561
66.0, 676.0280558904633, 10.787741422187537, 848.4767127973028, 445.57729057082906, -0.19200000911951065, 0.20800000987946987, 0.9920000471174717, 0.0, 0.0, 0.0, 0.0, 0.0, 1.6483360345767798E9, 0.0, 2022-03-26 18:07:14.576
66.0, 662.0595295559615, 19.655044217128307, 852.6018224484287, 464.29548984905705, -0.19200000911951065, 0.20800000987946987, 0.9920000471174717, 0.0, 0.0, 0.0, 0.0, 0.0, 1.6483360345767798E9, 0.0, 2022-03-26 18:07:14.576
67.0, 689.1962436344475, 17.0632935478352, 848.3757354984991, 456.99894503550604, -0.19200000911951065, 0.20800000987946987, 0.9920000471174717, 0.0, 0.0, 0.0, 0.0, 0.0, 1.6483360345775037E9, 0.0, 2022-03-26 18:07:14.577
67.0, 695.9729423541576, 15.051227371674031, 850.4326804741286, 450.6710343104787, -0.19200000911951065, 0.20800000987946987, 0.9920000471174717, 0.0, 0.0, 0.0, 0.0, 0.0, 1.6483360345775037E9, 0.0, 2022-03-26 18:07:14.577
68.0, 697.0986522408202, 24.33365906169638, 862.7107720286585, 451.3778754021041, -0.19200000911951065, 0.20800000987946987, 0.9920000471174717, 0.0, 0.0, 0.0, 0.0, 0.0, 1.648336034591225E9, 0.0, 2022-03-26 18:07:14.591
68.0, 689.3869785321876, 22.048580188769847, 851.259198364336, 462.5339969699271, -0.19200000911951065, 0.20800000987946987, 0.9920000471174717, 0.0, 0.0, 0.0, 0.0, 0.0, 1.648336034591225E9, 0.0, 2022-03-26 18:07:14.591
69.0, 684.775681886822, 19.277314321603626, 856.4539194027893, 453.0047318828292, -0.19200000911951065, 0.20800000987946987, 0.9920000471174717, 0.0, 0.0, 0.0, 0.0, 0.0, 1.6483360346067994E9, 0.0, 2022-03-26 18:07:14.606
69.0, 696.2384752510116, 19.85325891477987, 865.2352044987492, 455.5628234525211, -0.19200000911951065, 0.20800000987946987, 0.9920000471174717, 0.0, 0.0, 0.0, 0.0, 0.0, 1.6483360346067994E9, 0.0, 2022-03-26 18:07:14.606
70.0, 691.6870170049369, 22.76664098026231, 863.754204116296, 471.96976455813274, -0.19200000911951065, 0.20800000987946987, 1.008000047877431, 0.0, 0.0, 0.0, 0.0, 0.0, 1.6483360346075456E9, 0.0, 2022-03-26 18:07:14.607
70.0, 694.2039696751162, 21.87280489085242, 862.0375900366344, 482.2021308369003, -0.19200000911951065, 0.20800000987946987, 1.008000047877431, 0.0, 0.0, 0.0, 0.0, 0.0, 1.6483360346075456E9, 0.0, 2022-03-26 18:07:14.607
71.0, 690.4341505197808, 20.71343590458855, 862.2320648343302, 462.7509111673571, -0.19200000911951065, 0.20800000987946987, 1.008000047877431, 0.0, 0.0, 0.0, 0.0, 0.0, 1.6483360346211433E9, 0.0, 2022-03-26 18:07:14.621
71.0, 678.0663013663143, 11.202870317269117, 858.8511952743866, 464.6433005449362, -0.19200000911951065, 0.20800000987946987, 1.008000047877431, 0.0, 0.0, 0.0, 0.0, 0.0, 1.6483360346211433E9, 0.0, 2022-03-26 18:07:14.621
72.0, 661.0385368680581, 25.12277795234695, 846.1168359252624, 455.3197299554013, -0.17600000835955143, 0.20800000987946987, 1.008000047877431, 0.0, 0.0, 0.0, 0.0, 0.0, 1.6483360346368763E9, 0.0, 2022-03-26 18:07:14.636
72.0, 682.6514187119901, 24.40471716085449, 839.2765589063056, 442.3048781096004, -0.17600000835955143, 0.20800000987946987, 1.008000047877431, 0.0, 0.0, 0.0, 0.0, 0.0, 1.6483360346368763E9, 0.0, 2022-03-26 18:07:14.636
73.0, 689.1700643347576, 37.90201610093936, 850.3541425750591, 450.1586680165492, -0.17600000835955143, 0.20800000987946987, 1.008000047877431, 0.0, 0.0, 0.0, 0.0, 0.0, 1.6483360346375039E9, 0.0, 2022-03-26 18:07:14.637
73.0, 682.2288100169972, 38.86691028950736, 846.591803219635, 445.9325810666196, -0.17600000835955143, 0.20800000987946987, 1.008000047877431, 0.0, 0.0, 0.0, 0.0, 0.0, 1.6483360346375039E9, 0.0, 2022-03-26 18:07:14.637
74.0, 685.5461012776941, 36.86606381321326, 838.8651699111797, 423.1004918371327, -0.17600000835955143, 0.20800000987946987, 1.008000047877431, 0.0, 0.0, 0.0, 0.0, 0.0, 1.6483360346511576E9, 0.0, 2022-03-26 18:07:14.651
74.0, 684.2034771936014, 35.067171934526414, 830.9478017049842, 429.7388142584823, -0.17600000835955143, 0.20800000987946987, 1.008000047877431, 0.0, 0.0, 0.0, 0.0, 0.0, 1.6483360346511576E9, 0.0, 2022-03-26 18:07:14.651
75.0, 696.3768515493721, 39.71960747940466, 827.3836770472117, 450.95900660706684, -0.17600000835955143, 0.20800000987946987, 1.008000047877431, 0.0, 0.0, 0.0, 0.0, 0.0, 1.6483360346831155E9, 0.0, 2022-03-26 18:07:14.683
75.0, 686.331480268389, 40.06367827532813, 817.611318462994, 428.8187988693826, -0.17600000835955143, 0.20800000987946987, 1.008000047877431, 0.0, 0.0, 0.0, 0.0, 0.0, 1.6483360346831155E9, 0.0, 2022-03-26 18:07:14.683
76.0, 687.0121420603245, 52.99999222205952, 814.93355009472, 425.774520305451, -0.17600000835955143, 0.20800000987946987, 1.008000047877431, 0.0, 0.0, 0.0, 0.0, 0.0, 1.6483360346838317E9, 0.0, 2022-03-26 18:07:14.683
76.0, 690.1947969226167, 43.40340893575922, 816.8895177715458, 436.5977907772176, -0.17600000835955143, 0.20800000987946987, 1.008000047877431, 0.0, 0.0, 0.0, 0.0, 0.0, 1.6483360346838317E9, 0.0, 2022-03-26 18:07:14.683
77.0, 681.0806607306004, 29.393743701744825, 809.1554046631791, 438.02269266033545, -0.17600000835955143, 0.20800000987946987, 1.008000047877431, 0.0, 0.0, 0.0, 0.0, 0.0, 1.648336034684606E9, 0.0, 2022-03-26 18:07:14.684
77.0, 669.337374869734, 26.966548630502075, 808.7851545675658, 419.89913747506216, -0.17600000835955143, 0.20800000987946987, 1.008000047877431, 0.0, 0.0, 0.0, 0.0, 0.0, 1.648336034684606E9, 0.0, 2022-03-26 18:07:14.684
78.0, 680.9460243321955, 28.544786411803216, 812.9888021177612, 432.5998377245851, -0.17600000835955143, 0.20800000987946987, 1.008000047877431, 0.0, 0.0, 0.0, 0.0, 0.0, 1.6483360346853511E9, 0.0, 2022-03-26 18:07:14.685
78.0, 691.0998527118936, 39.439114982727915, 816.2873938786797, 444.36182308522984, -0.17600000835955143, 0.20800000987946987, 1.008000047877431, 0.0, 0.0, 0.0, 0.0, 0.0, 1.6483360346853511E9, 0.0, 2022-03-26 18:07:14.685
79.0, 673.0922344252467, 37.54672560514882, 813.8527190075256, 424.60393161932006, -0.17600000835955143, 0.20800000987946987, 1.008000047877431, 0.0, 0.0, 0.0, 0.0, 0.0, 1.6483360346962953E9, 0.0, 2022-03-26 18:07:14.696
79.0, 667.0672555966303, 30.39603688986972, 809.7799679557793, 416.11809861985967, -0.17600000835955143, 0.20800000987946987, 1.008000047877431, 0.0, 0.0, 0.0, 0.0, 0.0, 1.6483360346962953E9, 0.0, 2022-03-26 18:07:14.696
80.0, 683.7808684986085, 38.2947055962868, 815.6029921867885, 435.0793913952075, -0.17600000835955143, 0.20800000987946987, 0.9920000471174717, 0.0, 0.0, 0.0, 0.0, 0.0, 1.6483360347111392E9, 0.0, 2022-03-26 18:07:14.711
80.0, 686.125785770826, 32.35574446665123, 816.2275554793887, 420.49378156801686, -0.17600000835955143, 0.20800000987946987, 0.9920000471174717, 0.0, 0.0, 0.0, 0.0, 0.0, 1.6483360347111392E9, 0.0, 2022-03-26 18:07:14.711
81.0, 681.0694410307333, 30.3661176902242, 808.8449929668568, 427.1470635891892, -0.17600000835955143, 0.20800000987946987, 0.9920000471174717, 0.0, 0.0, 0.0, 0.0, 0.0, 1.6483360347268157E9, 0.0, 2022-03-26 18:07:14.726
81.0, 685.9350508730859, 35.20554823288694, 818.056366557721, 433.5609920131974, -0.17600000835955143, 0.20800000987946987, 0.9920000471174717, 0.0, 0.0, 0.0, 0.0, 0.0, 1.6483360347268157E9, 0.0, 2022-03-26 18:07:14.726
82.0, 683.3096411041915, 33.47023465344682, 817.2784673669375, 434.2977523044683, -0.1600000075995922, 0.20800000987946987, 0.9920000471174717, 0.0, 0.0, 0.0, 0.0, 0.0, 1.648336034727541E9, 0.0, 2022-03-26 18:07:14.727
82.0, 678.3056549634784, 30.624170787166804, 818.0227074581198, 428.05211937846616, -0.1600000075995922, 0.20800000987946987, 0.9920000471174717, 0.0, 0.0, 0.0, 0.0, 0.0, 1.648336034727541E9, 0.0, 2022-03-26 18:07:14.727
83.0, 682.7262167111039, 23.417383572552353, 810.3559125489555, 419.394250981044, -0.1600000075995922, 0.20800000987946987, 0.9920000471174717, 0.0, 0.0, 0.0, 0.0, 0.0, 1.648336034741154E9, 0.0, 2022-03-26 18:07:14.741
83.0, 673.9037927156314, 21.10986529989168, 807.8464396786876, 421.31655955826864, -0.1600000075995922, 0.20800000987946987, 0.9920000471174717, 0.0, 0.0, 0.0, 0.0, 0.0, 1.648336034741154E9, 0.0, 2022-03-26 18:07:14.741
84.0, 670.9380520507693, 31.054259282071143, 819.3466320424341, 424.5553129198961, -0.1600000075995922, 0.20800000987946987, 0.9920000471174717, 0.0, 0.0, 0.0, 0.0, 0.0, 1.648336034756873E9, 0.0, 2022-03-26 18:07:14.756
84.0, 687.2814148571342, 31.304832579102367, 815.415997189004, 425.86801780434325, -0.1600000075995922, 0.20800000987946987, 0.9920000471174717, 0.0, 0.0, 0.0, 0.0, 0.0, 1.648336034756873E9, 0.0, 2022-03-26 18:07:14.756
85.0, 683.6125730006024, 24.079345864709467, 807.431310783606, 430.4755745497532, -0.1600000075995922, 0.20800000987946987, 0.9920000471174717, 0.0, 0.0, 0.0, 0.0, 0.0, 1.6483360347575972E9, 0.0, 2022-03-26 18:07:14.757
85.0, 683.8182674981654, 28.051119617652148, 815.1467243921943, 438.8192913508974, -0.1600000075995922, 0.20800000987946987, 0.9920000471174717, 0.0, 0.0, 0.0, 0.0, 0.0, 1.6483360347575972E9, 0.0, 2022-03-26 18:07:14.757
86.0, 663.5218304386362, 24.40845706081018, 818.6210914510302, 423.3735045338981, -0.1600000075995922, 0.20800000987946987, 0.9920000471174717, 0.0, 0.0, 0.0, 0.0, 0.0, 1.6483360347711368E9, 0.0, 2022-03-26 18:07:14.771
86.0, 678.3692332627252, 23.15933047560975, 821.2465012199245, 429.4097030623816, -0.1600000075995922, 0.20800000987946987, 0.9920000471174717, 0.0, 0.0, 0.0, 0.0, 0.0, 1.6483360347711368E9, 0.0, 2022-03-26 18:07:14.771
87.0, 684.2857549926266, 23.428603272419423, 813.7966205081902, 428.32139217527583, -0.1600000075995922, 0.20800000987946987, 0.9920000471174717, 0.0, 0.0, 0.0, 0.0, 0.0, 1.6483360347868142E9, 0.0, 2022-03-26 18:07:14.786
87.0, 684.992596084252, 32.78583296155557, 826.3402449595742, 432.61853722436354, -0.1600000075995922, 0.20800000987946987, 0.9920000471174717, 0.0, 0.0, 0.0, 0.0, 0.0, 1.6483360347868142E9, 0.0, 2022-03-26 18:07:14.786
88.0, 693.6691639814526, 39.54383218148723, 832.7317339838482, 440.042238636408, -0.1600000075995922, 0.20800000987946987, 0.9920000471174717, 0.0, 0.0, 0.0, 0.0, 0.0, 1.6483360347875025E9, 0.0, 2022-03-26 18:07:14.787
88.0, 689.9330039257184, 40.613443568814546, 831.7182210958563, 449.7921578208916, -0.1600000075995922, 0.20800000987946987, 0.9920000471174717, 0.0, 0.0, 0.0, 0.0, 0.0, 1.6483360347875025E9, 0.0, 2022-03-26 18:07:14.787
89.0, 690.841799614951, 44.42814152361825, 833.2104411781766, 448.32611703826115, -0.1600000075995922, 0.20800000987946987, 0.9920000471174717, 0.0, 0.0, 0.0, 0.0, 0.0, 1.6483360348010876E9, 0.0, 2022-03-26 18:07:14.801
89.0, 696.2235156511888, 44.43562132352963, 836.2098409426399, 441.0445318245329, -0.1600000075995922, 0.20800000987946987, 0.9920000471174717, 0.0, 0.0, 0.0, 0.0, 0.0, 1.6483360348010876E9, 0.0, 2022-03-26 18:07:14.801
90.0, 684.3642928916961, 34.90261633647606, 824.6610298794694, 450.65607471065596, -0.1600000075995922, 0.20800000987946987, 1.008000047877431, 0.0, 0.0, 0.0, 0.0, 0.0, 1.648336034816858E9, 0.0, 2022-03-26 18:07:14.816
90.0, 681.1404991298914, 22.433789884205908, 827.1069244504906, 435.60671728895977, -0.1600000075995922, 0.20800000987946987, 1.008000047877431, 0.0, 0.0, 0.0, 0.0, 0.0, 1.648336034816858E9, 0.0, 2022-03-26 18:07:14.816
91.0, 682.2475095167756, 34.43512884201482, 824.8816839768551, 427.86886428063735, -0.1600000075995922, 0.19200000911951065, 1.008000047877431, 0.0, 0.0, 0.0, 0.0, 0.0, 1.648336034817512E9, 0.0, 2022-03-26 18:07:14.817
91.0, 690.4865091191605, 40.41522887116298, 835.8021918474697, 441.8934891144745, -0.1600000075995922, 0.19200000911951065, 1.008000047877431, 0.0, 0.0, 0.0, 0.0, 0.0, 1.648336034817512E9, 0.0, 2022-03-26 18:07:14.817
92.0, 688.6838773405179, 29.734074597712606, 831.8565973942168, 440.49850643100217, -0.144000006839633, 0.19200000911951065, 1.008000047877431, 0.0, 0.0, 0.0, 0.0, 0.0, 1.648336034831102E9, 0.0, 2022-03-26 18:07:14.831
92.0, 680.1531655415893, 26.686056133825332, 831.4526881990023, 410.1454783906229, -0.144000006839633, 0.19200000911951065, 1.008000047877431, 0.0, 0.0, 0.0, 0.0, 0.0, 1.648336034831102E9, 0.0, 2022-03-26 18:07:14.831
93.0, 680.964723831974, 29.274066903162748, 828.1615762379952, 435.3374444921501, -0.144000006839633, 0.19200000911951065, 1.008000047877431, 0.0, 0.0, 0.0, 0.0, 0.0, 1.648336034846584E9, 0.0, 2022-03-26 18:07:14.846
93.0, 685.8901720736176, 38.45178139442578, 833.33759777667, 445.10606317641214, -0.144000006839633, 0.19200000911951065, 1.008000047877431, 0.0, 0.0, 0.0, 0.0, 0.0, 1.648336034846584E9, 0.0, 2022-03-26 18:07:14.846
94.0, 688.3248469447717, 41.043532063718885, 836.8680633348413, 443.77465879218653, -0.144000006839633, 0.19200000911951065, 1.008000047877431, 0.0, 0.0, 0.0, 0.0, 0.0, 1.648336034861833E9, 0.0, 2022-03-26 18:07:14.861
94.0, 682.9281713087112, 35.34766443120316, 831.8042387948371, 438.86043025041, -0.144000006839633, 0.19200000911951065, 1.008000047877431, 0.0, 0.0, 0.0, 0.0, 0.0, 1.648336034861833E9, 0.0, 2022-03-26 18:07:14.861
95.0, 678.2158973645419, 19.09779912373051, 834.3137116651051, 449.9267942192964, -0.144000006839633, 0.19200000911951065, 1.008000047877431, 0.0, 0.0, 0.0, 0.0, 0.0, 1.6483360348625364E9, 0.0, 2022-03-26 18:07:14.862
95.0, 683.9080250971019, 32.31460556713864, 844.1833076481707, 438.09375075949356, -0.144000006839633, 0.19200000911951065, 1.008000047877431, 0.0, 0.0, 0.0, 0.0, 0.0, 1.6483360348625364E9, 0.0, 2022-03-26 18:07:14.862
96.0, 686.5932732652873, 40.235713673289865, 840.5630844910629, 431.95283503225073, -0.144000006839633, 0.19200000911951065, 1.008000047877431, 0.0, 0.0, 0.0, 0.0, 0.0, 1.6483360348768568E9, 0.0, 2022-03-26 18:07:14.876
96.0, 688.2463090457022, 39.809365078341216, 841.7748120767064, 438.2283871578984, -0.144000006839633, 0.19200000911951065, 1.008000047877431, 0.0, 0.0, 0.0, 0.0, 0.0, 1.6483360348768568E9, 0.0, 2022-03-26 18:07:14.876
97.0, 677.7633694699034, 40.17587527399883, 852.9421533443965, 438.0787911596708, -0.144000006839633, 0.19200000911951065, 1.008000047877431, 0.0, 0.0, 0.0, 0.0, 0.0, 1.6483360348775434E9, 0.0, 2022-03-26 18:07:14.877
97.0, 679.2929885517806, 42.217860649805516, 851.1881402651779, 437.09145757136866, -0.144000006839633, 0.19200000911951065, 1.008000047877431, 0.0, 0.0, 0.0, 0.0, 0.0, 1.6483360348775434E9, 0.0, 2022-03-26 18:07:14.877
98.0, 690.6361051173881, 25.033020353410393, 852.224092552904, 399.8420540126972, -0.144000006839633, 0.19200000911951065, 1.008000047877431, 0.0, 0.0, 0.0, 0.0, 0.0, 1.648336034891072E9, 0.0, 2022-03-26 18:07:14.891
98.0, 689.274781533517, 31.98923427099362, 851.8127035577781, 443.9803532897495, -0.144000006839633, 0.19200000911951065, 1.008000047877431, 0.0, 0.0, 0.0, 0.0, 0.0, 1.648336034891072E9, 0.0, 2022-03-26 18:07:14.891
99.0, 683.1974441055208, 50.45686025219038, 853.3535423395224, 444.24588618660346, -0.144000006839633, 0.19200000911951065, 1.008000047877431, 0.0, 0.0, 0.0, 0.0, 0.0, 1.6483360349068224E9, 0.0, 2022-03-26 18:07:14.906
99.0, 690.5426076184958, 48.239099578466266, 859.3261625687592, 441.3699031206779, -0.144000006839633, 0.19200000911951065, 1.008000047877431, 0.0, 0.0, 0.0, 0.0, 0.0, 1.6483360349068224E9, 0.0, 2022-03-26 18:07:14.906
100.0, 682.4382444145158, 46.91517499415204, 866.2561971866526, 443.3483101972379, -0.144000006839633, 0.19200000911951065, 1.008000047877431, 0.0, 0.0, 0.0, 0.0, 0.0, 1.6483360349075167E9, 0.0, 2022-03-26 18:07:14.907
100.0, 683.8781058974564, 52.55494412733242, 860.6201679534279, 442.2599993101321, -0.144000006839633, 0.19200000911951065, 1.008000047877431, 0.0, 0.0, 0.0, 0.0, 0.0, 1.6483360349075167E9, 0.0, 2022-03-26 18:07:14.907
0.0, 683.304031254258, 51.07581369485706, 859.5729959658347, 428.43919902388006, -0.144000006839633, 0.19200000911951065, 1.008000047877431, 0.0, 0.0, 0.0, 0.0, 0.0, 1.6483360349217913E9, 0.0, 2022-03-26 18:07:14.921
1.0, 681.916528370697, 38.59202764276415, 851.0273245670833, 429.3966134125367, -0.144000006839633, 0.19200000911951065, 1.008000047877431, 0.0, 0.0, 0.0, 0.0, 0.0, 1.6483360349225085E9, 0.0, 2022-03-26 18:07:14.922
1.0, 681.3817226770334, 41.5764678074047, 854.8233230221085, 441.3156745713204, -0.144000006839633, 0.19200000911951065, 1.008000047877431, 0.0, 0.0, 0.0, 0.0, 0.0, 1.6483360349225085E9, 0.0, 2022-03-26 18:07:14.922
2.0, 675.9700874411501, 38.7603231407702, 852.3175900517963, 421.33338910806924, -0.1600000075995922, 0.19200000911951065, 1.008000047877431, 0.0, 0.0, 0.0, 0.0, 0.0, 1.6483360349361527E9, 0.0, 2022-03-26 18:07:14.936
2.0, 683.7902182484977, 42.043955301865935, 851.9211606564932, 435.9563979348168, -0.1600000075995922, 0.19200000911951065, 1.008000047877431, 0.0, 0.0, 0.0, 0.0, 0.0, 1.6483360349361527E9, 0.0, 2022-03-26 18:07:14.936
3.0, 695.956112804357, 53.04300107154995, 858.5370436781086, 433.4282255647704, -0.1600000075995922, 0.19200000911951065, 1.008000047877431, 0.0, 0.0, 0.0, 0.0, 0.0, 1.6483360349518168E9, 0.0, 2022-03-26 18:07:14.951
3.0, 666.3435849552043, 43.20332428812981, 861.4803449432366, 419.17546683363616, -0.1600000075995922, 0.19200000911951065, 1.008000047877431, 0.0, 0.0, 0.0, 0.0, 0.0, 1.6483360349518168E9, 0.0, 2022-03-26 18:07:14.951
4.0, 662.7981597972102, 29.706025348044932, 854.7260856232606, 401.7512729400769, -0.1600000075995922, 0.19200000911951065, 1.008000047877431, 0.0, 0.0, 0.0, 0.0, 0.0, 1.6483360349525118E9, 0.0, 2022-03-26 18:07:14.952
4.0, 687.8405299005099, 44.59830697160214, 865.9869243898429, 425.3201224608347, -0.1600000075995922, 0.19200000911951065, 1.008000047877431, 0.0, 0.0, 0.0, 0.0, 0.0, 1.6483360349525118E9, 0.0, 2022-03-26 18:07:14.952
5.0, 685.0730039332993, 47.84828003309667, 853.1964665413834, 398.9388681733981, -0.1600000075995922, 0.19200000911951065, 1.008000047877431, 0.0, 0.0, 0.0, 0.0, 0.0, 1.6483360349661288E9, 0.0, 2022-03-26 18:07:14.966
5.0, 680.0054394933395, 46.42337814997882, 847.9045081040822, 420.63402781635523, -0.1600000075995922, 0.19200000911951065, 1.008000047877431, 0.0, 0.0, 0.0, 0.0, 0.0, 1.6483360349661288E9, 0.0, 2022-03-26 18:07:14.966
6.0, 680.6674017854966, 39.77757592871785, 857.7591444873251, 443.0248088510707, -0.1600000075995922, 0.19200000911951065, 1.008000047877431, 0.0, 0.0, 0.0, 0.0, 0.0, 1.6483360349818397E9, 0.0, 2022-03-26 18:07:14.981
6.0, 687.4067015056498, 47.88941893260926, 859.9021071619354, 455.48989540338516, -0.1600000075995922, 0.19200000911951065, 1.008000047877431, 0.0, 0.0, 0.0, 0.0, 0.0, 1.6483360349818397E9, 0.0, 2022-03-26 18:07:14.981
7.0, 688.4837926928885, 45.8362138569355, 853.7462318348698, 444.79004163015634, -0.1600000075995922, 0.19200000911951065, 1.008000047877431, 0.0, 0.0, 0.0, 0.0, 0.0, 1.648336034982505E9, 0.0, 2022-03-26 18:07:14.982
7.0, 687.9265475994907, 39.75513652898371, 858.0882556834258, 443.22302354872227, -0.1600000075995922, 0.19200000911951065, 1.008000047877431, 0.0, 0.0, 0.0, 0.0, 0.0, 1.648336034982505E9, 0.0, 2022-03-26 18:07:14.982
8.0, 692.0142582510598, 36.800615563988686, 862.9987443252467, 439.08295429777354, -0.1600000075995922, 0.19200000911951065, 1.008000047877431, 0.0, 0.0, 0.0, 0.0, 0.0, 1.6483360349961364E9, 0.0, 2022-03-26 18:07:14.996
8.0, 691.071803462226, 42.814374692738056, 863.6195677178912, 436.60340062715113, -0.1600000075995922, 0.19200000911951065, 1.008000047877431, 0.0, 0.0, 0.0, 0.0, 0.0, 1.6483360349961364E9, 0.0, 2022-03-26 18:07:14.996
9.0, 682.3802759652026, 38.59950744267553, 859.1877862703986, 412.1594145167619, -0.1600000075995922, 0.19200000911951065, 1.008000047877431, 0.0, 0.0, 0.0, 0.0, 0.0, 1.6483360350117664E9, 0.0, 2022-03-26 18:07:15.011
9.0, 676.0822844398208, 29.197398954071105, 854.2062395294197, 422.7246318915859, -0.1600000075995922, 0.19200000911951065, 1.008000047877431, 0.0, 0.0, 0.0, 0.0, 0.0, 1.6483360350117664E9, 0.0, 2022-03-26 18:07:15.011
10.0, 674.0328192641027, 37.668272353708744, 864.2029921109788, 425.51085735857487, -0.1600000075995922, 0.19200000911951065, 1.008000047877431, 0.0, 0.0, 0.0, 0.0, 0.0, 1.6483360350125248E9, 0.0, 2022-03-26 18:07:15.012
10.0, 691.2251393604092, 56.75298182759434, 876.5970205641352, 449.0610073795542, -0.1600000075995922, 0.19200000911951065, 1.008000047877431, 0.0, 0.0, 0.0, 0.0, 0.0, 1.6483360350125248E9, 0.0, 2022-03-26 18:07:15.012
11.0, 689.9760127752088, 48.887972220778465, 868.8629074557684, 450.9533967571333, -0.1600000075995922, 0.20800000987946987, 1.008000047877431, 0.0, 0.0, 0.0, 0.0, 0.0, 1.6483360350261724E9, 0.0, 2022-03-26 18:07:15.026
11.0, 681.3779827770777, 36.867933763191104, 865.3062625979073, 438.52570920437574, -0.1600000075995922, 0.20800000987946987, 1.008000047877431, 0.0, 0.0, 0.0, 0.0, 0.0, 1.6483360350261724E9, 0.0, 2022-03-26 18:07:15.026
12.0, 671.2204144974239, 40.21514422353357, 866.4731113840826, 436.2855091309175, -0.144000006839633, 0.20800000987946987, 1.008000047877431, 0.0, 0.0, 0.0, 0.0, 0.0, 1.6483360350418663E9, 0.0, 2022-03-26 18:07:15.041
12.0, 670.6556896041147, 39.07073483709246, 860.3097562571056, 443.2529427483678, -0.144000006839633, 0.20800000987946987, 1.008000047877431, 0.0, 0.0, 0.0, 0.0, 0.0, 1.6483360350418663E9, 0.0, 2022-03-26 18:07:15.041
13.0, 695.3053702120669, 42.3169679986313, 860.1414607590996, 446.78714820649475, -0.144000006839633, 0.20800000987946987, 1.008000047877431, 0.0, 0.0, 0.0, 0.0, 0.0, 1.6483360350425553E9, 0.0, 2022-03-26 18:07:15.042
13.0, 707.2169515709393, 51.50964208971709, 870.1905719400384, 456.53332749102265, -0.144000006839633, 0.20800000987946987, 1.008000047877431, 0.0, 0.0, 0.0, 0.0, 0.0, 1.6483360350425553E9, 0.0, 2022-03-26 18:07:15.042
14.0, 699.3818611637689, 56.62208532914519, 875.5461086765863, 455.38517820462584, -0.144000006839633, 0.20800000987946987, 1.008000047877431, 0.0, 0.0, 0.0, 0.0, 0.0, 1.6483360350561244E9, 0.0, 2022-03-26 18:07:15.056
14.0, 710.0630154372193, 66.47298181243241, 874.379259890411, 471.4368288144469, -0.144000006839633, 0.20800000987946987, 1.008000047877431, 0.0, 0.0, 0.0, 0.0, 0.0, 1.6483360350561244E9, 0.0, 2022-03-26 18:07:15.056
15.0, 704.4419458038174, 64.33001913782209, 887.3903718362562, 476.6764286523685, -0.144000006839633, 0.20800000987946987, 1.008000047877431, 0.0, 0.0, 0.0, 0.0, 0.0, 1.64833603507179E9, 0.0, 2022-03-26 18:07:15.071
15.0, 703.2451778179966, 77.93577517662197, 884.462030170951, 473.703208187595, -0.144000006839633, 0.20800000987946987, 1.008000047877431, 0.0, 0.0, 0.0, 0.0, 0.0, 1.64833603507179E9, 0.0, 2022-03-26 18:07:15.071
16.0, 690.0956895737909, 64.64417073410004, 884.570487269666, 466.43284267373383, -0.144000006839633, 0.20800000987946987, 1.008000047877431, 0.0, 0.0, 0.0, 0.0, 0.0, 1.64833603507251E9, 0.0, 2022-03-26 18:07:15.072
16.0, 703.3648546165787, 75.14206990972161, 886.3506796485744, 484.24972606264055, -0.144000006839633, 0.20800000987946987, 1.008000047877431, 0.0, 0.0, 0.0, 0.0, 0.0, 1.64833603507251E9, 0.0, 2022-03-26 18:07:15.072
17.0, 694.8565822173841, 68.61594448704273, 883.2390828854404, 460.4826618442312, -0.144000006839633, 0.20800000987946987, 1.008000047877431, 0.0, 0.0, 0.0, 0.0, 0.0, 1.648336035086136E9, 0.0, 2022-03-26 18:07:15.086
17.0, 694.8266630177386, 70.68784906249493, 889.4061779123731, 456.5557668907568, -0.144000006839633, 0.20800000987946987, 1.008000047877431, 0.0, 0.0, 0.0, 0.0, 0.0, 1.648336035086136E9, 0.0, 2022-03-26 18:07:15.086
18.0, 697.8260627822019, 67.68844929803163, 892.6224918742664, 450.52704816218466, -0.144000006839633, 0.20800000987946987, 1.008000047877431, 0.0, 0.0, 0.0, 0.0, 0.0, 1.648336035101851E9, 0.0, 2022-03-26 18:07:15.101
18.0, 689.0784367858432, 75.12337040994316, 890.7899408959784, 472.1100108064711, -0.144000006839633, 0.20800000987946987, 1.008000047877431, 0.0, 0.0, 0.0, 0.0, 0.0, 1.648336035101851E9, 0.0, 2022-03-26 18:07:15.101
19.0, 691.7262859544717, 77.89463627710938, 898.7334884018637, 467.0050473669544, -0.144000006839633, 0.20800000987946987, 1.008000047877431, 0.0, 0.0, 0.0, 0.0, 0.0, 1.6483360351024916E9, 0.0, 2022-03-26 18:07:15.102
19.0, 700.260737653356, 85.54647158645093, 901.7254083664156, 465.4866479849443, -0.144000006839633, 0.20800000987946987, 1.008000047877431, 0.0, 0.0, 0.0, 0.0, 0.0, 1.6483360351024916E9, 0.0, 2022-03-26 18:07:15.102
20.0, 706.3605144810863, 77.58048468083143, 912.4514414393343, 479.1073636235669, -0.144000006839633, 0.20800000987946987, 0.9920000471174717, 0.0, 0.0, 0.0, 0.0, 0.0, 1.6483360351161473E9, 0.0, 2022-03-26 18:07:15.116
20.0, 699.4080404634587, 80.87533654179424, 893.1049389685504, 469.9259092323482, -0.144000006839633, 0.20800000987946987, 0.9920000471174717, 0.0, 0.0, 0.0, 0.0, 0.0, 1.6483360351161473E9, 0.0, 2022-03-26 18:07:15.116
21.0, 691.1017226618715, 78.65383596811444, 885.5503410580568, 470.19892192911357, -0.144000006839633, 0.19200000911951065, 0.9920000471174717, 0.0, 0.0, 0.0, 0.0, 0.0, 1.6483360351317856E9, 0.0, 2022-03-26 18:07:15.131
21.0, 694.5050316215493, 65.10043852869421, 883.5532344817184, 460.3667249456048, -0.144000006839633, 0.19200000911951065, 0.9920000471174717, 0.0, 0.0, 0.0, 0.0, 0.0, 1.6483360351317856E9, 0.0, 2022-03-26 18:07:15.131
22.0, 710.9418919268064, 100.39013451058418, 903.4345426461659, 489.76981839723885, -0.11200000531971455, 0.19200000911951065, 0.9920000471174717, 0.0, 0.0, 0.0, 0.0, 0.0, 1.6483360351325245E9, 0.0, 2022-03-26 18:07:15.132
22.0, 723.0816071829759, 118.46881089638919, 919.2430997588672, 498.9849318880588, -0.11200000531971455, 0.19200000911951065, 0.9920000471174717, 0.0, 0.0, 0.0, 0.0, 0.0, 1.6483360351325245E9, 0.0, 2022-03-26 18:07:15.132
23.0, 724.4728499664925, 107.6791995242238, 904.3994368347339, 497.18230010941625, -0.11200000531971455, 0.19200000911951065, 0.9920000471174717, 0.0, 0.0, 0.0, 0.0, 0.0, 1.6483360351461277E9, 0.0, 2022-03-26 18:07:15.146
23.0, 735.8159665321, 118.92881859093904, 927.2689250637777, 514.0155898099765, -0.11200000531971455, 0.19200000911951065, 0.9920000471174717, 0.0, 0.0, 0.0, 0.0, 0.0, 1.6483360351461277E9, 0.0, 2022-03-26 18:07:15.146
24.0, 736.8631385196932, 103.0492033790797, 912.6982748364098, 505.0585294160992, -0.11200000531971455, 0.19200000911951065, 0.9920000471174717, 0.0, 0.0, 0.0, 0.0, 0.0, 1.6483360351617496E9, 0.0, 2022-03-26 18:07:15.161
24.0, 755.6449160971679, 121.11292016506195, 935.5303640658967, 532.9133042860776, -0.11200000531971455, 0.19200000911951065, 0.9920000471174717, 0.0, 0.0, 0.0, 0.0, 0.0, 1.6483360351617496E9, 0.0, 2022-03-26 18:07:15.161
25.0, 757.6756817731075, 135.79202749114484, 949.3792136018164, 546.8556513208896, -0.11200000531971455, 0.19200000911951065, 0.9920000471174717, 0.0, 0.0, 0.0, 0.0, 0.0, 1.6483360351624835E9, 0.0, 2022-03-26 18:07:15.162
25.0, 760.708740637172, 133.79866081476212, 949.6335267988034, 518.8662400525063, -0.11200000531971455, 0.19200000911951065, 0.9920000471174717, 0.0, 0.0, 0.0, 0.0, 0.0, 1.6483360351624835E9, 0.0, 2022-03-26 18:07:15.162
26.0, 769.8827152284794, 137.2879874734208, 956.2120108208619, 548.6657628994435, -0.11200000531971455, 0.19200000911951065, 0.9920000471174717, 0.0, 0.0, 0.0, 0.0, 0.0, 1.6483360351761649E9, 0.0, 2022-03-26 18:07:15.176
26.0, 746.3512647072785, 155.02259306330234, 963.0410681399517, 529.4763362267986, -0.11200000531971455, 0.19200000911951065, 0.9920000471174717, 0.0, 0.0, 0.0, 0.0, 0.0, 1.6483360351761649E9, 0.0, 2022-03-26 18:07:15.176
27.0, 761.0191523334943, 151.35001130681485, 968.6359584736638, 530.4412304153666, -0.11200000531971455, 0.19200000911951065, 0.9920000471174717, 0.0, 0.0, 0.0, 0.0, 0.0, 1.6483360351918125E9, 0.0, 2022-03-26 18:07:15.191
27.0, 757.5784443742596, 160.21731410175562, 966.2050235024653, 533.0554204843938, -0.11200000531971455, 0.19200000911951065, 0.9920000471174717, 0.0, 0.0, 0.0, 0.0, 0.0, 1.6483360351918125E9, 0.0, 2022-03-26 18:07:15.191
28.0, 750.2071015615948, 153.93428217619658, 964.3313336246647, 539.2823539106175, -0.11200000531971455, 0.19200000911951065, 0.9920000471174717, 0.0, 0.0, 0.0, 0.0, 0.0, 1.6483360351924992E9, 0.0, 2022-03-26 18:07:15.192
28.0, 745.6444236156531, 157.7377604311332, 991.2548734056763, 540.6661168942228, -0.11200000531971455, 0.19200000911951065, 0.9920000471174717, 0.0, 0.0, 0.0, 0.0, 0.0, 1.6483360351924992E9, 0.0, 2022-03-26 18:07:15.192
29.0, 759.26139935432, 173.57997664343566, 1016.8432689025067, 544.9632619433105, -0.11200000531971455, 0.19200000911951065, 0.9920000471174717, 0.0, 0.0, 0.0, 0.0, 0.0, 1.6483360352061596E9, 0.0, 2022-03-26 18:07:15.206
29.0, 748.0753585868515, 176.57189660798758, 994.5534651665948, 541.2719806870446, -0.11200000531971455, 0.19200000911951065, 0.9920000471174717, 0.0, 0.0, 0.0, 0.0, 0.0, 1.6483360352061596E9, 0.0, 2022-03-26 18:07:15.206
30.0, 757.5073862751015, 177.65646759513766, 990.065585219767, 543.0334735661745, -0.11200000531971455, 0.19200000911951065, 0.9760000463575125, 0.0, 0.0, 0.0, 0.0, 0.0, 1.6483360352215233E9, 0.0, 2022-03-26 18:07:15.221
30.0, 731.5599603825249, 161.13732949085534, 988.027339743916, 533.5677867783234, -0.11200000531971455, 0.19200000911951065, 0.9760000463575125, 0.0, 0.0, 0.0, 0.0, 0.0, 1.6483360352215233E9, 0.0, 2022-03-26 18:07:15.221
31.0, 728.7288561160676, 141.6935896212235, 967.5139884869568, 504.0150973284617, -0.11200000531971455, 0.1600000075995922, 0.9760000463575125, 0.0, 0.0, 0.0, 0.0, 0.0, 1.6483360352368069E9, 0.0, 2022-03-26 18:07:15.236
31.0, 711.6113340188749, 129.25842226855457, 971.8447926356457, 507.67271948512644, -0.11200000531971455, 0.1600000075995922, 0.9760000463575125, 0.0, 0.0, 0.0, 0.0, 0.0, 1.6483360352368069E9, 0.0, 2022-03-26 18:07:15.236
32.0, 716.5218226606958, 125.74665621016175, 963.3103409367613, 512.272796430625, -0.09600000455975533, 0.1600000075995922, 0.9760000463575125, 0.0, 0.0, 0.0, 0.0, 0.0, 1.6483360352374775E9, 0.0, 2022-03-26 18:07:15.237
32.0, 720.052288218867, 114.18662544712424, 946.0768819409423, 498.9774520881474, -0.09600000455975533, 0.1600000075995922, 0.9760000463575125, 0.0, 0.0, 0.0, 0.0, 0.0, 1.6483360352374775E9, 0.0, 2022-03-26 18:07:15.237
33.0, 710.6015610308386, 84.8919890942052, 925.2905179872178, 485.2744586504996, -0.09600000455975533, 0.1600000075995922, 0.9760000463575125, 0.0, 0.0, 0.0, 0.0, 0.0, 1.6483360352518723E9, 0.0, 2022-03-26 18:07:15.251
33.0, 709.4421920445748, 99.06994982622564, 924.6061162953265, 502.612634845078, -0.09600000455975533, 0.1600000075995922, 0.9760000463575125, 0.0, 0.0, 0.0, 0.0, 0.0, 1.6483360352518723E9, 0.0, 2022-03-26 18:07:15.251
34.0, 696.2478250009008, 80.13857625052333, 908.3861701874994, 498.6819999916479, -0.09600000455975533, 0.1600000075995922, 0.9760000463575125, 0.0, 0.0, 0.0, 0.0, 0.0, 1.6483360352525327E9, 0.0, 2022-03-26 18:07:15.252
34.0, 693.5139581332915, 49.47513651382178, 891.1003525923006, 478.5987372295931, -0.09600000455975533, 0.1600000075995922, 0.9760000463575125, 0.0, 0.0, 0.0, 0.0, 0.0, 1.6483360352525327E9, 0.0, 2022-03-26 18:07:15.252
35.0, 700.5075710504316, 43.32300108671188, 878.1976977451704, 459.79826015233994, -0.09600000455975533, 0.1600000075995922, 0.9760000463575125, 0.0, 0.0, 0.0, 0.0, 0.0, 1.6483360352661688E9, 0.0, 2022-03-26 18:07:15.266
35.0, 682.290518366266, 32.88494031038135, 869.7305642454885, 452.3259400408715, -0.09600000455975533, 0.1600000075995922, 0.9760000463575125, 0.0, 0.0, 0.0, 0.0, 0.0, 1.6483360352661688E9, 0.0, 2022-03-26 18:07:15.266
36.0, 688.4389138934202, 24.458945710211992, 857.8489020862617, 494.32875644322485, -0.09600000455975533, 0.1600000075995922, 0.9760000463575125, 0.0, 0.0, 0.0, 0.0, 0.0, 1.6483360352818015E9, 0.0, 2022-03-26 18:07:15.281
36.0, 693.1137888380326, 22.297283535823226, 853.1029690424912, 490.7608918854967, -0.09600000455975533, 0.1600000075995922, 0.9760000463575125, 0.0, 0.0, 0.0, 0.0, 0.0, 1.6483360352818015E9, 0.0, 2022-03-26 18:07:15.281
37.0, 674.1936349621974, 12.719399749301374, 843.3754892577417, 467.5248934607953, -0.09600000455975533, 0.1600000075995922, 0.9760000463575125, 0.0, 0.0, 0.0, 0.0, 0.0, 1.648336035282487E9, 0.0, 2022-03-26 18:07:15.282
37.0, 671.4934271941893, 6.406448624096811, 837.9713338217698, 479.91892191395164, -0.09600000455975533, 0.1600000075995922, 0.9760000463575125, 0.0, 0.0, 0.0, 0.0, 0.0, 1.648336035282487E9, 0.0, 2022-03-26 18:07:15.282
38.0, 701.599621837493, 9.727479784749448, 851.2778978641145, 495.533004228957, -0.09600000455975533, 0.1600000075995922, 0.9760000463575125, 0.0, 0.0, 0.0, 0.0, 0.0, 1.6483360352961836E9, 0.0, 2022-03-26 18:07:15.296
38.0, 689.1943736844696, 8.201600602827966, 843.3680094578303, 471.02543981932104, -0.09600000455975533, 0.1600000075995922, 0.9760000463575125, 0.0, 0.0, 0.0, 0.0, 0.0, 1.6483360352961836E9, 0.0, 2022-03-26 18:07:15.296
39.0, 683.7116803494282, 10.49789917562157, 829.8220918183215, 474.97851407248527, -0.09600000455975533, 0.1600000075995922, 0.9760000463575125, 0.0, 0.0, 0.0, 0.0, 0.0, 1.6483360353117845E9, 0.0, 2022-03-26 18:07:15.311
39.0, 688.9737195870839, -7.936067705973983, 825.4576285700314, 479.8254244150594, -0.09600000455975533, 0.1600000075995922, 0.9760000463575125, 0.0, 0.0, 0.0, 0.0, 0.0, 1.6483360353117845E9, 0.0, 2022-03-26 18:07:15.311
40.0, 678.1504491153173, -5.658468632958829, 830.6560895084403, 466.7769134696573, -0.09600000455975533, 0.1600000075995922, 1.008000047877431, 0.0, 0.0, 0.0, 0.0, 0.0, 1.6483360353125231E9, 0.0, 2022-03-26 18:07:15.312
40.0, 677.9335349178873, -12.326710253953934, 827.1331037501805, 448.3541662879288, -0.09600000455975533, 0.1600000075995922, 1.008000047877431, 0.0, 0.0, 0.0, 0.0, 0.0, 1.6483360353125231E9, 0.0, 2022-03-26 18:07:15.312
41.0, 680.0054394933395, -17.588749491609633, 826.6394369560294, 445.433304422535, -0.09600000455975533, 0.144000006839633, 1.008000047877431, 0.0, 0.0, 0.0, 0.0, 0.0, 1.6483360353261468E9, 0.0, 2022-03-26 18:07:15.326
41.0, 676.6507492330857, -14.305117330513895, 822.3273323071189, 455.7255091005936, -0.09600000455975533, 0.144000006839633, 1.008000047877431, 0.0, 0.0, 0.0, 0.0, 0.0, 1.6483360353261468E9, 0.0, 2022-03-26 18:07:15.326
42.0, 668.6361436280422, -2.614190069027245, 820.4910414288752, 453.68352372478694, -0.09600000455975533, 0.144000006839633, 1.008000047877431, 0.0, 0.0, 0.0, 0.0, 0.0, 1.6483360353417969E9, 0.0, 2022-03-26 18:07:15.341
42.0, 664.8102259733714, -2.5244324700906873, 821.7364281141199, 449.11710587888956, -0.09600000455975533, 0.144000006839633, 1.008000047877431, 0.0, 0.0, 0.0, 0.0, 0.0, 1.6483360353417969E9, 0.0, 2022-03-26 18:07:15.341
43.0, 663.2245083921589, -13.26168524287641, 816.4631691765971, 455.9237237982452, -0.09600000455975533, 0.144000006839633, 1.008000047877431, 0.0, 0.0, 0.0, 0.0, 0.0, 1.6483360353424635E9, 0.0, 2022-03-26 18:07:15.342
43.0, 659.1068785409443, -28.067949167452753, 804.8246005144902, 442.22447026055306, -0.09600000455975533, 0.144000006839633, 1.008000047877431, 0.0, 0.0, 0.0, 0.0, 0.0, 1.6483360353424635E9, 0.0, 2022-03-26 18:07:15.342
44.0, 649.6262321532704, -37.50745665561408, 802.1655316459946, 428.7870097197592, -0.09600000455975533, 0.144000006839633, 1.008000047877431, 0.0, 0.0, 0.0, 0.0, 0.0, 1.6483360353561103E9, 0.0, 2022-03-26 18:07:15.356
44.0, 656.2458550748415, -34.98676408547908, 802.8349737380631, 435.5861478392035, -0.09600000455975533, 0.144000006839633, 1.008000047877431, 0.0, 0.0, 0.0, 0.0, 0.0, 1.6483360353561103E9, 0.0, 2022-03-26 18:07:15.356
45.0, 686.51286541624, -26.269057288765907, 816.5155277759768, 549.0360129950568, -0.09600000455975533, 0.144000006839633, 1.008000047877431, 0.0, 0.0, 0.0, 0.0, 0.0, 1.6483360353718855E9, 0.0, 2022-03-26 18:07:15.371
45.0, 445.5155822215602, -94.51849158015102, 732.53607427096, 595.7211841419339, -0.09600000455975533, 0.144000006839633, 1.008000047877431, 0.0, 0.0, 0.0, 0.0, 0.0, 1.6483360353718855E9, 0.0, 2022-03-26 18:07:15.371
46.0, 510.44398535229266, -156.31285854801536, 673.4568746709265, 445.3454167735763, -0.09600000455975533, 0.144000006839633, 1.008000047877431, 0.0, 0.0, 0.0, 0.0, 0.0, 1.6483360353725286E9, 0.0, 2022-03-26 18:07:15.372
46.0, 527.7185832476243, -184.7211386114359, 642.165131741669, 348.85412796679884, -0.09600000455975533, 0.144000006839633, 1.008000047877431, 0.0, 0.0, 0.0, 0.0, 0.0, 1.6483360353725286E9, 0.0, 2022-03-26 18:07:15.372
47.0, 589.7560437126085, -253.0453709019348, 579.9668555785902, 326.27074208436534, -0.09600000455975533, 0.144000006839633, 1.008000047877431, 0.0, 0.0, 0.0, 0.0, 0.0, 1.6483360353860981E9, 0.0, 2022-03-26 18:07:15.386
47.0, 565.3569364016876, -260.3793147150427, 571.5371210784651, 255.50061522284523, -0.09600000455975533, 0.144000006839633, 1.008000047877431, 0.0, 0.0, 0.0, 0.0, 0.0, 1.6483360353860981E9, 0.0, 2022-03-26 18:07:15.386
48.0, 552.9816074483097, -248.06008426100016, 573.1714573591016, 68.95066553307697, -0.09600000455975533, 0.144000006839633, 1.008000047877431, 0.0, 0.0, 0.0, 0.0, 0.0, 1.6483360354018135E9, 0.0, 2022-03-26 18:07:15.401
48.0, 560.5287255588919, -267.51504383049905, 562.2808686881326, -42.62737969495356, -0.09600000455975533, 0.144000006839633, 1.008000047877431, 0.0, 0.0, 0.0, 0.0, 0.0, 1.6483360354018135E9, 0.0, 2022-03-26 18:07:15.401
49.0, 545.7636005338281, -252.94439360313118, 577.098352312576, -196.75239676889032, -0.09600000455975533, 0.144000006839633, 1.008000047877431, 0.0, 0.0, 0.0, 0.0, 0.0, 1.6483360354024973E9, 0.0, 2022-03-26 18:07:15.402
49.0, 494.0146048469469, -214.11675226315856, 613.9662860757671, -300.7253554370254, -0.09600000455975533, 0.144000006839633, 1.008000047877431, 0.0, 0.0, 0.0, 0.0, 0.0, 1.6483360354024973E9, 0.0, 2022-03-26 18:07:15.402
50.0, 487.62311582267284, -204.59496697597206, 634.1019074372016, -161.50944953644648, -0.09600000455975533, 0.144000006839633, 1.008000047877431, 0.0, 0.0, 0.0, 0.0, 0.0, 1.6483360354161437E9, 0.0, 2022-03-26 18:07:15.416
50.0, 460.5948588429019, -190.35716784466058, 655.1201451881789, -225.14384728251025, -0.09600000455975533, 0.144000006839633, 1.008000047877431, 0.0, 0.0, 0.0, 0.0, 0.0, 1.6483360354161437E9, 0.0, 2022-03-26 18:07:15.416
51.0, 460.6322578424588, -169.79519788827747, 673.064185175579, -133.89589821361005, -0.09600000455975533, 0.11200000531971455, 1.008000047877431, 0.0, 0.0, 0.0, 0.0, 0.0, 1.648336035431836E9, 0.0, 2022-03-26 18:07:15.431
51.0, 436.1321732327342, -144.1058250926435, 691.9506799518131, 109.32288555474952, -0.09600000455975533, 0.11200000531971455, 1.008000047877431, 0.0, 0.0, 0.0, 0.0, 0.0, 1.648336035431836E9, 0.0, 2022-03-26 18:07:15.431
52.0, 428.40180002432317, -146.547979763709, 684.1230693445541, -128.07100403262302, -0.0800000037997961, 0.11200000531971455, 1.008000047877431, 0.0, 0.0, 0.0, 0.0, 0.0, 1.6483360354325385E9, 0.0, 2022-03-26 18:07:15.432
52.0, 425.7202917560935, -146.70505556184798, 683.8986753472127, 6.215713726356626, -0.0800000037997961, 0.11200000531971455, 1.008000047877431, 0.0, 0.0, 0.0, 0.0, 0.0, 1.6483360354325385E9, 0.0, 2022-03-26 18:07:15.432
53.0, 423.7867634790018, -136.90651767794043, 702.9572055214085, 133.84166966425255, -0.0800000037997961, 0.11200000531971455, 1.008000047877431, 0.0, 0.0, 0.0, 0.0, 0.0, 1.6483360354461932E9, 0.0, 2022-03-26 18:07:15.446
53.0, 423.5623694816604, -132.10822603479028, 706.6260473779403, -19.5465871184133, -0.0800000037997961, 0.11200000531971455, 1.008000047877431, 0.0, 0.0, 0.0, 0.0, 0.0, 1.6483360354461932E9, 0.0, 2022-03-26 18:07:15.446
54.0, 414.9830389833078, -136.7681413795799, 706.1697795833461, 161.63847608491778, -0.0800000037997961, 0.11200000531971455, 1.008000047877431, 0.0, 0.0, 0.0, 0.0, 0.0, 1.6483360354618373E9, 0.0, 2022-03-26 18:07:15.461
54.0, 416.4602994658053, -134.0305346120149, 712.8342813043855, 171.91946106310934, -0.0800000037997961, 0.11200000531971455, 1.008000047877431, 0.0, 0.0, 0.0, 0.0, 0.0, 1.6483360354618373E9, 0.0, 2022-03-26 18:07:15.461
55.0, 402.21128063462675, -130.12233915831894, 708.896166651044, 365.4985527195968, -0.0800000037997961, 0.11200000531971455, 1.008000047877431, 0.0, 0.0, 0.0, 0.0, 0.0, 1.648336035462577E9, 0.0, 2022-03-26 18:07:15.462
55.0, 426.7525041438639, -119.91615217924118, 716.6265398594551, 482.4414844340645, -0.0800000037997961, 0.11200000531971455, 1.008000047877431, 0.0, 0.0, 0.0, 0.0, 0.0, 1.648336035462577E9, 0.0, 2022-03-26 18:07:15.462
56.0, 438.66408550273627, -115.7237243289128, 703.37233441649, 692.0292178508826, -0.0800000037997961, 0.11200000531971455, 1.008000047877431, 0.0, 0.0, 0.0, 0.0, 0.0, 1.648336035476127E9, 0.0, 2022-03-26 18:07:15.476
56.0, 445.807294418104, -126.77138879802078, 700.0139042562805, 697.8298026821576, -0.0800000037997961, 0.11200000531971455, 1.008000047877431, 0.0, 0.0, 0.0, 0.0, 0.0, 1.648336035476127E9, 0.0, 2022-03-26 18:07:15.476
57.0, 437.3177215186879, -125.48112331330776, 700.4290331513621, 483.2081639249809, -0.0800000037997961, 0.11200000531971455, 1.008000047877431, 0.0, 0.0, 0.0, 0.0, 0.0, 1.6483360354918728E9, 0.0, 2022-03-26 18:07:15.491
57.0, 444.3562132352963, -143.75801439676434, 685.1552817323245, 328.7895647045225, -0.0800000037997961, 0.11200000531971455, 1.008000047877431, 0.0, 0.0, 0.0, 0.0, 0.0, 1.6483360354918728E9, 0.0, 2022-03-26 18:07:15.491
58.0, 415.7497184742242, -137.83027296699584, 693.809410229791, 541.9769518286921, -0.0800000037997961, 0.11200000531971455, 1.008000047877431, 0.0, 0.0, 0.0, 0.0, 0.0, 1.6483360354925303E9, 0.0, 2022-03-26 18:07:15.492
58.0, 409.4966057483107, -132.74026912730187, 701.2592909415253, 351.1279871398583, -0.0800000037997961, 0.11200000531971455, 1.008000047877431, 0.0, 0.0, 0.0, 0.0, 0.0, 1.6483360354925303E9, 0.0, 2022-03-26 18:07:15.492
59.0, 374.8090336592868, -135.75088859163225, 688.3267168947496, 114.48207754362375, -0.0800000037997961, 0.11200000531971455, 1.008000047877431, 0.0, 0.0, 0.0, 0.0, 0.0, 1.6483360355061471E9, 0.0, 2022-03-26 18:07:15.506
59.0, 418.92489353660494, -139.4720890475437, 685.1814610320143, 176.5681567080319, -0.0800000037997961, 0.11200000531971455, 1.008000047877431, 0.0, 0.0, 0.0, 0.0, 0.0, 1.6483360355061471E9, 0.0, 2022-03-26 18:07:15.506
60.0, 410.21840643975884, -140.24624833837152, 681.8866091710515, -26.444832586683333, -0.0800000037997961, 0.11200000531971455, 0.9600000455975533, 0.0, 0.0, 0.0, 0.0, 0.0, 1.6483360355218563E9, 0.0, 2022-03-26 18:07:15.521
60.0, 384.38317754585296, -126.80504789762199, 702.9235464218073, -253.7148129940033, -0.0800000037997961, 0.11200000531971455, 0.9600000455975533, 0.0, 0.0, 0.0, 0.0, 0.0, 1.6483360355218563E9, 0.0, 2022-03-26 18:07:15.521
61.0, 370.01074201613665, -118.95873779058456, 722.0680942949839, -262.07348939497024, -0.0800000037997961, 0.1600000075995922, 0.9600000455975533, 0.0, 0.0, 0.0, 0.0, 0.0, 1.6483360355225272E9, 0.0, 2022-03-26 18:07:15.522
61.0, 392.7717731464654, -109.94931879732758, 718.1972978408448, -222.02290076948702, -0.0800000037997961, 0.1600000075995922, 0.9600000455975533, 0.0, 0.0, 0.0, 0.0, 0.0, 1.6483360355225272E9, 0.0, 2022-03-26 18:07:15.522
62.0, 395.94320830889046, -94.21555968374014, 730.0453009004705, -44.99286641692743, -0.0800000037997961, 0.1600000075995922, 0.9600000455975533, 0.0, 0.0, 0.0, 0.0, 0.0, 1.648336035536136E9, 0.0, 2022-03-26 18:07:15.536
62.0, 384.86562464013696, -77.7413003789261, 727.2815148332156, -18.50876488070935, -0.0800000037997961, 0.1600000075995922, 0.9600000455975533, 0.0, 0.0, 0.0, 0.0, 0.0, 1.648336035536136E9, 0.0, 2022-03-26 18:07:15.536
63.0, 394.1443164302036, -89.43596754036844, 718.8630000329576, -96.18087711045519, -0.0800000037997961, 0.1600000075995922, 0.9600000455975533, 0.0, 0.0, 0.0, 0.0, 0.0, 1.648336035551843E9, 0.0, 2022-03-26 18:07:15.551
63.0, 392.46884125005454, -82.7041476201266, 728.0818534237333, 47.253635940141976, -0.0800000037997961, 0.1600000075995922, 0.9600000455975533, 0.0, 0.0, 0.0, 0.0, 0.0, 1.648336035551843E9, 0.0, 2022-03-26 18:07:15.551
64.0, 393.2990990402177, -76.17428229749203, 729.8919650022872, 202.11167340539396, -0.0800000037997961, 0.1600000075995922, 0.9600000455975533, 0.0, 0.0, 0.0, 0.0, 0.0, 1.6483360355525775E9, 0.0, 2022-03-26 18:07:15.552
64.0, 412.2753514153883, -92.21471320744604, 719.450164326001, 147.31091935466975, -0.0800000037997961, 0.1600000075995922, 0.9600000455975533, 0.0, 0.0, 0.0, 0.0, 0.0, 1.6483360355525775E9, 0.0, 2022-03-26 18:07:15.552
65.0, 383.2574676591903, -91.02168512158096, 724.2559357690625, 389.8640009309165, -0.0800000037997961, 0.1600000075995922, 0.9600000455975533, 0.0, 0.0, 0.0, 0.0, 0.0, 1.6483360355661175E9, 0.0, 2022-03-26 18:07:15.566
65.0, 386.57475891988724, -81.98982672858983, 724.8879788615741, 176.45782965933904, -0.0800000037997961, 0.1600000075995922, 0.9600000455975533, 0.0, 0.0, 0.0, 0.0, 0.0, 1.6483360355661175E9, 0.0, 2022-03-26 18:07:15.566
66.0, 350.88863354269415, -73.37309723068029, 731.0737733882852, 139.4963983972557, -0.0800000037997961, 0.1600000075995922, 0.9600000455975533, 0.0, 0.0, 0.0, 0.0, 0.0, 1.648336035581931E9, 0.0, 2022-03-26 18:07:15.581
66.0, 299.16207725554705, -57.878691714257, 752.9409684292041, 188.19176577031612, -0.0800000037997961, 0.1600000075995922, 0.9600000455975533, 0.0, 0.0, 0.0, 0.0, 0.0, 1.648336035581931E9, 0.0, 2022-03-26 18:07:15.581
67.0, 277.85586720798165, -62.02250086516142, 756.0824843919836, 149.67079622671008, -0.0800000037997961, 0.1600000075995922, 0.9600000455975533, 0.0, 0.0, 0.0, 0.0, 0.0, 1.6483360355825288E9, 0.0, 2022-03-26 18:07:15.582
67.0, 328.9354208027944, -58.959522801451385, 747.3610376953147, 242.2221004301682, -0.0800000037997961, 0.1600000075995922, 0.9600000455975533, 0.0, 0.0, 0.0, 0.0, 0.0, 1.6483360355825288E9, 0.0, 2022-03-26 18:07:15.582
68.0, 316.6049706488848, -44.037321978248656, 748.1314570861869, 141.6973295211792, -0.0800000037997961, 0.1600000075995922, 0.9600000455975533, 0.0, 0.0, 0.0, 0.0, 0.0, 1.6483360355960736E9, 0.0, 2022-03-26 18:07:15.596
68.0, 278.7945820968598, -31.205725230276585, 749.1000911747105, 249.90946478908882, -0.0800000037997961, 0.1600000075995922, 0.9600000455975533, 0.0, 0.0, 0.0, 0.0, 0.0, 1.6483360355960736E9, 0.0, 2022-03-26 18:07:15.596
69.0, 273.1660326635465, -42.859253492206335, 757.911295470316, 92.68033075192943, -0.0800000037997961, 0.1600000075995922, 0.9600000455975533, 0.0, 0.0, 0.0, 0.0, 0.0, 1.6483360356117816E9, 0.0, 2022-03-26 18:07:15.611
69.0, 320.35983020439744, -30.93271253351122, 770.5446775206365, 149.80356267513707, -0.0800000037997961, 0.1600000075995922, 0.9600000455975533, 0.0, 0.0, 0.0, 0.0, 0.0, 1.6483360356117816E9, 0.0, 2022-03-26 18:07:15.611
70.0, 305.45258898101747, -31.76297032367438, 771.2552585122176, -11.748895710799843, -0.0800000037997961, 0.1600000075995922, 1.008000047877431, 0.0, 0.0, 0.0, 0.0, 0.0, 1.648336035612515E9, 0.0, 2022-03-26 18:07:15.612
70.0, 332.80621725693345, -43.708210782147944, 758.3376440652646, -206.10588655807078, -0.0800000037997961, 0.1600000075995922, 1.008000047877431, 0.0, 0.0, 0.0, 0.0, 0.0, 1.648336035612515E9, 0.0, 2022-03-26 18:07:15.612
