%OpenBCI Raw EEG Data
%Number of channels = 4
%Sample Rate = 200 Hz
%Board = OpenBCI_GUI$BoardGanglionBLE
Sample Index, EXG Channel 0, EXG Channel 1, EXG Channel 2, EXG Channel 3, Accel Channel 0, Accel Channel 1, Accel Channel 2, Other, Other, Other, Other, Other, Timestamp, Other, Timestamp (Formatted)
4.0, 10.83823007158935, 14.009665234014392, 9.779838384129107, 6.03245862852782, 0.0, 0.0, 0.0, 0.0, 0.0, 0.0, 0.0, 0.0, 1.64833700496304E9, 0.0, 2022-03-26 18:23:24.963
4.0, -2.662808768451214, -1.3463639840483665, -8.253959202207625, -6.133435927331448, 0.0, 0.0, 0.0, 0.0, 0.0, 0.0, 0.0, 0.0, 1.64833700496304E9, 0.0, 2022-03-26 18:23:24.963
5.0, -4.547718346118927, -2.647849168628454, -6.0548980282619596, -1.8961292775347829, 0.0, 0.0, 0.0, 0.0, 0.0, 0.0, 0.0, 0.0, 1.6483370049768262E9, 0.0, 2022-03-26 18:23:24.976
5.0, -3.1265563629567623, 1.3912427835166454, 4.734713343903422, 7.210527114570141, 0.0, 0.0, 0.0, 0.0, 0.0, 0.0, 0.0, 0.0, 1.6483370049768262E9, 0.0, 2022-03-26 18:23:24.976
6.0, -2.5094728702679276, 11.002785669639707, 6.8552366187796, 0.9087956892326474, 0.0, 0.0, 0.0, 0.0, 0.0, 0.0, 0.0, 0.0, 1.6483370049924507E9, 0.0, 2022-03-26 18:23:24.992
6.0, -8.912181594409049, -3.904455553740263, -8.126802603714168, -3.7174605559557676, 0.0, 0.0, 0.0, 0.0, 0.0, 0.0, 0.0, 0.0, 1.6483370049924507E9, 0.0, 2022-03-26 18:23:24.992
7.0, -7.831350507214665, -4.349503648467362, -4.342023848555982, -3.579084257595241, 0.0, 0.0, 0.0, 0.0, 0.0, 0.0, 0.0, 0.0, 1.648337004993129E9, 0.0, 2022-03-26 18:23:24.993
7.0, 3.4407079592347145, 8.84860329516232, 14.305117330513895, 7.326464013196528, 0.0, 0.0, 0.0, 0.0, 0.0, 0.0, 0.0, 0.0, 1.648337004993129E9, 0.0, 2022-03-26 18:23:24.993
8.0, 3.0068795643746853, 7.726633308455348, 3.9568141531199217, 2.0793843753635883, 0.0, 0.0, 0.0, 0.0, 0.0, 0.0, 0.0, 0.0, 1.6483370050067053E9, 0.0, 2022-03-26 18:23:25.006
8.0, -2.5880107693374157, 3.3135513607412577, -6.926294717937708, -7.689234308898449, 0.0, 0.0, 0.0, 0.0, 0.0, 0.0, 0.0, 0.0, 1.6483370050067053E9, 0.0, 2022-03-26 18:23:25.006
9.0, -2.741346667520702, -1.0135128879919648, -4.338283948600292, -22.850788729265332, 0.0, 0.0, 0.0, 0.0, 0.0, 0.0, 0.0, 0.0, 1.648337005022396E9, 0.0, 2022-03-26 18:23:25.022
9.0, -3.709980756044388, -2.490773370489478, -3.665101956576109, -9.102916492149234, 0.0, 0.0, 0.0, 0.0, 0.0, 0.0, 0.0, 0.0, 1.648337005022396E9, 0.0, 2022-03-26 18:23:25.022
10.0, 7.861269706860185, 7.921108106151223, 2.700207768008113, 2.6702885683625937, 0.0, 0.0, 0.944000044837594, 0.0, 0.0, 0.0, 0.0, 0.0, 1.6483370050232031E9, 0.0, 2022-03-26 18:23:25.023
10.0, -2.6777683682739735, 0.8526971898972988, -5.912781829945743, -8.089403604157269, 0.0, 0.0, 0.944000044837594, 0.0, 0.0, 0.0, 0.0, 0.0, 1.6483370050232031E9, 0.0, 2022-03-26 18:23:25.023
11.0, -2.9657406648620963, -2.5580915696918964, -7.6256560096517205, 3.784778755158186, 0.0, 0.4480000212788582, 0.944000044837594, 0.0, 0.0, 0.0, 0.0, 0.0, 1.648337005036718E9, 0.0, 2022-03-26 18:23:25.036
11.0, -1.6754751801490784, -4.996506340801716, 0.34033089596778154, -5.508872634731233, 0.0, 0.4480000212788582, 0.944000044837594, 0.0, 0.0, 0.0, 0.0, 0.0, 1.648337005036718E9, 0.0, 2022-03-26 18:23:25.036
12.0, -17.233458995819092, -13.418761041015387, -19.002431674860418, -18.95007307548076, -0.01600000075995922, 0.4480000212788582, 0.944000044837594, 0.0, 0.0, 0.0, 0.0, 0.0, 1.6483370050524707E9, 0.0, 2022-03-26 18:23:25.052
12.0, -14.196660231798887, -7.853789906948805, -12.607202750630677, -14.578130027279258, -0.01600000075995922, 0.4480000212788582, 0.944000044837594, 0.0, 0.0, 0.0, 0.0, 0.0, 1.6483370050524707E9, 0.0, 2022-03-26 18:23:25.052
13.0, -5.093743739649653, -4.248526349663734, -8.369896100834012, -5.673428232781589, -0.01600000075995922, 0.4480000212788582, 0.944000044837594, 0.0, 0.0, 0.0, 0.0, 0.0, 1.6483370050531504E9, 0.0, 2022-03-26 18:23:25.053
13.0, -36.404186168685555, -33.76755669992417, -33.591781402006745, -30.21839164197445, -0.01600000075995922, 0.4480000212788582, 0.944000044837594, 0.0, 0.0, 0.0, 0.0, 0.0, 1.6483370050531504E9, 0.0, 2022-03-26 18:23:25.053
14.0, -4.072751051746309, 3.61648325715214, 5.516352434642613, -0.22065409738570452, -0.01600000075995922, 0.4480000212788582, 0.944000044837594, 0.0, 0.0, 0.0, 0.0, 0.0, 1.6483370050666895E9, 0.0, 2022-03-26 18:23:25.066
14.0, -9.503085787408054, 3.62022315710783, 5.187241238541901, -5.516352434642613, -0.01600000075995922, 0.4480000212788582, 0.944000044837594, 0.0, 0.0, 0.0, 0.0, 0.0, 1.6483370050666895E9, 0.0, 2022-03-26 18:23:25.066
15.0, -11.447833764366806, -13.602016138844192, -1.2640861850231886, -10.325863777659833, -0.01600000075995922, 0.4480000212788582, 0.944000044837594, 0.0, 0.0, 0.0, 0.0, 0.0, 1.648337005082406E9, 0.0, 2022-03-26 18:23:25.082
15.0, -1.1406694864854217, 10.598876474425197, 17.36435549426824, 1.5445786816999316, -0.01600000075995922, 0.4480000212788582, 0.944000044837594, 0.0, 0.0, 0.0, 0.0, 0.0, 1.648337005082406E9, 0.0, 2022-03-26 18:23:25.082
16.0, -8.930881094187498, 5.344317036680877, -10.224886478856206, -8.975759893655777, -0.01600000075995922, 0.4480000212788582, 0.944000044837594, 0.0, 0.0, 0.0, 0.0, 0.0, 1.6483370050831184E9, 0.0, 2022-03-26 18:23:25.083
16.0, -16.87068870011717, -9.981792981736362, -21.814836441539228, -26.269057288765907, -0.01600000075995922, 0.4480000212788582, 0.944000044837594, 0.0, 0.0, 0.0, 0.0, 0.0, 1.6483370050831184E9, 0.0, 2022-03-26 18:23:25.083
17.0, -15.909534411504865, -19.66439396701753, -22.843308929353952, -18.677060378715396, -0.01600000075995922, 0.4480000212788582, 0.944000044837594, 0.0, 0.0, 0.0, 0.0, 0.0, 1.6483370050967329E9, 0.0, 2022-03-26 18:23:25.096
17.0, 0.3104116963222623, -1.5071796821430326, -0.643262792378664, -6.518645622767508, -0.01600000075995922, 0.4480000212788582, 0.944000044837594, 0.0, 0.0, 0.0, 0.0, 0.0, 1.6483370050967329E9, 0.0, 2022-03-26 18:23:25.096
18.0, 0.7591996910050511, -5.366756436415017, 0.06357829924672842, 17.592489391565323, -0.01600000075995922, 0.4480000212788582, 0.944000044837594, 0.0, 0.0, 0.0, 0.0, 0.0, 1.648337005112374E9, 0.0, 2022-03-26 18:23:25.112
18.0, -6.249372825957835, -11.545071163214743, -3.7660792553797364, -4.581377445720136, -0.01600000075995922, 0.4480000212788582, 0.944000044837594, 0.0, 0.0, 0.0, 0.0, 0.0, 1.648337005112374E9, 0.0, 2022-03-26 18:23:25.112
19.0, -11.511412063613534, -14.357475929893553, -7.016052316874266, -14.08446323312819, -0.01600000075995922, 0.4480000212788582, 0.944000044837594, 0.0, 0.0, 0.0, 0.0, 0.0, 1.6483370051131065E9, 0.0, 2022-03-26 18:23:25.113
19.0, -11.589949962683022, -17.29329739511013, -9.929434382356703, -0.2131742974743247, -0.01600000075995922, 0.4480000212788582, 0.944000044837594, 0.0, 0.0, 0.0, 0.0, 0.0, 1.6483370051131065E9, 0.0, 2022-03-26 18:23:25.113
20.0, 1.768972679041326, -7.3863024124875665, 1.3800230836495757, 7.3451635129749775, -0.01600000075995922, 0.4480000212788582, 0.9280000440776348, 0.0, 0.0, 0.0, 0.0, 0.0, 1.6483370051267133E9, 0.0, 2022-03-26 18:23:25.126
20.0, -17.383054994046688, -23.830642517656088, -21.526864144951105, -12.326710253953934, -0.01600000075995922, 0.4480000212788582, 0.9280000440776348, 0.0, 0.0, 0.0, 0.0, 0.0, 1.6483370051267133E9, 0.0, 2022-03-26 18:23:25.126
21.0, -15.67018081434071, -18.87527507636696, -23.456652522087097, -19.039830674417317, -0.01600000075995922, 0.4480000212788582, 0.9280000440776348, 0.0, 0.0, 0.0, 0.0, 0.0, 1.6483370051423943E9, 0.0, 2022-03-26 18:23:25.142
21.0, -33.43844550382346, -47.0217621428892, -50.83272019773722, -38.457391244359314, -0.01600000075995922, 0.4480000212788582, 0.9280000440776348, 0.0, 0.0, 0.0, 0.0, 0.0, 1.6483370051423943E9, 0.0, 2022-03-26 18:23:25.142
22.0, 18.56112348008901, 20.775144253857434, 25.614574796520174, 27.35362827591598, -0.01600000075995922, 0.4480000212788582, 0.9280000440776348, 0.0, 0.0, 0.0, 0.0, 0.0, 1.6483370051430976E9, 0.0, 2022-03-26 18:23:25.143
22.0, 7.270365513861179, 4.312104648910463, 2.4309349711984396, -0.6918814918026328, -0.01600000075995922, 0.4480000212788582, 0.9280000440776348, 0.0, 0.0, 0.0, 0.0, 0.0, 1.6483370051430976E9, 0.0, 2022-03-26 18:23:25.143
23.0, 7.812651007436216, 3.3135513607412577, 5.419115035794675, 9.68634088523686, -0.01600000075995922, 0.4480000212788582, 0.9280000440776348, 0.0, 0.0, 0.0, 0.0, 0.0, 1.6483370051567037E9, 0.0, 2022-03-26 18:23:25.156
23.0, 12.270611754618585, 14.327556730248034, 18.662100778892636, 15.973112710751593, -0.01600000075995922, 0.4480000212788582, 0.9280000440776348, 0.0, 0.0, 0.0, 0.0, 0.0, 1.6483370051567037E9, 0.0, 2022-03-26 18:23:25.156
24.0, 4.315844548866153, -4.787071943283081, -13.373882241547108, -12.300530954264104, -0.01600000075995922, 0.4480000212788582, 0.9280000440776348, 0.0, 0.0, 0.0, 0.0, 0.0, 1.648337005172469E9, 0.0, 2022-03-26 18:23:25.172
24.0, -12.973712946288288, -22.461839133873582, -16.758491701446474, -19.69057326670736, -0.01600000075995922, 0.4480000212788582, 0.9280000440776348, 0.0, 0.0, 0.0, 0.0, 0.0, 1.648337005172469E9, 0.0, 2022-03-26 18:23:25.172
25.0, 3.5678645577281713, 1.4398614829406142, 10.180007679387927, 7.487279711291194, -0.01600000075995922, 0.4480000212788582, 0.9280000440776348, 0.0, 0.0, 0.0, 0.0, 0.0, 1.6483370051731412E9, 0.0, 2022-03-26 18:23:25.173
25.0, 14.671627526171505, 20.348795658908784, 29.522770250216126, 16.335883006453514, -0.01600000075995922, 0.4480000212788582, 0.9280000440776348, 0.0, 0.0, 0.0, 0.0, 0.0, 1.6483370051731412E9, 0.0, 2022-03-26 18:23:25.173
26.0, -17.106302397325635, -24.716998807154596, -24.58984220866114, -25.162046901881695, -0.01600000075995922, 0.4480000212788582, 0.9280000440776348, 0.0, 0.0, 0.0, 0.0, 0.0, 1.6483370051866918E9, 0.0, 2022-03-26 18:23:25.186
26.0, -12.397768353112042, -17.461592893116176, -16.249865307472646, -12.812897248193622, -0.01600000075995922, 0.4480000212788582, 0.9280000440776348, 0.0, 0.0, 0.0, 0.0, 0.0, 1.6483370051866918E9, 0.0, 2022-03-26 18:23:25.186
27.0, -5.763185831718147, -3.5192458583042026, -7.150688715279102, -8.553151198662817, -0.01600000075995922, 0.4480000212788582, 0.9280000440776348, 0.0, 0.0, 0.0, 0.0, 0.0, 1.6483370052025409E9, 0.0, 2022-03-26 18:23:25.202
27.0, 1.7053943797945976, -1.5557983815670013, -9.903255082666874, -6.9038553182035685, -0.01600000075995922, 0.4480000212788582, 0.9280000440776348, 0.0, 0.0, 0.0, 0.0, 0.0, 1.6483370052025409E9, 0.0, 2022-03-26 18:23:25.202
28.0, 0.7031011916697025, -0.4637475945055485, -3.5603847578167915, 5.400415536016226, -0.01600000075995922, 0.4480000212788582, 0.9280000440776348, 0.0, 0.0, 0.0, 0.0, 0.0, 1.6483370052031195E9, 0.0, 2022-03-26 18:23:25.203
28.0, -5.594890333712101, -1.6343362806364894, 3.5529049579054117, -6.772958819754422, -0.01600000075995922, 0.4480000212788582, 0.9280000440776348, 0.0, 0.0, 0.0, 0.0, 0.0, 1.6483370052031195E9, 0.0, 2022-03-26 18:23:25.203
29.0, 1.323924584314227, 6.170834926888347, 0.29919199645519257, -5.938961129635572, -0.01600000075995922, 0.4480000212788582, 0.9280000440776348, 0.0, 0.0, 0.0, 0.0, 0.0, 1.648337005216735E9, 0.0, 2022-03-26 18:23:25.216
29.0, -3.751119655556977, 0.17203539796173573, -4.214867250062525, -7.66305500920862, -0.01600000075995922, 0.4480000212788582, 0.9280000440776348, 0.0, 0.0, 0.0, 0.0, 0.0, 1.648337005216735E9, 0.0, 2022-03-26 18:23:25.216
30.0, 1.088310887105763, 1.8362908782437444, 4.02787225227803, -2.139222774654627, -0.01600000075995922, 0.4480000212788582, 0.9280000440776348, 0.0, 0.0, 0.0, 0.0, 0.0, 1.6483370052324207E9, 0.0, 2022-03-26 18:23:25.232
30.0, -5.912781829945743, -1.4623008826747537, -5.688387832604349, -19.204386272467673, -0.01600000075995922, 0.4480000212788582, 0.9280000440776348, 0.0, 0.0, 0.0, 0.0, 0.0, 1.6483370052324207E9, 0.0, 2022-03-26 18:23:25.232
31.0, 2.487033470533788, 2.9246017653495073, -12.988672546111047, -10.969126570038497, -0.01600000075995922, 0.4480000212788582, 0.9280000440776348, 0.0, 0.0, 0.0, 0.0, 0.0, 1.6483370052331357E9, 0.0, 2022-03-26 18:23:25.233
31.0, -5.104963439516723, -1.6193766808137298, -6.073597528040409, -10.625055774115026, -0.01600000075995922, 0.4480000212788582, 0.9280000440776348, 0.0, 0.0, 0.0, 0.0, 0.0, 1.6483370052331357E9, 0.0, 2022-03-26 18:23:25.233
32.0, -2.5468718698248267, 0.7928587906062603, 6.477506723254919, -3.3696498600766063, -0.01600000075995922, 0.4480000212788582, 0.9280000440776348, 0.0, 0.0, 0.0, 0.0, 0.0, 1.6483370052468212E9, 0.0, 2022-03-26 18:23:25.246
32.0, -4.772112343460321, -6.365309724584222, 9.394628688693047, -5.707087332382798, -0.01600000075995922, 0.4480000212788582, 0.9280000440776348, 0.0, 0.0, 0.0, 0.0, 0.0, 1.6483370052468212E9, 0.0, 2022-03-26 18:23:25.246
33.0, 3.6464024567976594, 2.4084955714643, 30.756937235593796, 13.007372045889497, -0.01600000075995922, 0.4480000212788582, 0.9280000440776348, 0.0, 0.0, 0.0, 0.0, 0.0, 1.6483370052788875E9, 0.0, 2022-03-26 18:23:25.278
33.0, -4.312104648910463, -5.426594835706055, 26.332635588012636, 10.138868779875338, -0.01600000075995922, 0.4480000212788582, 0.9280000440776348, 0.0, 0.0, 0.0, 0.0, 0.0, 1.6483370052788875E9, 0.0, 2022-03-26 18:23:25.278
34.0, -12.367849153466523, -17.009064998477697, 30.506363938562572, 1.6567756803706288, -0.01600000075995922, 0.4480000212788582, 0.9280000440776348, 0.0, 0.0, 0.0, 0.0, 0.0, 1.6483370052796388E9, 0.0, 2022-03-26 18:23:25.279
34.0, -7.1843478148803115, -17.379315094090998, 27.940792568959296, 6.369049624539912, -0.01600000075995922, 0.4480000212788582, 0.9280000440776348, 0.0, 0.0, 0.0, 0.0, 0.0, 1.6483370052796388E9, 0.0, 2022-03-26 18:23:25.279
35.0, -13.6730742380023, -21.77369754202664, 6.7392997201532125, 1.0621315874159336, -0.01600000075995922, 0.4480000212788582, 0.9280000440776348, 0.0, 0.0, 0.0, 0.0, 0.0, 1.6483370052804022E9, 0.0, 2022-03-26 18:23:25.280
35.0, 11.851742959581316, 4.802031543105841, 49.288141516037285, 28.13900726661086, -0.01600000075995922, 0.4480000212788582, 0.9280000440776348, 0.0, 0.0, 0.0, 0.0, 0.0, 1.6483370052804022E9, 0.0, 2022-03-26 18:23:25.280
36.0, 11.062624068930745, 7.072150816209614, 53.44691026676446, 21.115475149825215, -0.01600000075995922, 0.4480000212788582, 0.9280000440776348, 0.0, 0.0, 0.0, 0.0, 0.0, 1.64833700528105E9, 0.0, 2022-03-26 18:23:25.281
36.0, 0.2617929968982935, -11.002785669639707, 30.719538236036897, 14.204140031710267, -0.01600000075995922, 0.4480000212788582, 0.9280000440776348, 0.0, 0.0, 0.0, 0.0, 0.0, 1.64833700528105E9, 0.0, 2022-03-26 18:23:25.281
37.0, -2.255159673281014, -9.349749889224768, 31.32914192881435, 12.607202750630677, -0.01600000075995922, 0.4480000212788582, 0.9280000440776348, 0.0, 0.0, 0.0, 0.0, 0.0, 1.6483370052917495E9, 0.0, 2022-03-26 18:23:25.291
37.0, -5.284478637389839, -19.31284337118268, 22.18134663719684, -4.667395144701004, -0.01600000075995922, 0.4480000212788582, 0.9280000440776348, 0.0, 0.0, 0.0, 0.0, 0.0, 1.6483370052917495E9, 0.0, 2022-03-26 18:23:25.291
38.0, -1.4996998822316527, -14.89976142346859, 25.042370103299618, 19.398861070163548, -0.01600000075995922, 0.4480000212788582, 0.9280000440776348, 0.0, 0.0, 0.0, 0.0, 0.0, 1.6483370053067167E9, 0.0, 2022-03-26 18:23:25.306
38.0, 10.43432087637484, -0.9349749889224768, 47.97169673163444, 31.74427082389593, -0.01600000075995922, 0.4480000212788582, 0.9280000440776348, 0.0, 0.0, 0.0, 0.0, 0.0, 1.6483370053067167E9, 0.0, 2022-03-26 18:23:25.306
39.0, 1.2790457848459482, -2.0232858760282397, 31.43385912757367, 1.3463639840483665, -0.01600000075995922, 0.4480000212788582, 0.9280000440776348, 0.0, 0.0, 0.0, 0.0, 0.0, 1.6483370053223903E9, 0.0, 2022-03-26 18:23:25.322
39.0, 1.4286417830735445, -5.961400529369712, 20.06082336232066, 2.528172370046377, -0.01600000075995922, 0.4480000212788582, 0.9280000440776348, 0.0, 0.0, 0.0, 0.0, 0.0, 1.6483370053223903E9, 0.0, 2022-03-26 18:23:25.322
40.0, -3.414528659544885, -11.522631763480604, 27.462085374630988, 9.192674091085792, -0.01600000075995922, 0.4480000212788582, 0.9280000440776348, 0.0, 0.0, 0.0, 0.0, 0.0, 1.6483370053231187E9, 0.0, 2022-03-26 18:23:25.323
40.0, -2.4795536706224084, -10.359522877261043, 32.65306651312858, 6.470026923343539, -0.01600000075995922, 0.4480000212788582, 0.9280000440776348, 0.0, 0.0, 0.0, 0.0, 0.0, 1.6483370053231187E9, 0.0, 2022-03-26 18:23:25.323
41.0, -4.753412843681872, -7.367602912709117, 22.16264713741839, 0.5759445931762457, -0.01600000075995922, 0.4480000212788582, 0.9280000440776348, 0.0, 0.0, 0.0, 0.0, 0.0, 1.648337005336773E9, 0.0, 2022-03-26 18:23:25.336
41.0, -0.7741592908278108, -5.609849933534861, 24.17097341362387, 2.8049249667674303, -0.01600000075995922, 0.4480000212788582, 0.9280000440776348, 0.0, 0.0, 0.0, 0.0, 0.0, 1.648337005336773E9, 0.0, 2022-03-26 18:23:25.336
42.0, 1.163108886219561, -9.813497483730316, 20.99205845128745, 8.302577901631594, -0.01600000075995922, 0.4480000212788582, 0.9280000440776348, 0.0, 0.0, 0.0, 0.0, 0.0, 1.6483370053523865E9, 0.0, 2022-03-26 18:23:25.352
42.0, 1.3351442841812968, -7.951027305796742, 24.825455905869603, 12.764278548769653, -0.01600000075995922, 0.4480000212788582, 0.9280000440776348, 0.0, 0.0, 0.0, 0.0, 0.0, 1.6483370053523865E9, 0.0, 2022-03-26 18:23:25.352
43.0, -3.1265563629567623, -16.05913040973246, 17.992658686824143, 0.6470026923343539, -0.01600000075995922, 0.4480000212788582, 0.9280000440776348, 0.0, 0.0, 0.0, 0.0, 0.0, 1.6483370053531752E9, 0.0, 2022-03-26 18:23:25.353
43.0, -8.43721430003643, -19.529757568612695, 14.192920331843197, 2.487033470533788, -0.01600000075995922, 0.4480000212788582, 0.9280000440776348, 0.0, 0.0, 0.0, 0.0, 0.0, 1.6483370053531752E9, 0.0, 2022-03-26 18:23:25.353
44.0, -16.54905730392784, -24.5300038093701, 2.778745667077601, -18.792997277341783, -0.01600000075995922, 0.4480000212788582, 0.9280000440776348, 0.0, 0.0, 0.0, 0.0, 0.0, 1.6483370053667028E9, 0.0, 2022-03-26 18:23:25.366
44.0, -8.05574450455606, -19.918707164004445, 5.505132734775543, 2.0756444754078984, -0.01600000075995922, 0.4480000212788582, 0.9280000440776348, 0.0, 0.0, 0.0, 0.0, 0.0, 1.6483370053667028E9, 0.0, 2022-03-26 18:23:25.366
45.0, -2.169141974300146, -12.779238148592412, 11.354336265474558, 12.08361675683409, -0.01600000075995922, 0.4480000212788582, 0.9280000440776348, 0.0, 0.0, 0.0, 0.0, 0.0, 1.648337005382351E9, 0.0, 2022-03-26 18:23:25.382
45.0, -4.169988450594246, -3.9942131526768208, 25.513597497716546, 15.068056921474636, -0.01600000075995922, 0.4480000212788582, 0.9280000440776348, 0.0, 0.0, 0.0, 0.0, 0.0, 1.648337005382351E9, 0.0, 2022-03-26 18:23:25.382
46.0, -13.235505943186581, -24.690819507464767, 6.208233926445246, -7.65183530934155, -0.01600000075995922, 0.4480000212788582, 0.9280000440776348, 0.0, 0.0, 0.0, 0.0, 0.0, 1.6483370053830712E9, 0.0, 2022-03-26 18:23:25.383
46.0, -19.64943436719477, -32.55582911428064, -5.284478637389839, -4.753412843681872, -0.01600000075995922, 0.4480000212788582, 0.9280000440776348, 0.0, 0.0, 0.0, 0.0, 0.0, 1.6483370053830712E9, 0.0, 2022-03-26 18:23:25.383
47.0, -5.022685640491545, -15.333589818328619, 21.949472839944065, 11.316937265917659, -0.01600000075995922, 0.4480000212788582, 0.9280000440776348, 0.0, 0.0, 0.0, 0.0, 0.0, 1.6483370053968153E9, 0.0, 2022-03-26 18:23:25.396
47.0, -3.788518655113876, -13.29160444252193, 18.98373217508197, 8.283878401853144, -0.01600000075995922, 0.4480000212788582, 0.9280000440776348, 0.0, 0.0, 0.0, 0.0, 0.0, 1.6483370053968153E9, 0.0, 2022-03-26 18:23:25.396
48.0, -10.632535574026406, -19.76537126582116, 12.678260849788785, 2.8834628658369184, -0.01600000075995922, 0.4480000212788582, 0.9280000440776348, 0.0, 0.0, 0.0, 0.0, 0.0, 1.6483370054124708E9, 0.0, 2022-03-26 18:23:25.412
48.0, -9.185194291174412, -17.080123097635806, 11.997599057853222, 4.716013844124973, -0.01600000075995922, 0.4480000212788582, 0.9280000440776348, 0.0, 0.0, 0.0, 0.0, 0.0, 1.6483370054124708E9, 0.0, 2022-03-26 18:23:25.412
49.0, -4.966587141156197, -9.297391289845109, 19.634474767372012, 12.569803751073778, -0.01600000075995922, 0.4480000212788582, 0.9280000440776348, 0.0, 0.0, 0.0, 0.0, 0.0, 1.648337005413163E9, 0.0, 2022-03-26 18:23:25.413
49.0, -5.112443239428103, -10.108949580229819, 20.16928046103567, 15.157814520411193, -0.01600000075995922, 0.4480000212788582, 0.9280000440776348, 0.0, 0.0, 0.0, 0.0, 0.0, 1.648337005413163E9, 0.0, 2022-03-26 18:23:25.413
50.0, -12.928834146820009, -23.75584451854229, 5.067564439959824, 7.685494408942759, -0.01600000075995922, 0.4480000212788582, 0.9280000440776348, 0.0, 0.0, 0.0, 0.0, 0.0, 1.6483370054267704E9, 0.0, 2022-03-26 18:23:25.426
50.0, -9.521785287186503, -14.806263924576342, 17.69346669036895, 1.727833779528737, -0.01600000075995922, 0.4480000212788582, 0.9280000440776348, 0.0, 0.0, 0.0, 0.0, 0.0, 1.6483370054267704E9, 0.0, 2022-03-26 18:23:25.426
51.0, -19.26422467175871, -24.432766410522163, 6.597183521836996, -12.981192746199667, -0.01600000075995922, 0.4480000212788582, 0.9280000440776348, 0.0, 0.0, 0.0, 0.0, 0.0, 1.6483370054423764E9, 0.0, 2022-03-26 18:23:25.442
51.0, -3.253712961450219, -12.984932646155357, 21.964432439766824, 15.064317021518946, -0.01600000075995922, 0.4480000212788582, 0.9280000440776348, 0.0, 0.0, 0.0, 0.0, 0.0, 1.6483370054423764E9, 0.0, 2022-03-26 18:23:25.442
52.0, -4.065271251834929, -10.8569295713678, 19.421300469897687, 11.402954964898527, -0.01600000075995922, 0.4480000212788582, 0.9280000440776348, 0.0, 0.0, 0.0, 0.0, 0.0, 1.648337005443164E9, 0.0, 2022-03-26 18:23:25.443
52.0, -2.490773370489478, -9.63024238590151, 18.370388582348824, 10.561477474868298, -0.01600000075995922, 0.4480000212788582, 0.9280000440776348, 0.0, 0.0, 0.0, 0.0, 0.0, 1.648337005443164E9, 0.0, 2022-03-26 18:23:25.443
53.0, -9.170234691351652, -12.210773355327547, 17.626148491166532, 10.08277028053999, -0.01600000075995922, 0.4480000212788582, 0.9280000440776348, 0.0, 0.0, 0.0, 0.0, 0.0, 1.648337005456684E9, 0.0, 2022-03-26 18:23:25.456
53.0, -10.632535574026406, -15.801077312789857, 9.185194291174412, 5.381716036237776, -0.01600000075995922, 0.4480000212788582, 0.9280000440776348, 0.0, 0.0, 0.0, 0.0, 0.0, 1.648337005456684E9, 0.0, 2022-03-26 18:23:25.456
54.0, -22.648834131658077, -22.768510930240154, -1.3052250845357776, -5.067564439959824, -0.01600000075995922, 0.4480000212788582, 0.9280000440776348, 0.0, 0.0, 0.0, 0.0, 0.0, 1.6483370054888637E9, 0.0, 2022-03-26 18:23:25.488
54.0, -13.983485934324563, -18.07493648584932, 8.762585596181452, 5.22838013805449, -0.01600000075995922, 0.4480000212788582, 0.9280000440776348, 0.0, 0.0, 0.0, 0.0, 0.0, 1.6483370054888637E9, 0.0, 2022-03-26 18:23:25.488
55.0, -6.585963821969926, -7.8276106072589755, 23.76332431845367, 6.3802693244069815, -0.01600000075995922, 0.4480000212788582, 0.9280000440776348, 0.0, 0.0, 0.0, 0.0, 0.0, 1.6483370054894795E9, 0.0, 2022-03-26 18:23:25.489
55.0, -7.419961512088776, -6.806617919355631, 13.31404384225607, -10.202447079122066, -0.01600000075995922, 0.4480000212788582, 0.9280000440776348, 0.0, 0.0, 0.0, 0.0, 0.0, 1.6483370054894795E9, 0.0, 2022-03-26 18:23:25.489
56.0, -14.87732202373445, -11.402954964898527, 2.4010157715529203, -5.965140429325402, -0.01600000075995922, 0.4480000212788582, 0.9280000440776348, 0.0, 0.0, 0.0, 0.0, 0.0, 1.648337005490353E9, 0.0, 2022-03-26 18:23:25.490
56.0, -12.566063851118088, -9.26747209019959, 10.946687170304358, 3.107856863178313, -0.01600000075995922, 0.4480000212788582, 0.9280000440776348, 0.0, 0.0, 0.0, 0.0, 0.0, 1.648337005490353E9, 0.0, 2022-03-26 18:23:25.490
57.0, -11.720846461132169, -13.029811445623636, 14.11064253281802, -3.9343747533857822, -0.01600000075995922, 0.4480000212788582, 0.9280000440776348, 0.0, 0.0, 0.0, 0.0, 0.0, 1.64833700549101E9, 0.0, 2022-03-26 18:23:25.491
57.0, -26.422393186949193, -20.610588655807078, -0.9125355891883373, -6.42514812387526, -0.01600000075995922, 0.4480000212788582, 0.9280000440776348, 0.0, 0.0, 0.0, 0.0, 0.0, 1.64833700549101E9, 0.0, 2022-03-26 18:23:25.491
58.0, -18.273151183500886, -7.722893408499658, 5.6958676325157285, -2.5655713696032763, -0.01600000075995922, 0.4480000212788582, 0.9280000440776348, 0.0, 0.0, 0.0, 0.0, 0.0, 1.6483370055017335E9, 0.0, 2022-03-26 18:23:25.501
58.0, -13.957306634634733, -5.2919584373012185, 7.393782212398946, 3.8820161540061235, -0.01600000075995922, 0.4480000212788582, 0.9280000440776348, 0.0, 0.0, 0.0, 0.0, 0.0, 1.6483370055017335E9, 0.0, 2022-03-26 18:23:25.501
59.0, -16.96792609896511, -7.9061485063284636, 10.714813373051584, -1.970927276648581, -0.01600000075995922, 0.4480000212788582, 0.9280000440776348, 0.0, 0.0, 0.0, 0.0, 0.0, 1.6483370055168028E9, 0.0, 2022-03-26 18:23:25.516
59.0, -18.93137357570231, -8.568110798485577, 3.6015236573293805, -4.940407841466367, -0.01600000075995922, 0.4480000212788582, 0.9280000440776348, 0.0, 0.0, 0.0, 0.0, 0.0, 1.6483370055168028E9, 0.0, 2022-03-26 18:23:25.516
60.0, -14.361215829849243, -5.834243930876255, 4.41682184766978, -6.85897651873529, -0.01600000075995922, 0.4480000212788582, 0.9280000440776348, 0.0, 0.0, 0.0, 0.0, 0.0, 1.648337005532411E9, 0.0, 2022-03-26 18:23:25.532
60.0, -19.537237368524075, -14.87358212377876, -4.472920347005129, -20.382454758509994, -0.01600000075995922, 0.4480000212788582, 0.9280000440776348, 0.0, 0.0, 0.0, 0.0, 0.0, 1.648337005532411E9, 0.0, 2022-03-26 18:23:25.532
61.0, -17.2671180954203, -6.937514417804778, 4.562677945941687, -12.221993055194616, -0.01600000075995922, 0.4480000212788582, 0.9280000440776348, 0.0, 0.0, 0.0, 0.0, 0.0, 1.6483370055332472E9, 0.0, 2022-03-26 18:23:25.533
61.0, -15.640261614695191, -8.755105796270072, -5.467733735218644, -12.173374355770648, -0.01600000075995922, 0.4480000212788582, 0.9280000440776348, 0.0, 0.0, 0.0, 0.0, 0.0, 1.6483370055332472E9, 0.0, 2022-03-26 18:23:25.533
62.0, -14.144301632419229, -7.524678710848093, 6.230673326179385, -9.480646387673914, -0.01600000075995922, 0.4480000212788582, 0.9280000440776348, 0.0, 0.0, 0.0, 0.0, 0.0, 1.648337005546864E9, 0.0, 2022-03-26 18:23:25.546
62.0, -16.979145798832178, -12.966233146376908, 1.0733512872830033, -13.198106943629682, -0.01600000075995922, 0.4480000212788582, 0.9280000440776348, 0.0, 0.0, 0.0, 0.0, 0.0, 1.648337005546864E9, 0.0, 2022-03-26 18:23:25.546
63.0, -20.58066945616156, -18.015098086558282, -5.310657937079668, -17.36435549426824, -0.01600000075995922, 0.4480000212788582, 0.9280000440776348, 0.0, 0.0, 0.0, 0.0, 0.0, 1.648337005562466E9, 0.0, 2022-03-26 18:23:25.562
63.0, -20.389934558421373, -16.664994202554226, -3.8745363540947437, -20.55823005642742, -0.01600000075995922, 0.4480000212788582, 0.9280000440776348, 0.0, 0.0, 0.0, 0.0, 0.0, 1.648337005562466E9, 0.0, 2022-03-26 18:23:25.562
64.0, -14.929680623114109, -1.1070103868842125, 6.484986523166299, -4.6898345444351435, -0.01600000075995922, 0.4480000212788582, 0.9280000440776348, 0.0, 0.0, 0.0, 0.0, 0.0, 1.6483370055631845E9, 0.0, 2022-03-26 18:23:25.563
64.0, -2.9507810650393367, 9.899515182711184, 18.015098086558282, 13.119569044560194, -0.01600000075995922, 0.4480000212788582, 0.9280000440776348, 0.0, 0.0, 0.0, 0.0, 0.0, 1.6483370055631845E9, 0.0, 2022-03-26 18:23:25.563
65.0, -11.795644460245967, 0.018699499778449535, 14.51829162798822, -1.5483185816556215, -0.01600000075995922, 0.4480000212788582, 0.9280000440776348, 0.0, 0.0, 0.0, 0.0, 0.0, 1.648337005576743E9, 0.0, 2022-03-26 18:23:25.576
65.0, -15.337329718284309, -3.2798922611400485, 14.316337030380964, -2.935821465216577, -0.01600000075995922, 0.4480000212788582, 0.9280000440776348, 0.0, 0.0, 0.0, 0.0, 0.0, 1.648337005576743E9, 0.0, 2022-03-26 18:23:25.576
66.0, -11.27579836640507, -3.9942131526768208, 0.964894188567996, -13.325263542123139, -0.01600000075995922, 0.4480000212788582, 0.9280000440776348, 0.0, 0.0, 0.0, 0.0, 0.0, 1.648337005592378E9, 0.0, 2022-03-26 18:23:25.592
66.0, -10.984086169861257, -3.9942131526768208, 3.7174605559557676, 3.4444478591904044, -0.01600000075995922, 0.4480000212788582, 0.9280000440776348, 0.0, 0.0, 0.0, 0.0, 0.0, 1.648337005592378E9, 0.0, 2022-03-26 18:23:25.592
67.0, -12.214513255283237, 0.17203539796173573, 24.07747591473162, 9.566664086654782, -0.01600000075995922, 0.4480000212788582, 0.9280000440776348, 0.0, 0.0, 0.0, 0.0, 0.0, 1.6483370055931048E9, 0.0, 2022-03-26 18:23:25.593
67.0, -25.73051169514656, -12.689480549655855, 17.936560187488794, 3.496806458570063, -0.01600000075995922, 0.4480000212788582, 0.9280000440776348, 0.0, 0.0, 0.0, 0.0, 0.0, 1.6483370055931048E9, 0.0, 2022-03-26 18:23:25.593
68.0, -25.599615196697414, -18.706979578360915, 20.356275458820164, -4.753412843681872, -0.01600000075995922, 0.4480000212788582, 0.9280000440776348, 0.0, 0.0, 0.0, 0.0, 0.0, 1.6483370056067932E9, 0.0, 2022-03-26 18:23:25.606
68.0, -23.37437472306192, -20.58440935611725, 17.061423597857356, -3.822177754715085, -0.01600000075995922, 0.4480000212788582, 0.9280000440776348, 0.0, 0.0, 0.0, 0.0, 0.0, 1.6483370056067932E9, 0.0, 2022-03-26 18:23:25.606
69.0, -15.28123121894896, -11.070103868842125, 38.36763364542276, 14.604309326969087, -0.01600000075995922, 0.4480000212788582, 0.9280000440776348, 0.0, 0.0, 0.0, 0.0, 0.0, 1.648337005622502E9, 0.0, 2022-03-26 18:23:25.622
69.0, -13.321523642167449, -12.629642150364816, 37.238183858804405, 19.215605972334743, -0.01600000075995922, 0.4480000212788582, 0.9280000440776348, 0.0, 0.0, 0.0, 0.0, 0.0, 1.648337005622502E9, 0.0, 2022-03-26 18:23:25.622
70.0, -14.241539031267166, -15.902054611593485, 34.32854169327766, 16.377021905966103, -0.01600000075995922, 0.4480000212788582, 0.9280000440776348, 0.0, 0.0, 0.0, 0.0, 0.0, 1.6483370056231136E9, 0.0, 2022-03-26 18:23:25.623
70.0, -13.242985743097961, -11.64978836197406, 36.34434776939452, 11.230919566936791, -0.01600000075995922, 0.4480000212788582, 0.9280000440776348, 0.0, 0.0, 0.0, 0.0, 0.0, 1.6483370056231136E9, 0.0, 2022-03-26 18:23:25.623
71.0, -23.987718315795064, -16.698653302155435, 42.26460939925164, 13.392581741325557, -0.01600000075995922, 0.4480000212788582, 0.9280000440776348, 0.0, 0.0, 0.0, 0.0, 0.0, 1.6483370056367595E9, 0.0, 2022-03-26 18:23:25.636
71.0, -24.89277410507202, -20.337575959041715, 28.872027657926083, 14.357475929893553, -0.01600000075995922, 0.4480000212788582, 0.9280000440776348, 0.0, 0.0, 0.0, 0.0, 0.0, 1.6483370056367595E9, 0.0, 2022-03-26 18:23:25.636
72.0, -21.897114240564406, -18.46762598119676, 27.563062673434615, 8.134282403625548, -0.01600000075995922, 0.4480000212788582, 0.9280000440776348, 0.0, 0.0, 0.0, 0.0, 0.0, 1.6483370056525152E9, 0.0, 2022-03-26 18:23:25.652
72.0, -21.36978834681213, -22.824609429575503, 28.22128506563604, 4.480400146916509, -0.01600000075995922, 0.4480000212788582, 0.9280000440776348, 0.0, 0.0, 0.0, 0.0, 0.0, 1.6483370056525152E9, 0.0, 2022-03-26 18:23:25.652
73.0, -19.802770265378058, -13.934867234900594, 31.130927231162786, 4.8095113430172205, -0.01600000075995922, 0.4480000212788582, 0.9280000440776348, 0.0, 0.0, 0.0, 0.0, 0.0, 1.6483370056532075E9, 0.0, 2022-03-26 18:23:25.653
73.0, -19.76911116577685, -21.179053449071944, 24.91895340476185, 6.301731425337493, -0.01600000075995922, 0.4480000212788582, 0.9280000440776348, 0.0, 0.0, 0.0, 0.0, 0.0, 1.6483370056532075E9, 0.0, 2022-03-26 18:23:25.653
74.0, -29.676106148399413, -25.068549402989447, 12.696960349567235, 0.6283031925559044, -0.01600000075995922, 0.4480000212788582, 0.9280000440776348, 0.0, 0.0, 0.0, 0.0, 0.0, 1.648337005666813E9, 0.0, 2022-03-26 18:23:25.666
74.0, -13.067210445180535, -21.021977650932968, 24.256991112604737, 19.514797968789935, -0.01600000075995922, 0.4480000212788582, 0.9280000440776348, 0.0, 0.0, 0.0, 0.0, 0.0, 1.648337005666813E9, 0.0, 2022-03-26 18:23:25.666
75.0, -14.847402824088931, -15.999292010441422, 28.378360863775015, 18.14599458500743, -0.01600000075995922, 0.4480000212788582, 0.9280000440776348, 0.0, 0.0, 0.0, 0.0, 0.0, 1.6483370056821277E9, 0.0, 2022-03-26 18:23:25.682
75.0, -14.87732202373445, -9.933174282312393, 31.089788331650198, 2.01954597607255, -0.01600000075995922, 0.4480000212788582, 0.9280000440776348, 0.0, 0.0, 0.0, 0.0, 0.0, 1.6483370056821277E9, 0.0, 2022-03-26 18:23:25.682
76.0, -13.912427835166454, -10.737252772785723, 27.495744474232197, 13.938607134856284, -0.01600000075995922, 0.4480000212788582, 0.9280000440776348, 0.0, 0.0, 0.0, 0.0, 0.0, 1.648337005697395E9, 0.0, 2022-03-26 18:23:25.697
76.0, -15.782377813011408, -4.106410151347518, 36.030196173116565, 18.665840678848326, -0.01600000075995922, 0.4480000212788582, 0.9280000440776348, 0.0, 0.0, 0.0, 0.0, 0.0, 1.648337005697395E9, 0.0, 2022-03-26 18:23:25.697
77.0, -13.976006134413183, -3.0891573633998632, 31.964924921281636, 11.836783359758556, -0.01600000075995922, 0.4480000212788582, 0.9280000440776348, 0.0, 0.0, 0.0, 0.0, 0.0, 1.6483370056981385E9, 0.0, 2022-03-26 18:23:25.698
77.0, -14.727726025506854, -5.392935736104846, 34.448218491859734, 9.944393982179463, -0.01600000075995922, 0.4480000212788582, 0.9280000440776348, 0.0, 0.0, 0.0, 0.0, 0.0, 1.6483370056981385E9, 0.0, 2022-03-26 18:23:25.698
78.0, -10.804570971988142, -3.8820161540061235, 34.51553669106215, 20.625548255629838, -0.01600000075995922, 0.4480000212788582, 0.9280000440776348, 0.0, 0.0, 0.0, 0.0, 0.0, 1.6483370057124033E9, 0.0, 2022-03-26 18:23:25.712
78.0, -16.12270870897919, -0.6918814918026328, 30.63352053705603, 7.65183530934155, -0.01600000075995922, 0.4480000212788582, 0.9280000440776348, 0.0, 0.0, 0.0, 0.0, 0.0, 1.6483370057124033E9, 0.0, 2022-03-26 18:23:25.712
79.0, -14.619268926791847, -2.1205232748761773, 30.5699422378093, 3.7585994554683566, -0.01600000075995922, 0.4480000212788582, 0.9280000440776348, 0.0, 0.0, 0.0, 0.0, 0.0, 1.6483370057131152E9, 0.0, 2022-03-26 18:23:25.713
79.0, -16.07409000955522, -5.9763601291924715, 27.615421272814274, 18.774297777563334, -0.01600000075995922, 0.4480000212788582, 0.9280000440776348, 0.0, 0.0, 0.0, 0.0, 0.0, 1.6483370057131152E9, 0.0, 2022-03-26 18:23:25.713
80.0, -16.365802206099033, -7.621916109696031, 24.694559407420456, 14.155521332286298, -0.01600000075995922, 0.4480000212788582, 0.9280000440776348, 0.0, 0.0, 0.0, 0.0, 0.0, 1.6483370057266889E9, 0.0, 2022-03-26 18:23:25.726
80.0, -17.27459789533168, -10.292204678058624, 31.246864129789174, 2.861023466102779, -0.01600000075995922, 0.4480000212788582, 0.9280000440776348, 0.0, 0.0, 0.0, 0.0, 0.0, 1.6483370057266889E9, 0.0, 2022-03-26 18:23:25.726
81.0, -13.66933433804661, -5.64350903313607, 33.73389760032296, 10.348303177393973, -0.01600000075995922, 0.4480000212788582, 0.9280000440776348, 0.0, 0.0, 0.0, 0.0, 0.0, 1.648337005742388E9, 0.0, 2022-03-26 18:23:25.742
81.0, -14.566910327412188, -7.031011916697025, 25.891327393241227, 18.54242398031056, -0.01600000075995922, 0.4480000212788582, 0.9280000440776348, 0.0, 0.0, 0.0, 0.0, 0.0, 1.648337005742388E9, 0.0, 2022-03-26 18:23:25.742
82.0, -11.511412063613534, -7.173128115013242, 24.271950712427497, 7.087110416032374, -0.01600000075995922, 0.4480000212788582, 0.9280000440776348, 0.0, 0.0, 0.0, 0.0, 0.0, 1.648337005743124E9, 0.0, 2022-03-26 18:23:25.743
82.0, -8.972019993700087, -8.85234319511801, 21.186533248983324, 8.930881094187498, -0.01600000075995922, 0.4480000212788582, 0.9280000440776348, 0.0, 0.0, 0.0, 0.0, 0.0, 1.648337005743124E9, 0.0, 2022-03-26 18:23:25.743
83.0, -7.390042312443256, -6.694420920684934, 28.21006536576897, 13.115829144604504, -0.01600000075995922, 0.4480000212788582, 0.9280000440776348, 0.0, 0.0, 0.0, 0.0, 0.0, 1.6483370057568328E9, 0.0, 2022-03-26 18:23:25.756
83.0, -11.627348962239921, -1.7128741797059774, 17.592489391565323, 2.890942665748298, -0.01600000075995922, 0.4480000212788582, 0.9280000440776348, 0.0, 0.0, 0.0, 0.0, 0.0, 1.6483370057568328E9, 0.0, 2022-03-26 18:23:25.756
84.0, -6.110996527597308, 1.0135128879919648, 28.20632546581328, 7.973466705530882, -0.01600000075995922, 0.4480000212788582, 0.9280000440776348, 0.0, 0.0, 0.0, 0.0, 0.0, 1.6483370057724345E9, 0.0, 2022-03-26 18:23:25.772
84.0, -8.631689097732306, 0.160815698094666, 31.635813725180924, 19.006171574816108, -0.01600000075995922, 0.4480000212788582, 0.9280000440776348, 0.0, 0.0, 0.0, 0.0, 0.0, 1.6483370057724345E9, 0.0, 2022-03-26 18:23:25.772
85.0, -6.249372825957835, 4.977806841023266, 38.9061792390421, 29.107641355134547, -0.01600000075995922, 0.4480000212788582, 0.9280000440776348, 0.0, 0.0, 0.0, 0.0, 0.0, 1.6483370057731073E9, 0.0, 2022-03-26 18:23:25.773
85.0, -1.6567756803706288, 9.719999984838068, 38.25169674679637, 17.843062688596547, -0.01600000075995922, 0.4480000212788582, 0.9280000440776348, 0.0, 0.0, 0.0, 0.0, 0.0, 1.6483370057731073E9, 0.0, 2022-03-26 18:23:25.773
86.0, 2.1018237750977278, 12.349149653688073, 39.70277792960405, 17.67850709054619, -0.01600000075995922, 0.4480000212788582, 0.9280000440776348, 0.0, 0.0, 0.0, 0.0, 0.0, 1.6483370057867088E9, 0.0, 2022-03-26 18:23:25.786
86.0, -5.486433234997094, 11.051404369063675, 34.455698291771114, 25.438799498602748, -0.01600000075995922, 0.4480000212788582, 0.9280000440776348, 0.0, 0.0, 0.0, 0.0, 0.0, 1.6483370057867088E9, 0.0, 2022-03-26 18:23:25.786
87.0, 0.5310657937079668, 18.202093084342778, 34.051789096556604, 26.452312386594713, -0.01600000075995922, 0.4480000212788582, 0.9280000440776348, 0.0, 0.0, 0.0, 0.0, 0.0, 1.6483370058023808E9, 0.0, 2022-03-26 18:23:25.802
87.0, 3.0779376635327935, 13.65063483826816, 42.72087719384581, 20.47595225740224, -0.01600000075995922, 0.4480000212788582, 0.9280000440776348, 0.0, 0.0, 0.0, 0.0, 0.0, 1.6483370058023808E9, 0.0, 2022-03-26 18:23:25.802
88.0, 5.759445931762457, 13.145748344250023, 38.36389374546707, 22.626394731923938, -0.01600000075995922, 0.4480000212788582, 0.9280000440776348, 0.0, 0.0, 0.0, 0.0, 0.0, 1.6483370058030736E9, 0.0, 2022-03-26 18:23:25.803
88.0, 7.068410916253924, 16.42938050534576, 38.15071944799274, 23.198599425144494, -0.01600000075995922, 0.4480000212788582, 0.9280000440776348, 0.0, 0.0, 0.0, 0.0, 0.0, 1.6483370058030736E9, 0.0, 2022-03-26 18:23:25.803
89.0, 4.4878799468278885, 12.240692554973066, 31.542316226288676, 6.657021921128035, -0.01600000075995922, 0.4480000212788582, 0.9280000440776348, 0.0, 0.0, 0.0, 0.0, 0.0, 1.6483370058167248E9, 0.0, 2022-03-26 18:23:25.816
89.0, 7.808911107480526, 13.228026143275201, 42.477783696725965, 19.421300469897687, -0.01600000075995922, 0.4480000212788582, 0.9280000440776348, 0.0, 0.0, 0.0, 0.0, 0.0, 1.6483370058167248E9, 0.0, 2022-03-26 18:23:25.816
90.0, 11.526371663436294, 18.87527507636696, 43.5399152841419, 28.830888758413494, -0.01600000075995922, 0.4480000212788582, 0.9280000440776348, 0.0, 0.0, 0.0, 0.0, 0.0, 1.6483370058323545E9, 0.0, 2022-03-26 18:23:25.832
90.0, 1.8774297777563334, 15.546764115802944, 33.93959209788591, 18.011358186602592, -0.01600000075995922, 0.4480000212788582, 0.9280000440776348, 0.0, 0.0, 0.0, 0.0, 0.0, 1.6483370058323545E9, 0.0, 2022-03-26 18:23:25.832
91.0, 15.453266616910696, 26.770203882828355, 43.50625618454069, 18.96503267530352, -0.01600000075995922, 0.4480000212788582, 0.9280000440776348, 0.0, 0.0, 0.0, 0.0, 0.0, 1.6483370058330765E9, 0.0, 2022-03-26 18:23:25.833
91.0, 18.232012283988297, 21.878414740785956, 41.19125811196864, 20.90978065226227, -0.01600000075995922, 0.4480000212788582, 0.9280000440776348, 0.0, 0.0, 0.0, 0.0, 0.0, 1.6483370058330765E9, 0.0, 2022-03-26 18:23:25.833
92.0, 14.361215829849243, 19.896267764270306, 37.279322758316994, 21.77743744198233, -0.01600000075995922, 0.4480000212788582, 0.9280000440776348, 0.0, 0.0, 0.0, 0.0, 0.0, 1.64833700584677E9, 0.0, 2022-03-26 18:23:25.846
92.0, 13.639415138401091, 18.609742179512978, 31.650773325003684, 11.612389362417161, -0.01600000075995922, 0.4480000212788582, 0.9280000440776348, 0.0, 0.0, 0.0, 0.0, 0.0, 1.64833700584677E9, 0.0, 2022-03-26 18:23:25.846
93.0, 18.187133484520018, 21.590442444197834, 41.06410151347518, 25.943685992620885, -0.01600000075995922, 0.4480000212788582, 0.9280000440776348, 0.0, 0.0, 0.0, 0.0, 0.0, 1.6483370058623905E9, 0.0, 2022-03-26 18:23:25.862
93.0, 11.990119257941842, 15.744978813454509, 37.86648705136031, 21.37352824676782, -0.01600000075995922, 0.4480000212788582, 0.9280000440776348, 0.0, 0.0, 0.0, 0.0, 0.0, 1.6483370058623905E9, 0.0, 2022-03-26 18:23:25.862
94.0, 10.09025008045137, 13.983485934324563, 41.04166211374104, 19.900007664225996, -0.01600000075995922, 0.4480000212788582, 0.9280000440776348, 0.0, 0.0, 0.0, 0.0, 0.0, 1.6483370058631127E9, 0.0, 2022-03-26 18:23:25.863
94.0, 14.305117330513895, 12.88395534735173, 43.83162748068571, 24.99001150391996, -0.01600000075995922, 0.4480000212788582, 0.9280000440776348, 0.0, 0.0, 0.0, 0.0, 0.0, 1.6483370058631127E9, 0.0, 2022-03-26 18:23:25.863
95.0, 16.743532101623714, 19.469919169321656, 42.69843779411167, 29.855621346272528, -0.01600000075995922, 0.4480000212788582, 0.9280000440776348, 0.0, 0.0, 0.0, 0.0, 0.0, 1.6483370058768375E9, 0.0, 2022-03-26 18:23:25.876
95.0, 19.634474767372012, 26.15312039013952, 40.92198531515896, 21.912073840387166, -0.01600000075995922, 0.4480000212788582, 0.9280000440776348, 0.0, 0.0, 0.0, 0.0, 0.0, 1.6483370058768375E9, 0.0, 2022-03-26 18:23:25.876
96.0, 12.49126585200429, 11.474013064056635, 35.77588297612965, 22.016791039146483, -0.01600000075995922, 0.4480000212788582, 0.9280000440776348, 0.0, 0.0, 0.0, 0.0, 0.0, 1.6483370058924377E9, 0.0, 2022-03-26 18:23:25.892
96.0, 19.36520197056234, 16.780931101180613, 45.219130364246666, 31.553535926155746, -0.01600000075995922, 0.4480000212788582, 0.9280000440776348, 0.0, 0.0, 0.0, 0.0, 0.0, 1.6483370058924377E9, 0.0, 2022-03-26 18:23:25.892
97.0, 14.90350132342428, 17.76078488957137, 43.15096568875015, 30.435305839404464, -0.01600000075995922, 0.4480000212788582, 0.9280000440776348, 0.0, 0.0, 0.0, 0.0, 0.0, 1.6483370058931348E9, 0.0, 2022-03-26 18:23:25.893
97.0, 16.90434779971838, 11.474013064056635, 45.540761760436, 27.492004574276507, -0.01600000075995922, 0.4480000212788582, 0.9280000440776348, 0.0, 0.0, 0.0, 0.0, 0.0, 1.6483370058931348E9, 0.0, 2022-03-26 18:23:25.893
98.0, 15.898314711637795, 14.439753728918731, 38.28161594644189, 30.012697144411504, -0.01600000075995922, 0.4480000212788582, 0.9280000440776348, 0.0, 0.0, 0.0, 0.0, 0.0, 1.6483370059067323E9, 0.0, 2022-03-26 18:23:25.906
98.0, 13.66933433804661, 8.42973450012505, 40.16278562415391, 23.609988420270383, -0.01600000075995922, 0.4480000212788582, 0.9280000440776348, 0.0, 0.0, 0.0, 0.0, 0.0, 1.6483370059067323E9, 0.0, 2022-03-26 18:23:25.906
99.0, 10.348303177393973, 16.13766830880195, 40.091727524995804, 10.961646770127118, -0.01600000075995922, 0.4480000212788582, 0.9280000440776348, 0.0, 0.0, 0.0, 0.0, 0.0, 1.648337005922418E9, 0.0, 2022-03-26 18:23:25.922
99.0, 10.669934573583305, 15.434567117132246, 37.32794145774096, 17.947779887355864, -0.01600000075995922, 0.4480000212788582, 0.9280000440776348, 0.0, 0.0, 0.0, 0.0, 0.0, 1.648337005922418E9, 0.0, 2022-03-26 18:23:25.922
100.0, 14.387395129539073, 11.754505560733378, 38.1282800482586, 22.59273563232273, -0.01600000075995922, 0.4480000212788582, 0.9280000440776348, 0.0, 0.0, 0.0, 0.0, 0.0, 1.6483370059231348E9, 0.0, 2022-03-26 18:23:25.923
100.0, 8.620469397865236, 14.89228162355721, 41.17255861219019, 8.897221994586289, -0.01600000075995922, 0.4480000212788582, 0.9280000440776348, 0.0, 0.0, 0.0, 0.0, 0.0, 1.6483370059231348E9, 0.0, 2022-03-26 18:23:25.923
0.0, 632.721884353552, 39.839284277986735, 839.392495804932, 421.41753685707226, -0.01600000075995922, 0.4480000212788582, 0.9280000440776348, 0.0, 0.0, 0.0, 0.0, 0.0, 1.6483370059373477E9, 0.0, 2022-03-26 18:23:25.937
1.0, 628.8847469990142, 38.683655191678554, 836.4342349399813, 426.75437409384176, -0.01600000075995922, 0.4480000212788582, 0.9280000440776348, 0.0, 0.0, 0.0, 0.0, 0.0, 1.6483370059380507E9, 0.0, 2022-03-26 18:23:25.938
1.0, 632.7256242535077, 49.80985755985603, 844.0524111497216, 427.79032638156787, -0.01600000075995922, 0.4480000212788582, 0.9280000440776348, 0.0, 0.0, 0.0, 0.0, 0.0, 1.6483370059380507E9, 0.0, 2022-03-26 18:23:25.938
2.0, 632.7368439533748, 49.33489026548341, 847.5716570080258, 435.31874499237165, -0.01600000075995922, 0.4480000212788582, 0.9280000440776348, 0.0, 0.0, 0.0, 0.0, 0.0, 1.6483370059516678E9, 0.0, 2022-03-26 18:23:25.951
2.0, 627.9310725103132, 44.682454720605165, 844.9425073391758, 423.8522117282264, -0.01600000075995922, 0.4480000212788582, 0.9280000440776348, 0.0, 0.0, 0.0, 0.0, 0.0, 1.6483370059516678E9, 0.0, 2022-03-26 18:23:25.951
3.0, 633.2604299471714, 46.76557899592444, 840.1217762962915, 418.04788699699566, -0.01600000075995922, 0.4480000212788582, 0.9280000440776348, 0.0, 0.0, 0.0, 0.0, 0.0, 1.6483370059674027E9, 0.0, 2022-03-26 18:23:25.967
3.0, 627.0110571212135, 41.847610554192215, 837.2831922299229, 409.408718099352, -0.01600000075995922, 0.4480000212788582, 0.9280000440776348, 0.0, 0.0, 0.0, 0.0, 0.0, 1.6483370059674027E9, 0.0, 2022-03-26 18:23:25.967
4.0, 625.4814380393364, 37.778599402401596, 833.5694715739228, 416.4472098159604, -0.01600000075995922, 0.4480000212788582, 0.9280000440776348, 0.0, 0.0, 0.0, 0.0, 0.0, 1.6483370059680798E9, 0.0, 2022-03-26 18:23:25.968
4.0, 626.8577212230302, 39.495213482063264, 840.2152737951837, 417.4831621036865, -0.01600000075995922, 0.4480000212788582, 0.9280000440776348, 0.0, 0.0, 0.0, 0.0, 0.0, 1.6483370059680798E9, 0.0, 2022-03-26 18:23:25.968
5.0, 629.2288177949376, 39.34187758387998, 839.5159125034697, 415.5159747269936, -0.01600000075995922, 0.4480000212788582, 0.9280000440776348, 0.0, 0.0, 0.0, 0.0, 0.0, 1.6483370059817047E9, 0.0, 2022-03-26 18:23:25.981
5.0, 633.2566900472157, 41.892489353660494, 841.924408074934, 423.0630928375758, -0.01600000075995922, 0.4480000212788582, 0.9280000440776348, 0.0, 0.0, 0.0, 0.0, 0.0, 1.6483370059817047E9, 0.0, 2022-03-26 18:23:25.981
6.0, 631.6260936665349, 37.28867250820622, 840.3648697934113, 424.7423079176806, -0.01600000075995922, 0.4480000212788582, 0.9280000440776348, 0.0, 0.0, 0.0, 0.0, 0.0, 1.6483370059973838E9, 0.0, 2022-03-26 18:23:25.997
6.0, 626.7417843244039, 41.065971463453025, 826.897490052972, 414.5062017389573, -0.01600000075995922, 0.4480000212788582, 0.9280000440776348, 0.0, 0.0, 0.0, 0.0, 0.0, 1.6483370059973838E9, 0.0, 2022-03-26 18:23:25.997
7.0, 626.0573826325126, 35.56831852858886, 817.9067705594935, 393.9367519826628, -0.01600000075995922, 0.4480000212788582, 0.9280000440776348, 0.0, 0.0, 0.0, 0.0, 0.0, 1.6483370059981308E9, 0.0, 2022-03-26 18:23:25.998
7.0, 622.6091948733665, 34.45008844183758, 817.34578556614, 406.3494799355976, -0.01600000075995922, 0.4480000212788582, 0.9280000440776348, 0.0, 0.0, 0.0, 0.0, 0.0, 1.6483370059981308E9, 0.0, 2022-03-26 18:23:25.998
8.0, 629.5803683907725, 33.017706758808345, 801.3090945561416, 404.210257160943, -0.01600000075995922, 0.4480000212788582, 0.9280000440776348, 0.0, 0.0, 0.0, 0.0, 0.0, 1.6483370060116804E9, 0.0, 2022-03-26 18:23:26.011
8.0, 624.1425538551994, 29.827572096604854, 801.8065012502484, 395.4588912646286, -0.01600000075995922, 0.4480000212788582, 0.9280000440776348, 0.0, 0.0, 0.0, 0.0, 0.0, 1.6483370060116804E9, 0.0, 2022-03-26 18:23:26.011
9.0, 630.2759897825308, 34.07983834622428, 807.7641618796624, 399.00057652266696, -0.01600000075995922, 0.4480000212788582, 0.9280000440776348, 0.0, 0.0, 0.0, 0.0, 0.0, 1.648337006043698E9, 0.0, 2022-03-26 18:23:26.043
9.0, 630.9416919746436, 30.953281983267516, 808.2428690739907, 397.66169233853, -0.01600000075995922, 0.4480000212788582, 0.9280000440776348, 0.0, 0.0, 0.0, 0.0, 0.0, 1.648337006043698E9, 0.0, 2022-03-26 18:23:26.043
10.0, 626.1583599313162, 39.076344687025994, 813.860198807437, 400.82564770104364, -0.01600000075995922, 0.4480000212788582, 0.9280000440776348, 0.0, 0.0, 0.0, 0.0, 0.0, 1.6483370060444808E9, 0.0, 2022-03-26 18:23:26.044
10.0, 630.9828308741562, 43.32861093664542, 815.4459163886495, 407.2582756248303, -0.01600000075995922, 0.4480000212788582, 0.9280000440776348, 0.0, 0.0, 0.0, 0.0, 0.0, 1.6483370060444808E9, 0.0, 2022-03-26 18:23:26.044
11.0, 632.938798550982, 45.21352051431313, 813.6096255104057, 420.1048319726251, -0.01600000075995922, 0.4480000212788582, 0.9280000440776348, 0.0, 0.0, 0.0, 0.0, 0.0, 1.64833700604524E9, 0.0, 2022-03-26 18:23:26.045
11.0, 629.0455626971088, 36.90346281277016, 809.2863011616282, 406.730949731078, -0.01600000075995922, 0.4480000212788582, 0.9280000440776348, 0.0, 0.0, 0.0, 0.0, 0.0, 1.64833700604524E9, 0.0, 2022-03-26 18:23:26.045
12.0, 626.8352818232961, 30.463355089072138, 806.3168205968104, 402.23185008438304, -0.01600000075995922, 0.4480000212788582, 0.9280000440776348, 0.0, 0.0, 0.0, 0.0, 0.0, 1.648337006046052E9, 0.0, 2022-03-26 18:23:26.046
12.0, 628.9558050981723, 29.674236198421568, 812.2183827268891, 416.12557841977105, -0.01600000075995922, 0.4480000212788582, 0.9280000440776348, 0.0, 0.0, 0.0, 0.0, 0.0, 1.648337006046052E9, 0.0, 2022-03-26 18:23:26.046
13.0, 624.9167131460272, 35.029772934969515, 805.3968052077107, 401.40907209413126, -0.01600000075995922, 0.4480000212788582, 0.9280000440776348, 0.0, 0.0, 0.0, 0.0, 0.0, 1.648337006056703E9, 0.0, 2022-03-26 18:23:26.056
13.0, 632.7518035531975, 39.846764077898115, 820.1170514333062, 412.2473021657206, -0.01600000075995922, 0.4480000212788582, 0.9280000440776348, 0.0, 0.0, 0.0, 0.0, 0.0, 1.648337006056703E9, 0.0, 2022-03-26 18:23:26.056
14.0, 631.0426692734472, 41.462400858756155, 819.1072784452699, 418.09276579646394, -0.01600000075995922, 0.4480000212788582, 0.9280000440776348, 0.0, 0.0, 0.0, 0.0, 0.0, 1.6483370060717063E9, 0.0, 2022-03-26 18:23:26.071
14.0, 632.5722883553244, 41.507279658224434, 817.0428536697291, 419.8579985755496, -0.01600000075995922, 0.4480000212788582, 0.9280000440776348, 0.0, 0.0, 0.0, 0.0, 0.0, 1.6483370060717063E9, 0.0, 2022-03-26 18:23:26.071
15.0, 632.5461090556346, 41.76533275516704, 818.9277632473968, 416.7351821125485, -0.01600000075995922, 0.4480000212788582, 0.9280000440776348, 0.0, 0.0, 0.0, 0.0, 0.0, 1.6483370060873504E9, 0.0, 2022-03-26 18:23:26.087
15.0, 628.7463707006536, 41.66061555640772, 817.0540733695962, 410.2202763897367, -0.01600000075995922, 0.4480000212788582, 0.9280000440776348, 0.0, 0.0, 0.0, 0.0, 0.0, 1.6483370060873504E9, 0.0, 2022-03-26 18:23:26.087
16.0, 628.5107570034452, 41.051011863630265, 810.3185135493986, 419.2558746826835, -0.01600000075995922, 0.4480000212788582, 0.9280000440776348, 0.0, 0.0, 0.0, 0.0, 0.0, 1.6483370060880835E9, 0.0, 2022-03-26 18:23:26.088
16.0, 628.910926298704, 40.41522887116298, 817.2672476670705, 417.01193470926955, -0.01600000075995922, 0.4480000212788582, 0.9280000440776348, 0.0, 0.0, 0.0, 0.0, 0.0, 1.6483370060880835E9, 0.0, 2022-03-26 18:23:26.088
17.0, 627.0521960207261, 34.80163903767243, 815.8311260840856, 407.75194241898134, -0.01600000075995922, 0.4480000212788582, 0.9280000440776348, 0.0, 0.0, 0.0, 0.0, 0.0, 1.6483370061018324E9, 0.0, 2022-03-26 18:23:26.101
17.0, 627.6991987130605, 38.272266196552664, 819.986154934857, 420.6583371660672, -0.01600000075995922, 0.4480000212788582, 0.9280000440776348, 0.0, 0.0, 0.0, 0.0, 0.0, 1.6483370061018324E9, 0.0, 2022-03-26 18:23:26.101
18.0, 630.6574595780112, 42.247779849451035, 822.7798602017574, 422.2178754475899, -0.01600000075995922, 0.4480000212788582, 0.9280000440776348, 0.0, 0.0, 0.0, 0.0, 0.0, 1.6483370061174111E9, 0.0, 2022-03-26 18:23:26.117
18.0, 627.6169209140353, 33.99382064724341, 813.1346582160331, 413.4702494512312, -0.01600000075995922, 0.4480000212788582, 0.9280000440776348, 0.0, 0.0, 0.0, 0.0, 0.0, 1.6483370061174111E9, 0.0, 2022-03-26 18:23:26.117
19.0, 629.453211792279, 37.67762210359797, 819.4625689410605, 413.15609785495326, -0.01600000075995922, 0.4480000212788582, 0.9280000440776348, 0.0, 0.0, 0.0, 0.0, 0.0, 1.6483370061181147E9, 0.0, 2022-03-26 18:23:26.118
19.0, 631.6747123659588, 38.09649089863524, 821.3923573181964, 415.9236238221638, -0.01600000075995922, 0.4480000212788582, 0.9280000440776348, 0.0, 0.0, 0.0, 0.0, 0.0, 1.6483370061181147E9, 0.0, 2022-03-26 18:23:26.118
20.0, 632.8340813522227, 39.843024177942425, 818.6435308507644, 414.61091893771663, -0.01600000075995922, 0.4480000212788582, 0.9280000440776348, 0.0, 0.0, 0.0, 0.0, 0.0, 1.6483370061317344E9, 0.0, 2022-03-26 18:23:26.131
20.0, 633.4549047448672, 41.54467865778133, 814.0958125046454, 424.3009997229092, -0.01600000075995922, 0.4480000212788582, 0.9280000440776348, 0.0, 0.0, 0.0, 0.0, 0.0, 1.6483370061317344E9, 0.0, 2022-03-26 18:23:26.131
21.0, 633.5446623438038, 41.29410536075011, 825.3155123717152, 426.08493200177327, -0.01600000075995922, 0.4480000212788582, 0.9280000440776348, 0.0, 0.0, 0.0, 0.0, 0.0, 1.648337006147381E9, 0.0, 2022-03-26 18:23:26.147
21.0, 633.7914957408793, 39.2222007852979, 812.3978979247622, 421.1894029597752, -0.01600000075995922, 0.4480000212788582, 0.9280000440776348, 0.0, 0.0, 0.0, 0.0, 0.0, 1.648337006147381E9, 0.0, 2022-03-26 18:23:26.147
22.0, 629.0867015966214, 38.612597092520446, 818.9801218467765, 426.4103032979183, -0.01600000075995922, 0.4480000212788582, 0.9280000440776348, 0.0, 0.0, 0.0, 0.0, 0.0, 1.6483370061481113E9, 0.0, 2022-03-26 18:23:26.148
22.0, 628.7089717010967, 41.16320886230096, 830.0838848152198, 422.2664941470139, -0.01600000075995922, 0.4480000212788582, 0.9280000440776348, 0.0, 0.0, 0.0, 0.0, 0.0, 1.6483370061481113E9, 0.0, 2022-03-26 18:23:26.148
23.0, 635.4295719214715, 49.862216159235686, 836.3631768408231, 424.9554822151549, -0.01600000075995922, 0.4480000212788582, 0.9280000440776348, 0.0, 0.0, 0.0, 0.0, 0.0, 1.6483370061617568E9, 0.0, 2022-03-26 18:23:26.161
23.0, 635.8372210166417, 54.21171980770305, 838.7791522121988, 428.83375846920535, -0.01600000075995922, 0.4480000212788582, 0.9280000440776348, 0.0, 0.0, 0.0, 0.0, 0.0, 1.6483370061617568E9, 0.0, 2022-03-26 18:23:26.161
24.0, 631.9701644624583, 48.02592528099194, 836.0864242441021, 431.0402994430624, -0.01600000075995922, 0.4480000212788582, 0.9280000440776348, 0.0, 0.0, 0.0, 0.0, 0.0, 1.648337006177408E9, 0.0, 2022-03-26 18:23:26.177
24.0, 629.9169593867846, 44.42440162366256, 828.0680787391029, 423.145370636601, -0.01600000075995922, 0.4480000212788582, 0.9280000440776348, 0.0, 0.0, 0.0, 0.0, 0.0, 1.648337006177408E9, 0.0, 2022-03-26 18:23:26.177
25.0, 626.0611225324683, 42.09444395126775, 821.2539810198359, 419.05018018512055, -0.01600000075995922, 0.4480000212788582, 0.9280000440776348, 0.0, 0.0, 0.0, 0.0, 0.0, 1.648337006178114E9, 0.0, 2022-03-26 18:23:26.178
25.0, 622.9495257693343, 36.39109651884064, 811.0103950412013, 421.3576984577812, -0.01600000075995922, 0.4480000212788582, 0.9280000440776348, 0.0, 0.0, 0.0, 0.0, 0.0, 1.648337006178114E9, 0.0, 2022-03-26 18:23:26.178
26.0, 630.1263937843032, 45.60247010970488, 839.1082634082995, 433.8826234093867, -0.01600000075995922, 0.4480000212788582, 0.9280000440776348, 0.0, 0.0, 0.0, 0.0, 0.0, 1.6483370061918468E9, 0.0, 2022-03-26 18:23:26.191
26.0, 623.5030309627764, 38.84821078972891, 838.3228844176047, 430.6737892474048, -0.01600000075995922, 0.4480000212788582, 0.9280000440776348, 0.0, 0.0, 0.0, 0.0, 0.0, 1.6483370061918468E9, 0.0, 2022-03-26 18:23:26.191
27.0, 621.1281944909133, 36.05824542278424, 832.9673476810567, 424.8881640159525, -0.01600000075995922, 0.4480000212788582, 0.9280000440776348, 0.0, 0.0, 0.0, 0.0, 0.0, 1.6483370062073863E9, 0.0, 2022-03-26 18:23:26.207
27.0, 625.5524961384945, 40.250673273112625, 849.9053545803763, 430.4119962505065, -0.01600000075995922, 0.4480000212788582, 0.9280000440776348, 0.0, 0.0, 0.0, 0.0, 0.0, 1.6483370062073863E9, 0.0, 2022-03-26 18:23:26.207
28.0, 626.0199836329557, 34.54358594072983, 853.4171206387691, 434.86621709773317, -0.01600000075995922, 0.4480000212788582, 0.9280000440776348, 0.0, 0.0, 0.0, 0.0, 0.0, 1.6483370062081497E9, 0.0, 2022-03-26 18:23:26.208
28.0, 622.6540736728348, 29.468541700858623, 851.7753045582213, 433.9574214085005, -0.01600000075995922, 0.4480000212788582, 0.9280000440776348, 0.0, 0.0, 0.0, 0.0, 0.0, 1.6483370062081497E9, 0.0, 2022-03-26 18:23:26.208
29.0, 623.3048162651248, 32.4043631660752, 856.1173284067772, 432.58113822480664, -0.01600000075995922, 0.4480000212788582, 0.9280000440776348, 0.0, 0.0, 0.0, 0.0, 0.0, 1.6483370062217245E9, 0.0, 2022-03-26 18:23:26.221
29.0, 620.6046084971167, 32.93168905982748, 852.8224765458144, 435.1055706948973, -0.01600000075995922, 0.4480000212788582, 0.9280000440776348, 0.0, 0.0, 0.0, 0.0, 0.0, 1.6483370062217245E9, 0.0, 2022-03-26 18:23:26.221
30.0, 615.5108647574671, 30.059445893857628, 852.8710952452384, 422.68910284200683, -0.01600000075995922, 0.4480000212788582, 0.9280000440776348, 0.0, 0.0, 0.0, 0.0, 0.0, 1.6483370062372112E9, 0.0, 2022-03-26 18:23:26.237
30.0, 622.2090255781077, 32.82697186106816, 857.7217454877682, 428.1830158769153, -0.01600000075995922, 0.4480000212788582, 0.9280000440776348, 0.0, 0.0, 0.0, 0.0, 0.0, 1.6483370062372112E9, 0.0, 2022-03-26 18:23:26.237
31.0, 624.0565361562185, 30.119284293148667, 849.0002987910993, 436.91194237349555, -0.01600000075995922, 0.4480000212788582, 0.9280000440776348, 0.0, 0.0, 0.0, 0.0, 0.0, 1.6483370062523758E9, 0.0, 2022-03-26 18:23:26.252
31.0, 624.9877712451853, 27.09744512895122, 850.4700794736855, 424.3383987224661, -0.01600000075995922, 0.4480000212788582, 0.9280000440776348, 0.0, 0.0, 0.0, 0.0, 0.0, 1.6483370062523758E9, 0.0, 2022-03-26 18:23:26.252
32.0, 621.8051163828932, 26.31954593816772, 851.1657008654438, 428.2914729756303, -0.01600000075995922, 0.4480000212788582, 0.9280000440776348, 0.0, 0.0, 0.0, 0.0, 0.0, 1.6483370062531445E9, 0.0, 2022-03-26 18:23:26.253
32.0, 618.3531887237914, 24.228941862937063, 839.2279402068816, 422.7788604409434, -0.01600000075995922, 0.4480000212788582, 0.9280000440776348, 0.0, 0.0, 0.0, 0.0, 0.0, 1.6483370062531445E9, 0.0, 2022-03-26 18:23:26.253
33.0, 618.2933503245004, 25.343432049732655, 836.9241618341766, 420.5797992669977, -0.01600000075995922, 0.4480000212788582, 0.9280000440776348, 0.0, 0.0, 0.0, 0.0, 0.0, 1.6483370062673945E9, 0.0, 2022-03-26 18:23:26.267
33.0, 613.1696873852052, 20.982708701398224, 833.0945042795502, 396.648179450538, -0.01600000075995922, 0.4480000212788582, 0.9280000440776348, 0.0, 0.0, 0.0, 0.0, 0.0, 1.6483370062673945E9, 0.0, 2022-03-26 18:23:26.267
34.0, 621.7901567830704, 26.278407038655132, 842.0440848735161, 423.0743125374429, -0.01600000075995922, 0.4480000212788582, 0.9280000440776348, 0.0, 0.0, 0.0, 0.0, 0.0, 1.6483370062681324E9, 0.0, 2022-03-26 18:23:26.268
34.0, 615.8773749531247, 24.827325855847448, 835.8358509470709, 418.9492028863169, -0.01600000075995922, 0.4480000212788582, 0.9280000440776348, 0.0, 0.0, 0.0, 0.0, 0.0, 1.6483370062681324E9, 0.0, 2022-03-26 18:23:26.268
35.0, 617.9679790283553, 28.458768712822348, 841.5653776791878, 420.4414229686372, -0.01600000075995922, 0.4480000212788582, 0.9280000440776348, 0.0, 0.0, 0.0, 0.0, 0.0, 1.6483370062817526E9, 0.0, 2022-03-26 18:23:26.281
35.0, 616.6403145440854, 30.7363677858375, 840.1629151958041, 420.65085736615583, -0.01600000075995922, 0.4480000212788582, 0.9280000440776348, 0.0, 0.0, 0.0, 0.0, 0.0, 1.6483370062817526E9, 0.0, 2022-03-26 18:23:26.281
36.0, 609.4036081298254, 23.623078070115298, 832.204408090096, 420.3030466702767, -0.01600000075995922, 0.4480000212788582, 0.9280000440776348, 0.0, 0.0, 0.0, 0.0, 0.0, 1.6483370062973917E9, 0.0, 2022-03-26 18:23:26.297
36.0, 615.28273086017, 23.55949977086857, 842.2348197712563, 414.56604013824835, -0.01600000075995922, 0.4480000212788582, 0.9280000440776348, 0.0, 0.0, 0.0, 0.0, 0.0, 1.6483370062973917E9, 0.0, 2022-03-26 18:23:26.297
37.0, 618.2821306246333, 30.104324693325907, 843.0239386619069, 417.2849474060349, -0.01600000075995922, 0.4480000212788582, 0.9280000440776348, 0.0, 0.0, 0.0, 0.0, 0.0, 1.6483370062981124E9, 0.0, 2022-03-26 18:23:26.298
37.0, 614.7142660669051, 27.333058826159686, 840.1329959961586, 420.08239257289097, -0.01600000075995922, 0.4480000212788582, 0.9280000440776348, 0.0, 0.0, 0.0, 0.0, 0.0, 1.6483370062981124E9, 0.0, 2022-03-26 18:23:26.298
38.0, 616.090549250599, 35.26538663217798, 843.9215146512724, 408.23812941322103, -0.01600000075995922, 0.4480000212788582, 0.9280000440776348, 0.0, 0.0, 0.0, 0.0, 0.0, 1.6483370063117998E9, 0.0, 2022-03-26 18:23:26.311
38.0, 614.9423999642022, 35.88247012486681, 838.113450020086, 407.1797377257608, -0.01600000075995922, 0.4480000212788582, 0.9280000440776348, 0.0, 0.0, 0.0, 0.0, 0.0, 1.6483370063117998E9, 0.0, 2022-03-26 18:23:26.311
39.0, 620.7579443953, 31.409549777861685, 841.1128497845493, 430.924362544436, -0.01600000075995922, 0.4480000212788582, 0.9280000440776348, 0.0, 0.0, 0.0, 0.0, 0.0, 1.6483370063438108E9, 0.0, 2022-03-26 18:23:26.343
39.0, 615.9072941527702, 28.455028812866658, 841.6551352781244, 428.4373290739022, -0.01600000075995922, 0.4480000212788582, 0.9280000440776348, 0.0, 0.0, 0.0, 0.0, 0.0, 1.6483370063438108E9, 0.0, 2022-03-26 18:23:26.343
40.0, 615.2528116605245, 24.831065755803138, 841.3035846822895, 418.7696876884438, -0.01600000075995922, 0.4480000212788582, 0.9280000440776348, 0.0, 0.0, 0.0, 0.0, 0.0, 1.6483370063444872E9, 0.0, 2022-03-26 18:23:26.344
40.0, 619.2657243129797, 32.31086566718295, 834.9008759581484, 421.1744433599524, -0.01600000075995922, 0.4480000212788582, 0.9280000440776348, 0.0, 0.0, 0.0, 0.0, 0.0, 1.6483370063444872E9, 0.0, 2022-03-26 18:23:26.344
41.0, 617.6164284325205, 33.855444348882884, 842.9416608628817, 425.5239470084198, -0.01600000075995922, 0.4480000212788582, 0.9280000440776348, 0.0, 0.0, 0.0, 0.0, 0.0, 1.6483370063452318E9, 0.0, 2022-03-26 18:23:26.345
41.0, 622.51943727443, 34.67448243917897, 834.025739368517, 416.6342048137449, -0.01600000075995922, 0.4480000212788582, 0.9280000440776348, 0.0, 0.0, 0.0, 0.0, 0.0, 1.6483370063452318E9, 0.0, 2022-03-26 18:23:26.345
42.0, 625.5637158383615, 44.96294721728191, 837.0700179324485, 420.7368750651367, -0.01600000075995922, 0.4480000212788582, 0.9280000440776348, 0.0, 0.0, 0.0, 0.0, 0.0, 1.6483370063460064E9, 0.0, 2022-03-26 18:23:26.346
42.0, 628.6491333018057, 40.47132737049833, 847.762391905766, 430.5241932491772, -0.01600000075995922, 0.4480000212788582, 0.9280000440776348, 0.0, 0.0, 0.0, 0.0, 0.0, 1.6483370063460064E9, 0.0, 2022-03-26 18:23:26.346
43.0, 628.1218074080534, 37.61778370430693, 842.2236000713892, 424.1888027242385, -0.01600000075995922, 0.4480000212788582, 0.9280000440776348, 0.0, 0.0, 0.0, 0.0, 0.0, 1.648337006356799E9, 0.0, 2022-03-26 18:23:26.356
43.0, 627.8001760118641, 41.828911054413766, 847.3435231107287, 418.5041547915898, -0.01600000075995922, 0.4480000212788582, 0.9280000440776348, 0.0, 0.0, 0.0, 0.0, 0.0, 1.648337006356799E9, 0.0, 2022-03-26 18:23:26.356
44.0, 625.4402991398238, 44.237406625878066, 845.0098255383782, 416.3985911165364, -0.01600000075995922, 0.4480000212788582, 0.9280000440776348, 0.0, 0.0, 0.0, 0.0, 0.0, 1.6483370063716867E9, 0.0, 2022-03-26 18:23:26.371
44.0, 623.9854780570604, 46.82167749525979, 845.772765129339, 428.24285427620634, -0.01600000075995922, 0.4480000212788582, 0.9280000440776348, 0.0, 0.0, 0.0, 0.0, 0.0, 1.6483370063716867E9, 0.0, 2022-03-26 18:23:26.371
45.0, 622.6540736728348, 49.17781446734443, 850.6159355719574, 428.72904127044603, -0.01600000075995922, 0.4480000212788582, 0.9280000440776348, 0.0, 0.0, 0.0, 0.0, 0.0, 1.6483370063874583E9, 0.0, 2022-03-26 18:23:26.387
45.0, 623.8471017586999, 44.41318192379549, 846.5731037198566, 425.6361440070905, -0.01600000075995922, 0.4480000212788582, 0.9280000440776348, 0.0, 0.0, 0.0, 0.0, 0.0, 1.6483370063874583E9, 0.0, 2022-03-26 18:23:26.387
46.0, 630.3769670813344, 42.02338585210964, 841.8907489753328, 425.3219924108125, -0.01600000075995922, 0.4480000212788582, 0.9280000440776348, 0.0, 0.0, 0.0, 0.0, 0.0, 1.6483370063882065E9, 0.0, 2022-03-26 18:23:26.388
46.0, 625.6459936373867, 46.0400384045206, 835.0168128567748, 423.23512823553756, -0.01600000075995922, 0.4480000212788582, 0.9280000440776348, 0.0, 0.0, 0.0, 0.0, 0.0, 1.6483370063882065E9, 0.0, 2022-03-26 18:23:26.388
47.0, 628.5219767033122, 42.56193144572899, 838.330364217516, 427.42007628595456, -0.01600000075995922, 0.4480000212788582, 0.9280000440776348, 0.0, 0.0, 0.0, 0.0, 0.0, 1.6483370064016905E9, 0.0, 2022-03-26 18:23:26.401
47.0, 630.0104568856768, 41.855090354103595, 845.3725958340801, 427.9922809791751, -0.01600000075995922, 0.4480000212788582, 0.9280000440776348, 0.0, 0.0, 0.0, 0.0, 0.0, 1.6483370064016905E9, 0.0, 2022-03-26 18:23:26.401
48.0, 635.5417689201422, 51.152481643948704, 846.6329421191476, 427.5509727844037, -0.01600000075995922, 0.4480000212788582, 0.9280000440776348, 0.0, 0.0, 0.0, 0.0, 0.0, 1.648337006417434E9, 0.0, 2022-03-26 18:23:26.417
48.0, 636.1364130130969, 44.256106125656515, 843.6559817544185, 427.98854107921943, -0.01600000075995922, 0.4480000212788582, 0.9280000440776348, 0.0, 0.0, 0.0, 0.0, 0.0, 1.648337006417434E9, 0.0, 2022-03-26 18:23:26.417
49.0, 635.567948219832, 40.95751436473802, 838.6033769142814, 426.3990835980512, -0.01600000075995922, 0.4480000212788582, 0.9280000440776348, 0.0, 0.0, 0.0, 0.0, 0.0, 1.6483370064181385E9, 0.0, 2022-03-26 18:23:26.418
49.0, 636.521622708533, 46.03255860460922, 847.8820687043481, 429.2152282646857, -0.01600000075995922, 0.4480000212788582, 0.9280000440776348, 0.0, 0.0, 0.0, 0.0, 0.0, 1.6483370064181385E9, 0.0, 2022-03-26 18:23:26.418
50.0, 627.6431002137251, 39.872943377587944, 845.2865781350993, 428.83001856924966, -0.01600000075995922, 0.4480000212788582, 0.9280000440776348, 0.0, 0.0, 0.0, 0.0, 0.0, 1.6483370064317956E9, 0.0, 2022-03-26 18:23:26.431
50.0, 627.8188755116425, 38.05161209916696, 843.6522418544628, 430.5653321486898, -0.01600000075995922, 0.4480000212788582, 0.9280000440776348, 0.0, 0.0, 0.0, 0.0, 0.0, 1.6483370064317956E9, 0.0, 2022-03-26 18:23:26.431
51.0, 627.2055319189094, 34.76797993807122, 838.2817455180921, 425.01158071449026, -0.01600000075995922, 0.4640000220388174, 0.9280000440776348, 0.0, 0.0, 0.0, 0.0, 0.0, 1.6483370064474041E9, 0.0, 2022-03-26 18:23:26.447
51.0, 622.5381367742084, 27.654690222349018, 830.6224304088391, 420.8827311634086, -0.01600000075995922, 0.4640000220388174, 0.9280000440776348, 0.0, 0.0, 0.0, 0.0, 0.0, 1.6483370064474041E9, 0.0, 2022-03-26 18:23:26.447
52.0, 623.3422152646817, 33.06258555827662, 842.287178370636, 421.83266575215384, 0.0, 0.4640000220388174, 0.9280000440776348, 0.0, 0.0, 0.0, 0.0, 0.0, 1.6483370064483137E9, 0.0, 2022-03-26 18:23:26.448
52.0, 632.1721190600656, 33.9227625480853, 842.3133576703258, 425.0826388136484, 0.0, 0.4640000220388174, 0.9280000440776348, 0.0, 0.0, 0.0, 0.0, 0.0, 1.6483370064483137E9, 0.0, 2022-03-26 18:23:26.448
53.0, 625.4141198401339, 28.148357016500086, 834.5231460626237, 425.23223481187597, 0.0, 0.4640000220388174, 0.9280000440776348, 0.0, 0.0, 0.0, 0.0, 0.0, 1.6483370064616475E9, 0.0, 2022-03-26 18:23:26.461
53.0, 616.632834744174, 26.102631740737706, 830.1063242149539, 415.42621712805703, 0.0, 0.4640000220388174, 0.9280000440776348, 0.0, 0.0, 0.0, 0.0, 0.0, 1.6483370064616475E9, 0.0, 2022-03-26 18:23:26.461
54.0, 624.0453164563514, 27.407856825273484, 828.3149121361785, 422.97707513859496, 0.0, 0.4640000220388174, 0.9280000440776348, 0.0, 0.0, 0.0, 0.0, 0.0, 1.6483370064773793E9, 0.0, 2022-03-26 18:23:26.477
54.0, 624.8194757471792, 27.374197725672275, 832.0809913915582, 428.4074098742567, 0.0, 0.4640000220388174, 0.9280000440776348, 0.0, 0.0, 0.0, 0.0, 0.0, 1.6483370064773793E9, 0.0, 2022-03-26 18:23:26.477
55.0, 620.3315958003514, 18.73876872798428, 831.5087866983376, 426.8067326932214, 0.0, 0.4640000220388174, 0.9280000440776348, 0.0, 0.0, 0.0, 0.0, 0.0, 1.6483370064780917E9, 0.0, 2022-03-26 18:23:26.478
55.0, 622.2389447777532, 30.74384758574888, 827.3687174473889, 416.9259170102887, 0.0, 0.4640000220388174, 0.9280000440776348, 0.0, 0.0, 0.0, 0.0, 0.0, 1.6483370064780917E9, 0.0, 2022-03-26 18:23:26.478
56.0, 628.86230759928, 30.0332665941678, 834.8634769585915, 416.4771290156059, 0.0, 0.4640000220388174, 0.9280000440776348, 0.0, 0.0, 0.0, 0.0, 0.0, 1.6483370064917295E9, 0.0, 2022-03-26 18:23:26.491
56.0, 628.9632848980837, 36.237760620657355, 836.7521264362149, 420.39280426921323, 0.0, 0.4640000220388174, 0.9280000440776348, 0.0, 0.0, 0.0, 0.0, 0.0, 1.6483370064917295E9, 0.0, 2022-03-26 18:23:26.491
57.0, 627.040976320859, 29.760253897402436, 828.7113415314816, 421.42875655693933, 0.0, 0.4640000220388174, 0.9280000440776348, 0.0, 0.0, 0.0, 0.0, 0.0, 1.6483370065074315E9, 0.0, 2022-03-26 18:23:26.507
57.0, 628.7014919011854, 32.88307036040351, 837.3766897288151, 428.94221556792036, 0.0, 0.4640000220388174, 0.9280000440776348, 0.0, 0.0, 0.0, 0.0, 0.0, 1.6483370065074315E9, 0.0, 2022-03-26 18:23:26.507
58.0, 622.7812302713282, 24.834805655758828, 825.9849544637837, 429.45832176180556, 0.0, 0.4640000220388174, 0.9280000440776348, 0.0, 0.0, 0.0, 0.0, 0.0, 1.6483370065081043E9, 0.0, 2022-03-26 18:23:26.508
58.0, 627.2242314186879, 27.92396301915869, 829.9230691171251, 419.1474175839685, 0.0, 0.4640000220388174, 0.9280000440776348, 0.0, 0.0, 0.0, 0.0, 0.0, 1.6483370065081043E9, 0.0, 2022-03-26 18:23:26.508
59.0, 627.8749740109779, 31.016860282514244, 834.1379363671876, 413.2159362542443, 0.0, 0.4640000220388174, 0.9280000440776348, 0.0, 0.0, 0.0, 0.0, 0.0, 1.6483370065217073E9, 0.0, 2022-03-26 18:23:26.521
59.0, 625.1672864430584, 31.56662557600066, 834.953234557528, 427.94740217970684, 0.0, 0.4640000220388174, 0.9280000440776348, 0.0, 0.0, 0.0, 0.0, 0.0, 1.6483370065217073E9, 0.0, 2022-03-26 18:23:26.521
60.0, 627.4299259162508, 25.17139665177092, 830.9515416049398, 421.50355455605313, 0.0, 0.4640000220388174, 0.9280000440776348, 0.0, 0.0, 0.0, 0.0, 0.0, 1.6483370065373895E9, 0.0, 2022-03-26 18:23:26.537
60.0, 621.4236465874128, 28.888857207726687, 827.0171668515541, 412.83072655880824, 0.0, 0.4640000220388174, 0.9280000440776348, 0.0, 0.0, 0.0, 0.0, 0.0, 1.6483370065373895E9, 0.0, 2022-03-26 18:23:26.537
61.0, 630.0179366855882, 29.57699879957363, 829.8707105177455, 426.256967399735, 0.0, 0.4480000212788582, 0.9280000440776348, 0.0, 0.0, 0.0, 0.0, 0.0, 1.648337006538151E9, 0.0, 2022-03-26 18:23:26.538
61.0, 631.3605607696809, 28.541046511847526, 831.1871553021483, 422.1505572483875, 0.0, 0.4480000212788582, 0.9280000440776348, 0.0, 0.0, 0.0, 0.0, 0.0, 1.648337006538151E9, 0.0, 2022-03-26 18:23:26.538
62.0, 626.9624384217896, 27.718268521595746, 819.7355816378258, 423.1117115369998, -0.01600000075995922, 0.4480000212788582, 0.9280000440776348, 0.0, 0.0, 0.0, 0.0, 0.0, 1.6483370065516863E9, 0.0, 2022-03-26 18:23:26.551
62.0, 635.3435542224906, 34.248133844230324, 829.6313569205813, 434.01351990783587, -0.01600000075995922, 0.4480000212788582, 0.9280000440776348, 0.0, 0.0, 0.0, 0.0, 0.0, 1.6483370065516863E9, 0.0, 2022-03-26 18:23:26.551
63.0, 631.6447931663133, 28.78414000896737, 819.335412342567, 428.4074098742567, -0.01600000075995922, 0.4480000212788582, 0.9280000440776348, 0.0, 0.0, 0.0, 0.0, 0.0, 1.6483370065673916E9, 0.0, 2022-03-26 18:23:26.567
63.0, 620.2867170008831, 27.340538626071066, 821.856104912702, 412.53153456235304, -0.01600000075995922, 0.4480000212788582, 0.9280000440776348, 0.0, 0.0, 0.0, 0.0, 0.0, 1.6483370065673916E9, 0.0, 2022-03-26 18:23:26.567
64.0, 623.3085561650805, 29.790173097047955, 824.328178783413, 424.0691259256564, -0.01600000075995922, 0.4480000212788582, 0.9280000440776348, 0.0, 0.0, 0.0, 0.0, 0.0, 1.6483370065682087E9, 0.0, 2022-03-26 18:23:26.568
64.0, 625.5188370388933, 28.02494031796232, 822.2637540078722, 417.35226560523733, -0.01600000075995922, 0.4480000212788582, 0.9280000440776348, 0.0, 0.0, 0.0, 0.0, 0.0, 1.6483370065682087E9, 0.0, 2022-03-26 18:23:26.568
65.0, 620.7280251956545, 26.74963443307206, 816.7623611730523, 412.8718654583208, -0.01600000075995922, 0.4480000212788582, 0.9280000440776348, 0.0, 0.0, 0.0, 0.0, 0.0, 1.648337006598025E9, 0.0, 2022-03-26 18:23:26.598
65.0, 619.2694642129354, 24.30747976200655, 813.7779210084118, 400.29458190733567, -0.01600000075995922, 0.4480000212788582, 0.9280000440776348, 0.0, 0.0, 0.0, 0.0, 0.0, 1.648337006598025E9, 0.0, 2022-03-26 18:23:26.598
66.0, 628.9857242978178, 26.229788339231163, 828.6440233322792, 421.60827175481245, -0.01600000075995922, 0.4480000212788582, 0.9280000440776348, 0.0, 0.0, 0.0, 0.0, 0.0, 1.6483370065987563E9, 0.0, 2022-03-26 18:23:26.598
66.0, 629.1988985952921, 23.406163872685283, 825.7493407665752, 420.359145169612, -0.01600000075995922, 0.4480000212788582, 0.9280000440776348, 0.0, 0.0, 0.0, 0.0, 0.0, 1.6483370065987563E9, 0.0, 2022-03-26 18:23:26.598
67.0, 617.4107339349575, 26.499061136040837, 821.6616301150061, 413.11869885539636, -0.01600000075995922, 0.4480000212788582, 0.9280000440776348, 0.0, 0.0, 0.0, 0.0, 0.0, 1.648337006599502E9, 0.0, 2022-03-26 18:23:26.599
67.0, 619.3667016117834, 32.86811076058075, 821.0520264222287, 418.65001088986173, -0.01600000075995922, 0.4480000212788582, 0.9280000440776348, 0.0, 0.0, 0.0, 0.0, 0.0, 1.648337006599502E9, 0.0, 2022-03-26 18:23:26.599
68.0, 621.9584522810765, 28.33535201428458, 819.5336270402186, 412.4342971635051, -0.01600000075995922, 0.4480000212788582, 0.9280000440776348, 0.0, 0.0, 0.0, 0.0, 0.0, 1.6483370066117628E9, 0.0, 2022-03-26 18:23:26.611
68.0, 621.3563283882104, 27.419076525140554, 821.8149660131894, 412.3594991643913, -0.01600000075995922, 0.4480000212788582, 0.9280000440776348, 0.0, 0.0, 0.0, 0.0, 0.0, 1.6483370066117628E9, 0.0, 2022-03-26 18:23:26.611
69.0, 623.9555588574149, 29.771473597269505, 816.9867551703937, 409.8462863941677, -0.01600000075995922, 0.4480000212788582, 0.9280000440776348, 0.0, 0.0, 0.0, 0.0, 0.0, 1.6483370066273928E9, 0.0, 2022-03-26 18:23:26.627
69.0, 624.0228770566173, 24.823585955891758, 813.9536963063292, 414.9886488332413, -0.01600000075995922, 0.4480000212788582, 0.9280000440776348, 0.0, 0.0, 0.0, 0.0, 0.0, 1.6483370066273928E9, 0.0, 2022-03-26 18:23:26.627
70.0, 623.327255664859, 23.813812967855483, 819.7729806373827, 410.34743298823014, -0.01600000075995922, 0.4480000212788582, 0.9280000440776348, 0.0, 0.0, 0.0, 0.0, 0.0, 1.6483370066281297E9, 0.0, 2022-03-26 18:23:26.628
70.0, 620.8327423944138, 28.200715615879744, 826.9947274518199, 404.89839875278994, -0.01600000075995922, 0.4480000212788582, 0.9280000440776348, 0.0, 0.0, 0.0, 0.0, 0.0, 1.6483370066281297E9, 0.0, 2022-03-26 18:23:26.628
71.0, 623.1440005670302, 25.1414774521254, 825.5548659688793, 418.49667499167845, -0.01600000075995922, 0.4480000212788582, 0.9280000440776348, 0.0, 0.0, 0.0, 0.0, 0.0, 1.6483370066416678E9, 0.0, 2022-03-26 18:23:26.641
71.0, 621.2703106892295, 31.465648277197033, 836.3818763406016, 414.6221386375837, -0.01600000075995922, 0.4480000212788582, 0.9280000440776348, 0.0, 0.0, 0.0, 0.0, 0.0, 1.6483370066416678E9, 0.0, 2022-03-26 18:23:26.641
72.0, 621.2441313895397, 32.10143126966432, 827.8586443415843, 415.53093432681635, -0.01600000075995922, 0.4480000212788582, 0.9280000440776348, 0.0, 0.0, 0.0, 0.0, 0.0, 1.6483370066573927E9, 0.0, 2022-03-26 18:23:26.657
72.0, 627.2204915187322, 31.039299682248384, 831.14227650268, 426.24200779991224, -0.01600000075995922, 0.4480000212788582, 0.9280000440776348, 0.0, 0.0, 0.0, 0.0, 0.0, 1.6483370066573927E9, 0.0, 2022-03-26 18:23:26.657
73.0, 627.0110571212135, 32.150049969088286, 828.7337809312157, 426.91144989198074, -0.01600000075995922, 0.4480000212788582, 0.9280000440776348, 0.0, 0.0, 0.0, 0.0, 0.0, 1.648337006658106E9, 0.0, 2022-03-26 18:23:26.658
73.0, 627.7104184129275, 34.43886874197051, 835.484300351236, 421.1781832599081, -0.01600000075995922, 0.4480000212788582, 0.9280000440776348, 0.0, 0.0, 0.0, 0.0, 0.0, 1.648337006658106E9, 0.0, 2022-03-26 18:23:26.658
74.0, 627.9647316099145, 33.776906449813396, 828.5841849329881, 424.2897800230421, -0.01600000075995922, 0.4480000212788582, 0.9280000440776348, 0.0, 0.0, 0.0, 0.0, 0.0, 1.6483370066717114E9, 0.0, 2022-03-26 18:23:26.671
74.0, 629.2175980950706, 34.184555544983596, 834.2463934659027, 427.1470635891892, -0.01600000075995922, 0.4480000212788582, 0.9280000440776348, 0.0, 0.0, 0.0, 0.0, 0.0, 1.6483370066717114E9, 0.0, 2022-03-26 18:23:26.671
75.0, 625.907786634285, 33.788126149680465, 832.2754661892541, 417.139091307763, -0.01600000075995922, 0.4480000212788582, 0.9280000440776348, 0.0, 0.0, 0.0, 0.0, 0.0, 1.6483370066874359E9, 0.0, 2022-03-26 18:23:26.687
75.0, 626.2069786307402, 32.29964596731588, 835.8433307469822, 423.8035930288024, -0.01600000075995922, 0.4480000212788582, 0.9280000440776348, 0.0, 0.0, 0.0, 0.0, 0.0, 1.6483370066874359E9, 0.0, 2022-03-26 18:23:26.687
76.0, 634.9359051273204, 34.01252014702186, 829.0965512269177, 432.12487043021247, -0.01600000075995922, 0.4480000212788582, 0.9280000440776348, 0.0, 0.0, 0.0, 0.0, 0.0, 1.6483370066881528E9, 0.0, 2022-03-26 18:23:26.688
76.0, 625.1523268432356, 24.505694459658116, 818.0488867578097, 409.6892105960287, -0.01600000075995922, 0.4480000212788582, 0.9280000440776348, 0.0, 0.0, 0.0, 0.0, 0.0, 1.6483370066881528E9, 0.0, 2022-03-26 18:23:26.688
77.0, 623.2748970654793, 31.375890678260475, 821.3175593190826, 403.402438770514, -0.01600000075995922, 0.4480000212788582, 0.9280000440776348, 0.0, 0.0, 0.0, 0.0, 0.0, 1.648337006701696E9, 0.0, 2022-03-26 18:23:26.701
77.0, 621.1356742908247, 26.981508230324835, 817.6561972624622, 421.264200958889, -0.01600000075995922, 0.4480000212788582, 0.9280000440776348, 0.0, 0.0, 0.0, 0.0, 0.0, 1.648337006701696E9, 0.0, 2022-03-26 18:23:26.701
78.0, 624.2771902536042, 29.004794106353074, 815.9171437830664, 414.46132293948904, -0.01600000075995922, 0.4480000212788582, 0.9280000440776348, 0.0, 0.0, 0.0, 0.0, 0.0, 1.6483370067174084E9, 0.0, 2022-03-26 18:23:26.717
78.0, 629.4195526926778, 27.318099226336926, 807.7417224799283, 409.26286200108007, -0.01600000075995922, 0.4480000212788582, 0.9280000440776348, 0.0, 0.0, 0.0, 0.0, 0.0, 1.6483370067174084E9, 0.0, 2022-03-26 18:23:26.717
79.0, 627.886193710845, 32.84193146089092, 818.21344235586, 420.86403166363016, -0.01600000075995922, 0.4480000212788582, 0.9280000440776348, 0.0, 0.0, 0.0, 0.0, 0.0, 1.648337006718109E9, 0.0, 2022-03-26 18:23:26.718
79.0, 626.7118651247583, 34.8128587375395, 816.223815579433, 426.0737123019062, -0.01600000075995922, 0.4480000212788582, 0.9280000440776348, 0.0, 0.0, 0.0, 0.0, 0.0, 1.648337006718109E9, 0.0, 2022-03-26 18:23:26.718
80.0, 623.8321421588771, 29.63309729890898, 814.4735424001701, 412.8344664587639, -0.01600000075995922, 0.4480000212788582, 0.9280000440776348, 0.0, 0.0, 0.0, 0.0, 0.0, 1.648337006731712E9, 0.0, 2022-03-26 18:23:26.731
80.0, 630.3994064810686, 37.97307420009747, 822.7649006019346, 415.1382448314689, -0.01600000075995922, 0.4480000212788582, 0.9280000440776348, 0.0, 0.0, 0.0, 0.0, 0.0, 1.648337006731712E9, 0.0, 2022-03-26 18:23:26.731
81.0, 626.6819459251128, 30.201562092173845, 821.3063396192156, 411.15151147870347, -0.01600000075995922, 0.4480000212788582, 0.9280000440776348, 0.0, 0.0, 0.0, 0.0, 0.0, 1.6483370067474267E9, 0.0, 2022-03-26 18:23:26.747
81.0, 629.6738658896647, 33.71706805052236, 818.9689021469094, 406.3980986350216, -0.01600000075995922, 0.4480000212788582, 0.9280000440776348, 0.0, 0.0, 0.0, 0.0, 0.0, 1.6483370067474267E9, 0.0, 2022-03-26 18:23:26.747
82.0, 628.6491333018057, 38.45552129438147, 822.6003450038843, 411.2562286774628, -0.01600000075995922, 0.4480000212788582, 0.9280000440776348, 0.0, 0.0, 0.0, 0.0, 0.0, 1.648337006748246E9, 0.0, 2022-03-26 18:23:26.748
82.0, 630.9828308741562, 37.08671791059896, 826.4674015580676, 426.64965689508244, -0.01600000075995922, 0.4480000212788582, 0.9280000440776348, 0.0, 0.0, 0.0, 0.0, 0.0, 1.648337006748246E9, 0.0, 2022-03-26 18:23:26.748
83.0, 628.2414842066355, 40.01879947585985, 825.7493407665752, 414.9587296335958, -0.01600000075995922, 0.4480000212788582, 0.9280000440776348, 0.0, 0.0, 0.0, 0.0, 0.0, 1.6483370067617097E9, 0.0, 2022-03-26 18:23:26.761
83.0, 625.8367285351269, 41.36890335986391, 824.7320879786275, 408.93749070493504, -0.01600000075995922, 0.4480000212788582, 0.9280000440776348, 0.0, 0.0, 0.0, 0.0, 0.0, 1.6483370067617097E9, 0.0, 2022-03-26 18:23:26.761
84.0, 623.7872633594088, 36.43971521826461, 820.2367282318883, 408.97488970449194, -0.01600000075995922, 0.4480000212788582, 0.9280000440776348, 0.0, 0.0, 0.0, 0.0, 0.0, 1.6483370067773829E9, 0.0, 2022-03-26 18:23:26.777
84.0, 629.0231232973747, 39.824324678163975, 829.5827382211573, 412.9167442577891, -0.01600000075995922, 0.4480000212788582, 0.9280000440776348, 0.0, 0.0, 0.0, 0.0, 0.0, 1.6483370067773829E9, 0.0, 2022-03-26 18:23:26.777
85.0, 630.5976211787201, 41.71297415578738, 827.8661241414957, 413.6946434485726, -0.01600000075995922, 0.4480000212788582, 0.9280000440776348, 0.0, 0.0, 0.0, 0.0, 0.0, 1.648337006778084E9, 0.0, 2022-03-26 18:23:26.778
85.0, 624.7484176480211, 40.80791836651042, 824.7208682787605, 416.19289661897346, -0.01600000075995922, 0.4480000212788582, 0.9280000440776348, 0.0, 0.0, 0.0, 0.0, 0.0, 1.648337006778084E9, 0.0, 2022-03-26 18:23:26.778
86.0, 628.9857242978178, 38.71731429127976, 823.8569513889961, 421.39135755738243, -0.01600000075995922, 0.4480000212788582, 0.9280000440776348, 0.0, 0.0, 0.0, 0.0, 0.0, 1.648337006791745E9, 0.0, 2022-03-26 18:23:26.791
86.0, 630.8631540755741, 41.95606765290722, 833.2553199776448, 415.67679042508826, -0.01600000075995922, 0.4480000212788582, 0.9280000440776348, 0.0, 0.0, 0.0, 0.0, 0.0, 1.648337006791745E9, 0.0, 2022-03-26 18:23:26.791
87.0, 634.3450009343214, 43.62780293310061, 832.1296100909822, 415.11954533169046, -0.01600000075995922, 0.4480000212788582, 0.9280000440776348, 0.0, 0.0, 0.0, 0.0, 0.0, 1.6483370068074586E9, 0.0, 2022-03-26 18:23:26.807
87.0, 630.9267323748209, 35.17188913328573, 824.967701675836, 417.23632870661095, -0.01600000075995922, 0.4480000212788582, 0.9280000440776348, 0.0, 0.0, 0.0, 0.0, 0.0, 1.6483370068074586E9, 0.0, 2022-03-26 18:23:26.807
88.0, 629.8496411875822, 34.54358594072983, 824.3693176829256, 412.6624310608022, -0.01600000075995922, 0.4480000212788582, 0.9280000440776348, 0.0, 0.0, 0.0, 0.0, 0.0, 1.6483370068082578E9, 0.0, 2022-03-26 18:23:26.808
88.0, 624.8232156471349, 34.39772984245792, 826.3626843593083, 410.85605938220397, -0.01600000075995922, 0.4480000212788582, 0.9280000440776348, 0.0, 0.0, 0.0, 0.0, 0.0, 1.6483370068082578E9, 0.0, 2022-03-26 18:23:26.808
89.0, 628.320022105705, 36.83240471361205, 825.1958355731331, 417.41584390448406, -0.01600000075995922, 0.4480000212788582, 0.9280000440776348, 0.0, 0.0, 0.0, 0.0, 0.0, 1.6483370068217504E9, 0.0, 2022-03-26 18:23:26.821
89.0, 629.2213379950263, 39.7420468791388, 832.0622918917798, 420.9911882621236, -0.01600000075995922, 0.4480000212788582, 0.9280000440776348, 0.0, 0.0, 0.0, 0.0, 0.0, 1.6483370068217504E9, 0.0, 2022-03-26 18:23:26.821
90.0, 623.3983137640171, 34.618383939843625, 830.4129960113205, 408.3278870121576, -0.01600000075995922, 0.4480000212788582, 0.9280000440776348, 0.0, 0.0, 0.0, 0.0, 0.0, 1.648337006837437E9, 0.0, 2022-03-26 18:23:26.837
90.0, 624.03783665644, 37.471927606035024, 828.0755585390143, 410.89719828171656, -0.01600000075995922, 0.4480000212788582, 0.9280000440776348, 0.0, 0.0, 0.0, 0.0, 0.0, 1.648337006837437E9, 0.0, 2022-03-26 18:23:26.837
91.0, 625.6833926369436, 42.625509744975716, 837.1036770320497, 425.16117671271786, -0.01600000075995922, 0.4480000212788582, 0.9280000440776348, 0.0, 0.0, 0.0, 0.0, 0.0, 1.6483370068383305E9, 0.0, 2022-03-26 18:23:26.838
91.0, 623.5217304625548, 38.657475891988724, 835.8695100466721, 421.01736756181344, -0.01600000075995922, 0.4480000212788582, 0.9280000440776348, 0.0, 0.0, 0.0, 0.0, 0.0, 1.6483370068383305E9, 0.0, 2022-03-26 18:23:26.838
92.0, 628.6640929016285, 42.292658648919314, 835.7947120475583, 417.0044549093582, -0.01600000075995922, 0.4480000212788582, 0.9280000440776348, 0.0, 0.0, 0.0, 0.0, 0.0, 1.6483370068516982E9, 0.0, 2022-03-26 18:23:26.851
92.0, 626.1994988308288, 34.603424340020865, 835.9891868452542, 416.3350128172897, -0.01600000075995922, 0.4480000212788582, 0.9280000440776348, 0.0, 0.0, 0.0, 0.0, 0.0, 1.6483370068516982E9, 0.0, 2022-03-26 18:23:26.851
93.0, 624.6586600490846, 39.68594837980345, 828.1765358378179, 415.46361612761393, -0.01600000075995922, 0.4480000212788582, 0.9280000440776348, 0.0, 0.0, 0.0, 0.0, 0.0, 1.6483370068674605E9, 0.0, 2022-03-26 18:23:26.867
93.0, 624.4903645510785, 42.681608244311064, 837.9750737217255, 418.320899693761, -0.01600000075995922, 0.4480000212788582, 0.9280000440776348, 0.0, 0.0, 0.0, 0.0, 0.0, 1.6483370068674605E9, 0.0, 2022-03-26 18:23:26.867
94.0, 630.7733964766376, 37.397129606921226, 844.2020071479492, 425.0377600141801, -0.01600000075995922, 0.4480000212788582, 0.9280000440776348, 0.0, 0.0, 0.0, 0.0, 0.0, 1.648337006868162E9, 0.0, 2022-03-26 18:23:26.868
94.0, 623.7910032593645, 36.69402841525152, 834.519406162668, 421.7653475529514, -0.01600000075995922, 0.4480000212788582, 0.9280000440776348, 0.0, 0.0, 0.0, 0.0, 0.0, 1.648337006868162E9, 0.0, 2022-03-26 18:23:26.868
95.0, 624.1762129548006, 39.52887258166447, 835.484300351236, 418.46301589207724, -0.01600000075995922, 0.4480000212788582, 0.9280000440776348, 0.0, 0.0, 0.0, 0.0, 0.0, 1.6483370068816717E9, 0.0, 2022-03-26 18:23:26.881
95.0, 626.9250394222327, 37.430788706522435, 829.6500564203598, 421.3614383577369, -0.01600000075995922, 0.4480000212788582, 0.9280000440776348, 0.0, 0.0, 0.0, 0.0, 0.0, 1.6483370068816717E9, 0.0, 2022-03-26 18:23:26.881
96.0, 627.7029386130162, 38.15632929792628, 834.6615223609842, 425.75956070562825, -0.01600000075995922, 0.4480000212788582, 0.9280000440776348, 0.0, 0.0, 0.0, 0.0, 0.0, 1.6483370068974433E9, 0.0, 2022-03-26 18:23:26.897
96.0, 627.5982214142568, 44.8544901185669, 836.9989598332904, 409.8163671945222, -0.01600000075995922, 0.4480000212788582, 0.9280000440776348, 0.0, 0.0, 0.0, 0.0, 0.0, 1.6483370068974433E9, 0.0, 2022-03-26 18:23:26.897
97.0, 628.6005146023817, 45.3743362124078, 839.8525034994818, 417.94316979823634, -0.01600000075995922, 0.4480000212788582, 0.9280000440776348, 0.0, 0.0, 0.0, 0.0, 0.0, 1.648337006898138E9, 0.0, 2022-03-26 18:23:26.898
97.0, 626.6819459251128, 40.303031872492284, 824.0327266869135, 420.3367057698779, -0.01600000075995922, 0.4480000212788582, 0.9280000440776348, 0.0, 0.0, 0.0, 0.0, 0.0, 1.648337006898138E9, 0.0, 2022-03-26 18:23:26.898
98.0, 621.2815303890966, 42.53201224608347, 839.2017609071918, 423.35480503411964, -0.01600000075995922, 0.4480000212788582, 0.9280000440776348, 0.0, 0.0, 0.0, 0.0, 0.0, 1.648337006911804E9, 0.0, 2022-03-26 18:23:26.911
98.0, 624.4454857516102, 39.12496338644996, 828.9693946284242, 418.39195779291913, -0.01600000075995922, 0.4480000212788582, 0.9280000440776348, 0.0, 0.0, 0.0, 0.0, 0.0, 1.648337006911804E9, 0.0, 2022-03-26 18:23:26.911
99.0, 621.5582829858176, 40.08985757501796, 827.7202680432238, 418.9679023860954, -0.01600000075995922, 0.4480000212788582, 0.9280000440776348, 0.0, 0.0, 0.0, 0.0, 0.0, 1.64833700692732E9, 0.0, 2022-03-26 18:23:26.927
99.0, 626.7268247245811, 37.98803379992023, 827.3350583477877, 412.35201936447993, -0.01600000075995922, 0.4480000212788582, 0.9280000440776348, 0.0, 0.0, 0.0, 0.0, 0.0, 1.64833700692732E9, 0.0, 2022-03-26 18:23:26.927
100.0, 628.9894641977735, 42.99201994063333, 829.575258421246, 416.33875271724537, -0.01600000075995922, 0.4480000212788582, 0.944000044837594, 0.0, 0.0, 0.0, 0.0, 0.0, 1.6483370069430928E9, 0.0, 2022-03-26 18:23:26.943
100.0, 629.658906289842, 38.702354691457, 830.3905566115864, 419.4054706809111, -0.01600000075995922, 0.4480000212788582, 0.944000044837594, 0.0, 0.0, 0.0, 0.0, 0.0, 1.6483370069430928E9, 0.0, 2022-03-26 18:23:26.943
0.0, 624.8550047967583, 40.617183468770236, 828.0755585390143, 417.77300435025245, -0.01600000075995922, 0.4480000212788582, 0.944000044837594, 0.0, 0.0, 0.0, 0.0, 0.0, 1.6483370069438148E9, 0.0, 2022-03-26 18:23:26.943
1.0, 625.6403837874532, 40.94629466487095, 832.324084888678, 417.6832467513159, -0.01600000075995922, 0.43200002051889896, 0.944000044837594, 0.0, 0.0, 0.0, 0.0, 0.0, 1.6483370069446788E9, 0.0, 2022-03-26 18:23:26.944
1.0, 628.7220613509417, 37.93567520054057, 825.2855931720696, 422.04023019969463, -0.01600000075995922, 0.43200002051889896, 0.944000044837594, 0.0, 0.0, 0.0, 0.0, 0.0, 1.6483370069446788E9, 0.0, 2022-03-26 18:23:26.944
2.0, 631.3437312198803, 40.86027696589008, 837.2270937305875, 427.2012921385467, -0.01600000075995922, 0.43200002051889896, 0.944000044837594, 0.0, 0.0, 0.0, 0.0, 0.0, 1.6483370069567685E9, 0.0, 2022-03-26 18:23:26.956
2.0, 631.5980444168672, 36.02084642322734, 838.910048710648, 430.3540278011933, -0.01600000075995922, 0.43200002051889896, 0.944000044837594, 0.0, 0.0, 0.0, 0.0, 0.0, 1.6483370069567685E9, 0.0, 2022-03-26 18:23:26.956
3.0, 633.7073479918763, 47.19940739078447, 843.7831383529119, 427.33592853695154, -0.01600000075995922, 0.43200002051889896, 0.944000044837594, 0.0, 0.0, 0.0, 0.0, 0.0, 1.6483370069724166E9, 0.0, 2022-03-26 18:23:26.972
3.0, 622.4390294253826, 40.149695974309, 834.6802218607627, 412.7241394100711, -0.01600000075995922, 0.43200002051889896, 0.944000044837594, 0.0, 0.0, 0.0, 0.0, 0.0, 1.6483370069724166E9, 0.0, 2022-03-26 18:23:26.972
4.0, 633.120183698833, 43.029418940190226, 839.7739656004123, 431.25534369051456, -0.01600000075995922, 0.43200002051889896, 0.944000044837594, 0.0, 0.0, 0.0, 0.0, 0.0, 1.6483370069731507E9, 0.0, 2022-03-26 18:23:26.973
4.0, 630.9921806240454, 40.03375907568261, 832.3577439882793, 423.02756378799677, -0.01600000075995922, 0.43200002051889896, 0.944000044837594, 0.0, 0.0, 0.0, 0.0, 0.0, 1.6483370069731507E9, 0.0, 2022-03-26 18:23:26.973
5.0, 621.0066477423534, 34.02373984688893, 818.9202834474854, 412.36884891428053, -0.01600000075995922, 0.43200002051889896, 0.944000044837594, 0.0, 0.0, 0.0, 0.0, 0.0, 1.6483370069867792E9, 0.0, 2022-03-26 18:23:26.986
5.0, 628.8192987497896, 38.676175391767174, 819.3690714421682, 416.2246857685968, -0.01600000075995922, 0.43200002051889896, 0.944000044837594, 0.0, 0.0, 0.0, 0.0, 0.0, 1.6483370069867792E9, 0.0, 2022-03-26 18:23:26.986
6.0, 630.4985138298944, 44.57773752184585, 816.7773207728751, 415.5402840767056, -0.01600000075995922, 0.43200002051889896, 0.944000044837594, 0.0, 0.0, 0.0, 0.0, 0.0, 1.6483370070024989E9, 0.0, 2022-03-26 18:23:27.002
6.0, 630.7416073270142, 48.47471327567473, 811.6125189340673, 412.50722521264106, -0.01600000075995922, 0.43200002051889896, 0.944000044837594, 0.0, 0.0, 0.0, 0.0, 0.0, 1.6483370070024989E9, 0.0, 2022-03-26 18:23:27.002
7.0, 636.5646315580234, 53.512358515989035, 806.4477170952596, 420.92200011294335, -0.01600000075995922, 0.43200002051889896, 0.944000044837594, 0.0, 0.0, 0.0, 0.0, 0.0, 1.648337007003282E9, 0.0, 2022-03-26 18:23:27.003
7.0, 629.7280944390222, 47.075990692246705, 794.5398756363429, 411.5685103237629, -0.01600000075995922, 0.43200002051889896, 0.944000044837594, 0.0, 0.0, 0.0, 0.0, 0.0, 1.648337007003282E9, 0.0, 2022-03-26 18:23:27.003
8.0, 630.4461552305147, 51.77330503659323, 793.272049551364, 407.297544574365, -0.01600000075995922, 0.43200002051889896, 0.944000044837594, 0.0, 0.0, 0.0, 0.0, 0.0, 1.6483370070168643E9, 0.0, 2022-03-26 18:23:27.016
8.0, 634.3132117846981, 55.86849548807368, 788.4924574079923, 414.4519731895998, -0.01600000075995922, 0.43200002051889896, 0.944000044837594, 0.0, 0.0, 0.0, 0.0, 0.0, 1.6483370070168643E9, 0.0, 2022-03-26 18:23:27.016
9.0, 631.8523576138541, 47.913728282321244, 785.3958202446811, 409.47042644862086, -0.01600000075995922, 0.43200002051889896, 0.944000044837594, 0.0, 0.0, 0.0, 0.0, 0.0, 1.648337007032426E9, 0.0, 2022-03-26 18:23:27.032
9.0, 626.7361744744703, 49.046917968895286, 794.7904489333741, 406.42988778464496, -0.01600000075995922, 0.43200002051889896, 0.944000044837594, 0.0, 0.0, 0.0, 0.0, 0.0, 1.648337007032426E9, 0.0, 2022-03-26 18:23:27.032
10.0, 635.2706261733547, 54.02098490996286, 800.2843619682826, 409.4180678492412, -0.01600000075995922, 0.43200002051889896, 0.944000044837594, 0.0, 0.0, 0.0, 0.0, 0.0, 1.6483370070331807E9, 0.0, 2022-03-26 18:23:27.033
10.0, 630.382576931268, 51.556390839163214, 791.065508577507, 410.06507054157555, -0.01600000075995922, 0.43200002051889896, 0.944000044837594, 0.0, 0.0, 0.0, 0.0, 0.0, 1.6483370070331807E9, 0.0, 2022-03-26 18:23:27.033
11.0, 621.5115342363715, 40.669542068149894, 781.9738117852248, 390.5502725727856, -0.01600000075995922, 0.43200002051889896, 0.944000044837594, 0.0, 0.0, 0.0, 0.0, 0.0, 1.6483370070467367E9, 0.0, 2022-03-26 18:23:27.046
11.0, 625.4159897901118, 48.732766372617334, 793.2009914522059, 406.1269558882341, -0.01600000075995922, 0.43200002051889896, 0.944000044837594, 0.0, 0.0, 0.0, 0.0, 0.0, 1.6483370070467367E9, 0.0, 2022-03-26 18:23:27.046
12.0, 625.2663937918842, 48.50089257536456, 796.3948660143651, 418.1582140456885, -0.01600000075995922, 0.43200002051889896, 0.944000044837594, 0.0, 0.0, 0.0, 0.0, 0.0, 1.6483370070623984E9, 0.0, 2022-03-26 18:23:27.062
12.0, 628.0638389587402, 53.489919116254896, 795.0485020303167, 415.91801397223026, -0.01600000075995922, 0.43200002051889896, 0.944000044837594, 0.0, 0.0, 0.0, 0.0, 0.0, 1.6483370070623984E9, 0.0, 2022-03-26 18:23:27.062
13.0, 625.6254241876304, 48.91976137040183, 803.354819831904, 413.6815537987277, -0.01600000075995922, 0.43200002051889896, 0.944000044837594, 0.0, 0.0, 0.0, 0.0, 0.0, 1.6483370070631084E9, 0.0, 2022-03-26 18:23:27.063
13.0, 621.4703953368589, 44.652535520959646, 790.4596447846852, 413.25894510373473, -0.01600000075995922, 0.43200002051889896, 0.944000044837594, 0.0, 0.0, 0.0, 0.0, 0.0, 1.6483370070631084E9, 0.0, 2022-03-26 18:23:27.063
14.0, 624.3201991030946, 38.33584449579939, 782.5160972787999, 415.3495491789654, -0.01600000075995922, 0.43200002051889896, 0.944000044837594, 0.0, 0.0, 0.0, 0.0, 0.0, 1.6483370070767803E9, 0.0, 2022-03-26 18:23:27.076
14.0, 621.6648701345548, 40.86775676580146, 796.0133962188847, 411.1197223290801, -0.01600000075995922, 0.43200002051889896, 0.944000044837594, 0.0, 0.0, 0.0, 0.0, 0.0, 1.6483370070767803E9, 0.0, 2022-03-26 18:23:27.076
15.0, 626.4182829782367, 38.646256192121655, 795.7553431219421, 412.0771367177367, -0.01600000075995922, 0.43200002051889896, 0.944000044837594, 0.0, 0.0, 0.0, 0.0, 0.0, 1.6483370070924644E9, 0.0, 2022-03-26 18:23:27.092
15.0, 622.2258551279083, 37.453228106256574, 786.5626690308563, 412.4548666132614, -0.01600000075995922, 0.43200002051889896, 0.944000044837594, 0.0, 0.0, 0.0, 0.0, 0.0, 1.6483370070924644E9, 0.0, 2022-03-26 18:23:27.092
16.0, 619.4022306613624, 38.287225796375424, 789.9734577904455, 403.10511672403663, -0.01600000075995922, 0.43200002051889896, 0.944000044837594, 0.0, 0.0, 0.0, 0.0, 0.0, 1.648337007093281E9, 0.0, 2022-03-26 18:23:27.093
16.0, 621.4629155369475, 39.442854882683605, 796.5519418125041, 405.1658015996218, -0.01600000075995922, 0.43200002051889896, 0.944000044837594, 0.0, 0.0, 0.0, 0.0, 0.0, 1.648337007093281E9, 0.0, 2022-03-26 18:23:27.093
17.0, 624.5109340008348, 28.223155015613884, 795.2541965278797, 407.9034083671868, -0.01600000075995922, 0.43200002051889896, 0.944000044837594, 0.0, 0.0, 0.0, 0.0, 0.0, 1.648337007106714E9, 0.0, 2022-03-26 18:23:27.106
17.0, 622.5437466241419, 29.378784101922065, 787.7332577169873, 401.0519116483629, -0.01600000075995922, 0.43200002051889896, 0.944000044837594, 0.0, 0.0, 0.0, 0.0, 0.0, 1.648337007106714E9, 0.0, 2022-03-26 18:23:27.106
18.0, 622.5998451234773, 36.28637932008132, 790.8224150803871, 402.57405093032867, -0.01600000075995922, 0.43200002051889896, 0.944000044837594, 0.0, 0.0, 0.0, 0.0, 0.0, 1.6483370071223984E9, 0.0, 2022-03-26 18:23:27.122
18.0, 626.0779520822689, 33.88162364857271, 794.9774439311586, 407.8660093676299, -0.01600000075995922, 0.43200002051889896, 0.944000044837594, 0.0, 0.0, 0.0, 0.0, 0.0, 1.6483370071223984E9, 0.0, 2022-03-26 18:23:27.122
19.0, 630.0871248347685, 41.817691354546696, 798.1526189935394, 407.80617096833885, -0.01600000075995922, 0.43200002051889896, 0.944000044837594, 0.0, 0.0, 0.0, 0.0, 0.0, 1.6483370071231391E9, 0.0, 2022-03-26 18:23:27.123
19.0, 619.9482560548931, 48.257799078244716, 799.6186597761698, 404.69457420520484, -0.01600000075995922, 0.43200002051889896, 0.944000044837594, 0.0, 0.0, 0.0, 0.0, 0.0, 1.6483370071231391E9, 0.0, 2022-03-26 18:23:27.123
20.0, 619.33491246216, 45.80068480735645, 791.0094100781716, 410.5923964353278, -0.01600000075995922, 0.43200002051889896, 0.9600000455975533, 0.0, 0.0, 0.0, 0.0, 0.0, 1.6483370071531515E9, 0.0, 2022-03-26 18:23:27.153
20.0, 618.3662783736363, 39.25585988489911, 791.7611299692653, 402.4169751321897, -0.01600000075995922, 0.43200002051889896, 0.9600000455975533, 0.0, 0.0, 0.0, 0.0, 0.0, 1.6483370071531515E9, 0.0, 2022-03-26 18:23:27.153
21.0, 625.775020185858, 45.449134211521596, 799.8318340736441, 405.9773598900065, -0.01600000075995922, 0.41600001975893974, 0.9600000455975533, 0.0, 0.0, 0.0, 0.0, 0.0, 1.6483370071538389E9, 0.0, 2022-03-26 18:23:27.153
21.0, 627.6898489631712, 51.526471639517695, 802.9770899363793, 408.4494337607175, -0.01600000075995922, 0.41600001975893974, 0.9600000455975533, 0.0, 0.0, 0.0, 0.0, 0.0, 1.6483370071538389E9, 0.0, 2022-03-26 18:23:27.153
22.0, 624.7689870977774, 46.58606379805133, 807.8987982780673, 404.90774850267917, -0.01600000075995922, 0.41600001975893974, 0.9600000455975533, 0.0, 0.0, 0.0, 0.0, 0.0, 1.6483370071546185E9, 0.0, 2022-03-26 18:23:27.154
22.0, 622.3717112261802, 48.88610227080062, 801.9261780488305, 403.0714576244354, -0.01600000075995922, 0.41600001975893974, 0.9600000455975533, 0.0, 0.0, 0.0, 0.0, 0.0, 1.6483370071546185E9, 0.0, 2022-03-26 18:23:27.154
23.0, 624.9522421956062, 46.38410920044407, 813.377751713153, 401.28378544561565, -0.01600000075995922, 0.41600001975893974, 0.9600000455975533, 0.0, 0.0, 0.0, 0.0, 0.0, 1.648337007166666E9, 0.0, 2022-03-26 18:23:27.166
23.0, 622.0799990296364, 37.483147305902094, 796.4509645137005, 396.38451650366187, -0.01600000075995922, 0.41600001975893974, 0.9600000455975533, 0.0, 0.0, 0.0, 0.0, 0.0, 1.648337007166666E9, 0.0, 2022-03-26 18:23:27.166
24.0, 624.4174365019426, 40.149695974309, 801.0547813591547, 394.0358593314886, -0.01600000075995922, 0.41600001975893974, 0.9600000455975533, 0.0, 0.0, 0.0, 0.0, 0.0, 1.6483370071823936E9, 0.0, 2022-03-26 18:23:27.182
24.0, 619.4097104612738, 45.299538213294, 806.2270629978739, 399.1071636714041, -0.01600000075995922, 0.41600001975893974, 0.9600000455975533, 0.0, 0.0, 0.0, 0.0, 0.0, 1.6483370071823936E9, 0.0, 2022-03-26 18:23:27.182
25.0, 619.0918189650401, 45.25091951387003, 804.7647621151991, 398.2170674819499, -0.01600000075995922, 0.41600001975893974, 0.9600000455975533, 0.0, 0.0, 0.0, 0.0, 0.0, 1.6483370071831274E9, 0.0, 2022-03-26 18:23:27.183
25.0, 622.0313803302124, 38.53031929349527, 804.9891561125405, 400.3338508568704, -0.01600000075995922, 0.41600001975893974, 0.9600000455975533, 0.0, 0.0, 0.0, 0.0, 0.0, 1.6483370071831274E9, 0.0, 2022-03-26 18:23:27.183
26.0, 618.8001067684963, 43.72878023190424, 807.3527728845365, 396.8856630977243, -0.01600000075995922, 0.41600001975893974, 0.9600000455975533, 0.0, 0.0, 0.0, 0.0, 0.0, 1.648337007196693E9, 0.0, 2022-03-26 18:23:27.196
26.0, 621.9229232314974, 42.73022694373503, 801.9635770483874, 400.80507825128734, -0.01600000075995922, 0.41600001975893974, 0.9600000455975533, 0.0, 0.0, 0.0, 0.0, 0.0, 1.648337007196693E9, 0.0, 2022-03-26 18:23:27.196
27.0, 626.1190909817815, 43.078037639614195, 808.2578286738135, 414.47815248928964, -0.01600000075995922, 0.41600001975893974, 0.9600000455975533, 0.0, 0.0, 0.0, 0.0, 0.0, 1.648337007212384E9, 0.0, 2022-03-26 18:23:27.212
27.0, 620.0417535537854, 36.76882641436532, 805.0377748119645, 406.54582468327135, -0.01600000075995922, 0.41600001975893974, 0.9600000455975533, 0.0, 0.0, 0.0, 0.0, 0.0, 1.648337007212384E9, 0.0, 2022-03-26 18:23:27.212
28.0, 620.4419228490442, 44.56651782197878, 809.1516647632234, 404.8217308036983, -0.01600000075995922, 0.41600001975893974, 0.9600000455975533, 0.0, 0.0, 0.0, 0.0, 0.0, 1.6483370072130811E9, 0.0, 2022-03-26 18:23:27.213
28.0, 619.3910109614953, 44.34960362454876, 813.0486405170523, 398.77057267539203, -0.01600000075995922, 0.41600001975893974, 0.9600000455975533, 0.0, 0.0, 0.0, 0.0, 0.0, 1.6483370072130811E9, 0.0, 2022-03-26 18:23:27.213
29.0, 616.9189370907843, 47.17696799105033, 815.3150198902003, 400.266532657668, -0.01600000075995922, 0.41600001975893974, 0.9600000455975533, 0.0, 0.0, 0.0, 0.0, 0.0, 1.6483370072267268E9, 0.0, 2022-03-26 18:23:27.226
29.0, 611.3838851563632, 41.70923425583169, 809.4246774599887, 389.7125349827111, -0.01600000075995922, 0.41600001975893974, 0.9600000455975533, 0.0, 0.0, 0.0, 0.0, 0.0, 1.6483370072267268E9, 0.0, 2022-03-26 18:23:27.226
30.0, 619.6976827578619, 45.071404315996915, 816.766101073008, 398.0824310835451, -0.01600000075995922, 0.41600001975893974, 0.944000044837594, 0.0, 0.0, 0.0, 0.0, 0.0, 1.6483370072424726E9, 0.0, 2022-03-26 18:23:27.242
30.0, 616.0587601009756, 37.61030390439555, 807.745462379884, 391.31695206370205, -0.01600000075995922, 0.41600001975893974, 0.944000044837594, 0.0, 0.0, 0.0, 0.0, 0.0, 1.6483370072424726E9, 0.0, 2022-03-26 18:23:27.242
31.0, 610.9986754609272, 36.34621771937236, 805.8455932023935, 382.6590836662799, -0.01600000075995922, 0.41600001975893974, 0.944000044837594, 0.0, 0.0, 0.0, 0.0, 0.0, 1.6483370072432344E9, 0.0, 2022-03-26 18:23:27.243
31.0, 607.9244776973501, 41.61199685698375, 816.8035000725649, 384.13260424882174, -0.01600000075995922, 0.41600001975893974, 0.944000044837594, 0.0, 0.0, 0.0, 0.0, 0.0, 1.6483370072432344E9, 0.0, 2022-03-26 18:23:27.243
32.0, 617.887571179308, 46.54492489853874, 813.7106028092094, 389.50310058519244, -0.03200000151991844, 0.41600001975893974, 0.944000044837594, 0.0, 0.0, 0.0, 0.0, 0.0, 1.648337007256746E9, 0.0, 2022-03-26 18:23:27.256
32.0, 613.6353049296886, 41.71297415578738, 816.9867551703937, 383.3659247579053, -0.03200000151991844, 0.41600001975893974, 0.944000044837594, 0.0, 0.0, 0.0, 0.0, 0.0, 1.648337007256746E9, 0.0, 2022-03-26 18:23:27.256
33.0, 610.5872864658013, 38.33958439575508, 813.546047211159, 363.00216949917376, -0.03200000151991844, 0.41600001975893974, 0.944000044837594, 0.0, 0.0, 0.0, 0.0, 0.0, 1.6483370072889192E9, 0.0, 2022-03-26 18:23:27.288
33.0, 613.1565977353603, 37.71876100311056, 817.4131037653424, 376.9258170342073, -0.03200000151991844, 0.41600001975893974, 0.944000044837594, 0.0, 0.0, 0.0, 0.0, 0.0, 1.6483370072889192E9, 0.0, 2022-03-26 18:23:27.288
34.0, 615.5052549075335, 42.40111574763432, 815.6029921867885, 378.41803711652756, -0.03200000151991844, 0.41600001975893974, 0.944000044837594, 0.0, 0.0, 0.0, 0.0, 0.0, 1.6483370072895489E9, 0.0, 2022-03-26 18:23:27.289
34.0, 622.0164207303897, 43.5567448339425, 820.6181980273686, 377.75981472432613, -0.03200000151991844, 0.41600001975893974, 0.944000044837594, 0.0, 0.0, 0.0, 0.0, 0.0, 1.6483370072895489E9, 0.0, 2022-03-26 18:23:27.289
35.0, 620.456882448867, 49.61538276216015, 821.3063396192156, 377.2175292307511, -0.03200000151991844, 0.41600001975893974, 0.944000044837594, 0.0, 0.0, 0.0, 0.0, 0.0, 1.648337007290258E9, 0.0, 2022-03-26 18:23:27.290
35.0, 622.1435773288831, 47.865109582897276, 822.7536809020676, 389.39464348647743, -0.03200000151991844, 0.41600001975893974, 0.944000044837594, 0.0, 0.0, 0.0, 0.0, 0.0, 1.648337007290258E9, 0.0, 2022-03-26 18:23:27.290
36.0, 628.6435234518722, 47.97356668161228, 826.3327651596628, 390.3707573749125, -0.03200000151991844, 0.41600001975893974, 0.944000044837594, 0.0, 0.0, 0.0, 0.0, 0.0, 1.648337007291016E9, 0.0, 2022-03-26 18:23:27.291
36.0, 619.0581598654389, 44.60391682153568, 824.7096485788934, 389.6227773837745, -0.03200000151991844, 0.41600001975893974, 0.944000044837594, 0.0, 0.0, 0.0, 0.0, 0.0, 1.648337007291016E9, 0.0, 2022-03-26 18:23:27.291
37.0, 621.8294257326052, 48.84496337128803, 824.6946889790706, 395.21018791757524, -0.03200000151991844, 0.41600001975893974, 0.944000044837594, 0.0, 0.0, 0.0, 0.0, 0.0, 1.6483370073017316E9, 0.0, 2022-03-26 18:23:27.301
37.0, 623.2842468153685, 48.97959976969287, 816.6613838742487, 397.4167288914323, -0.03200000151991844, 0.41600001975893974, 0.944000044837594, 0.0, 0.0, 0.0, 0.0, 0.0, 1.6483370073017316E9, 0.0, 2022-03-26 18:23:27.301
38.0, 619.6677635582164, 46.657121897209436, 822.1739964089356, 393.6656092358753, -0.03200000151991844, 0.41600001975893974, 0.944000044837594, 0.0, 0.0, 0.0, 0.0, 0.0, 1.6483370073167377E9, 0.0, 2022-03-26 18:23:27.316
38.0, 622.5362668242306, 46.298091501463205, 835.1888482547365, 392.1958285532892, -0.03200000151991844, 0.41600001975893974, 0.944000044837594, 0.0, 0.0, 0.0, 0.0, 0.0, 1.6483370073167377E9, 0.0, 2022-03-26 18:23:27.316
39.0, 622.3904107259586, 51.23849934292957, 828.4981672340073, 398.6060170773417, -0.03200000151991844, 0.41600001975893974, 0.944000044837594, 0.0, 0.0, 0.0, 0.0, 0.0, 1.6483370073324108E9, 0.0, 2022-03-26 18:23:27.332
39.0, 624.2005223045126, 48.714066872838885, 834.6016839616932, 403.9727735137567, -0.03200000151991844, 0.41600001975893974, 0.944000044837594, 0.0, 0.0, 0.0, 0.0, 0.0, 1.6483370073324108E9, 0.0, 2022-03-26 18:23:27.332
40.0, 621.4255165373906, 45.841823706869036, 827.2415608488955, 400.2627927577123, -0.03200000151991844, 0.41600001975893974, 0.944000044837594, 0.0, 0.0, 0.0, 0.0, 0.0, 1.6483370073331308E9, 0.0, 2022-03-26 18:23:27.333
40.0, 620.3185061505064, 43.16779523855075, 822.0206605107524, 398.84163077455014, -0.03200000151991844, 0.41600001975893974, 0.944000044837594, 0.0, 0.0, 0.0, 0.0, 0.0, 1.6483370073331308E9, 0.0, 2022-03-26 18:23:27.333
41.0, 620.0679328534752, 49.99685255764052, 829.9455085168593, 393.5982910366729, -0.03200000151991844, 0.41600001975893974, 0.944000044837594, 0.0, 0.0, 0.0, 0.0, 0.0, 1.6483370073467581E9, 0.0, 2022-03-26 18:23:27.346
41.0, 621.6125115351751, 44.55155822215602, 817.4991214643233, 399.3352975687012, -0.03200000151991844, 0.41600001975893974, 0.944000044837594, 0.0, 0.0, 0.0, 0.0, 0.0, 1.6483370073467581E9, 0.0, 2022-03-26 18:23:27.346
42.0, 628.0937581583858, 47.524778686929494, 828.9581749285571, 413.6740739988163, -0.01600000075995922, 0.41600001975893974, 0.944000044837594, 0.0, 0.0, 0.0, 0.0, 0.0, 1.648337007362434E9, 0.0, 2022-03-26 18:23:27.362
42.0, 624.3949971022084, 49.873435859102756, 825.8203988657333, 416.632334863767, -0.01600000075995922, 0.41600001975893974, 0.944000044837594, 0.0, 0.0, 0.0, 0.0, 0.0, 1.648337007362434E9, 0.0, 2022-03-26 18:23:27.362
43.0, 627.4504953660071, 44.615136521402746, 822.712542002555, 408.91692125517875, -0.01600000075995922, 0.41600001975893974, 0.944000044837594, 0.0, 0.0, 0.0, 0.0, 0.0, 1.6483370073631809E9, 0.0, 2022-03-26 18:23:27.363
43.0, 632.4096027072519, 52.43152742879465, 825.7456008666195, 429.9912575054914, -0.01600000075995922, 0.41600001975893974, 0.944000044837594, 0.0, 0.0, 0.0, 0.0, 0.0, 1.6483370073631809E9, 0.0, 2022-03-26 18:23:27.363
44.0, 618.0072479778901, 47.16574829118326, 823.3371052951552, 418.03853724710643, -0.01600000075995922, 0.41600001975893974, 0.944000044837594, 0.0, 0.0, 0.0, 0.0, 0.0, 1.6483370073767776E9, 0.0, 2022-03-26 18:23:27.376
44.0, 620.5690794475377, 41.52597915800288, 819.3653315422125, 412.6755207106471, -0.01600000075995922, 0.41600001975893974, 0.944000044837594, 0.0, 0.0, 0.0, 0.0, 0.0, 1.6483370073767776E9, 0.0, 2022-03-26 18:23:27.376
45.0, 624.6567900991067, 43.459507435094565, 823.3333653951995, 427.6912190327421, -0.01600000075995922, 0.41600001975893974, 0.944000044837594, 0.0, 0.0, 0.0, 0.0, 0.0, 1.6483370073924396E9, 0.0, 2022-03-26 18:23:27.392
45.0, 625.5207069888711, 43.76617923146114, 815.0756662930362, 443.00610935129225, -0.01600000075995922, 0.41600001975893974, 0.944000044837594, 0.0, 0.0, 0.0, 0.0, 0.0, 1.6483370073924396E9, 0.0, 2022-03-26 18:23:27.392
46.0, 636.6319497572258, 52.330550129991025, 825.4950275695883, 446.78340830653906, -0.01600000075995922, 0.41600001975893974, 0.944000044837594, 0.0, 0.0, 0.0, 0.0, 0.0, 1.6483370073931117E9, 0.0, 2022-03-26 18:23:27.393
46.0, 620.4269632492214, 38.71731429127976, 816.489348476287, 444.0570212388411, -0.01600000075995922, 0.41600001975893974, 0.944000044837594, 0.0, 0.0, 0.0, 0.0, 0.0, 1.6483370073931117E9, 0.0, 2022-03-26 18:23:27.393
47.0, 607.973096396774, 24.932043054606766, 801.3951122551225, 427.7959362315014, -0.01600000075995922, 0.41600001975893974, 0.944000044837594, 0.0, 0.0, 0.0, 0.0, 0.0, 1.6483370074067445E9, 0.0, 2022-03-26 18:23:27.406
47.0, 623.1234311172739, 36.15174292167649, 817.5178209641017, 437.88992621190846, -0.01600000075995922, 0.41600001975893974, 0.944000044837594, 0.0, 0.0, 0.0, 0.0, 0.0, 1.6483370074067445E9, 0.0, 2022-03-26 18:23:27.406
48.0, 629.4700413420796, 38.81081179017201, 819.4176901415922, 436.6968981260434, -0.01600000075995922, 0.41600001975893974, 0.944000044837594, 0.0, 0.0, 0.0, 0.0, 0.0, 1.6483370074224958E9, 0.0, 2022-03-26 18:23:27.422
48.0, 636.6319497572258, 50.92434774665162, 829.2162280254997, 455.75168840028346, -0.01600000075995922, 0.41600001975893974, 0.944000044837594, 0.0, 0.0, 0.0, 0.0, 0.0, 1.6483370074224958E9, 0.0, 2022-03-26 18:23:27.422
49.0, 630.8014457263052, 45.58751050988212, 830.2110414137132, 457.94700967427343, -0.01600000075995922, 0.41600001975893974, 0.944000044837594, 0.0, 0.0, 0.0, 0.0, 0.0, 1.6483370074231677E9, 0.0, 2022-03-26 18:23:27.423
49.0, 614.94426991418, 30.927102683577687, 824.3954969826154, 448.04375459160656, -0.01600000075995922, 0.41600001975893974, 0.944000044837594, 0.0, 0.0, 0.0, 0.0, 0.0, 1.6483370074231677E9, 0.0, 2022-03-26 18:23:27.423
50.0, 618.2989601744339, 48.56821077456698, 837.4178286283277, 455.68437020108104, -0.01600000075995922, 0.41600001975893974, 0.9120000433176756, 0.0, 0.0, 0.0, 0.0, 0.0, 1.6483370074367375E9, 0.0, 2022-03-26 18:23:27.436
50.0, 645.8657627478242, 66.54216996161267, 858.2939501809888, 469.0058938432485, -0.01600000075995922, 0.41600001975893974, 0.9120000433176756, 0.0, 0.0, 0.0, 0.0, 0.0, 1.6483370074367375E9, 0.0, 2022-03-26 18:23:27.436
51.0, 583.7123653842136, 8.446564049925655, 797.9768436956219, 418.29659034404904, -0.01600000075995922, 0.3840000182390213, 0.9120000433176756, 0.0, 0.0, 0.0, 0.0, 0.0, 1.64833700746781E9, 0.0, 2022-03-26 18:23:27.467
51.0, 607.8010609988123, 35.73661402659491, 822.2263550083153, 431.2366441907361, -0.01600000075995922, 0.3840000182390213, 0.9120000433176756, 0.0, 0.0, 0.0, 0.0, 0.0, 1.64833700746781E9, 0.0, 2022-03-26 18:23:27.467
52.0, 611.6494180532172, 36.660369315650314, 824.4067166824825, 438.9221385996789, -0.03200000151991844, 0.3840000182390213, 0.9120000433176756, 0.0, 0.0, 0.0, 0.0, 0.0, 1.648337007468537E9, 0.0, 2022-03-26 18:23:27.468
52.0, 618.3961975732818, 46.76557899592444, 836.5688713383861, 455.94616319797933, -0.03200000151991844, 0.3840000182390213, 0.9120000433176756, 0.0, 0.0, 0.0, 0.0, 0.0, 1.648337007468537E9, 0.0, 2022-03-26 18:23:27.468
53.0, 623.1982291163877, 60.90614072838798, 842.0366050736047, 460.88283113949, -0.03200000151991844, 0.3840000182390213, 0.9120000433176756, 0.0, 0.0, 0.0, 0.0, 0.0, 1.648337007499428E9, 0.0, 2022-03-26 18:23:27.499
53.0, 595.4219921454787, 21.46515579568222, 802.7900949385948, 433.37960686534643, -0.03200000151991844, 0.3840000182390213, 0.9120000433176756, 0.0, 0.0, 0.0, 0.0, 0.0, 1.648337007499428E9, 0.0, 2022-03-26 18:23:27.499
54.0, 612.9920421373099, 50.03799145715311, 836.9428613339551, 440.6125733796507, -0.03200000151991844, 0.3840000182390213, 0.9120000433176756, 0.0, 0.0, 0.0, 0.0, 0.0, 1.6483370075002067E9, 0.0, 2022-03-26 18:23:27.500
54.0, 602.1687716655433, 30.164163092616946, 811.773334632162, 433.36838716547936, -0.03200000151991844, 0.3840000182390213, 0.9120000433176756, 0.0, 0.0, 0.0, 0.0, 0.0, 1.6483370075002067E9, 0.0, 2022-03-26 18:23:27.500
55.0, 644.4633002644405, 71.78550969948992, 869.4687712485902, 440.30216168332845, -0.03200000151991844, 0.3840000182390213, 0.9120000433176756, 0.0, 0.0, 0.0, 0.0, 0.0, 1.648337007500918E9, 0.0, 2022-03-26 18:23:27.500
55.0, 608.5640005897731, 37.34477100754157, 840.477066792082, 443.5446549449116, -0.03200000151991844, 0.3840000182390213, 0.9120000433176756, 0.0, 0.0, 0.0, 0.0, 0.0, 1.648337007500918E9, 0.0, 2022-03-26 18:23:27.500
56.0, 599.8126346934587, 33.87040394870564, 815.1691637919284, 415.43930677790195, -0.03200000151991844, 0.3840000182390213, 0.9120000433176756, 0.0, 0.0, 0.0, 0.0, 0.0, 1.648337007501683E9, 0.0, 2022-03-26 18:23:27.501
56.0, 616.0400606011972, 46.90769519424066, 831.6209836970083, 421.84575540199876, -0.03200000151991844, 0.3840000182390213, 0.9120000433176756, 0.0, 0.0, 0.0, 0.0, 0.0, 1.648337007501683E9, 0.0, 2022-03-26 18:23:27.501
57.0, 611.4923422550783, 49.28627156605944, 824.7246081787162, 426.6739662447944, -0.03200000151991844, 0.3840000182390213, 0.9120000433176756, 0.0, 0.0, 0.0, 0.0, 0.0, 1.6483370075123878E9, 0.0, 2022-03-26 18:23:27.512
57.0, 634.3655703840777, 70.73085791198537, 846.2215531240217, 446.5889335088432, -0.03200000151991844, 0.3840000182390213, 0.9120000433176756, 0.0, 0.0, 0.0, 0.0, 0.0, 1.6483370075123878E9, 0.0, 2022-03-26 18:23:27.512
58.0, 631.1941352216527, 68.47195833874866, 837.3168513295241, 448.062454091385, -0.03200000151991844, 0.3840000182390213, 0.9120000433176756, 0.0, 0.0, 0.0, 0.0, 0.0, 1.6483370075131648E9, 0.0, 2022-03-26 18:23:27.513
58.0, 625.5917650880292, 61.91965361637995, 836.8456239351071, 437.6954514142126, -0.03200000151991844, 0.3840000182390213, 0.9120000433176756, 0.0, 0.0, 0.0, 0.0, 0.0, 1.6483370075131648E9, 0.0, 2022-03-26 18:23:27.513
59.0, 619.4209301611409, 51.459153440315276, 838.3677632170729, 415.3757284786552, -0.03200000151991844, 0.3840000182390213, 0.9120000433176756, 0.0, 0.0, 0.0, 0.0, 0.0, 1.6483370075267713E9, 0.0, 2022-03-26 18:23:27.526
59.0, 617.7005761815235, 48.291458177845925, 833.2216608780436, 393.0709651429206, -0.03200000151991844, 0.3840000182390213, 0.9120000433176756, 0.0, 0.0, 0.0, 0.0, 0.0, 1.6483370075267713E9, 0.0, 2022-03-26 18:23:27.526
60.0, 608.1713110944256, 44.630096121225506, 830.4017763114534, 387.1058247135952, -0.03200000151991844, 0.3840000182390213, 0.8960000425577164, 0.0, 0.0, 0.0, 0.0, 0.0, 1.6483370075424376E9, 0.0, 2022-03-26 18:23:27.542
60.0, 618.2578212749213, 58.0825162618421, 838.7941118120216, 389.53675968479365, -0.03200000151991844, 0.3840000182390213, 0.8960000425577164, 0.0, 0.0, 0.0, 0.0, 0.0, 1.6483370075424376E9, 0.0, 2022-03-26 18:23:27.542
61.0, 616.1335581000894, 55.924593987409025, 843.7906181528233, 388.2577138999477, -0.03200000151991844, 0.4480000212788582, 0.8960000425577164, 0.0, 0.0, 0.0, 0.0, 0.0, 1.648337007543131E9, 0.0, 2022-03-26 18:23:27.543
61.0, 617.1321113882586, 57.42055396968499, 839.0820841086097, 374.1134122675285, -0.03200000151991844, 0.4480000212788582, 0.8960000425577164, 0.0, 0.0, 0.0, 0.0, 0.0, 1.648337007543131E9, 0.0, 2022-03-26 18:23:27.543
62.0, 622.6671633226797, 67.07323575532064, 853.828509633895, 385.27327373530716, 0.0, 0.4480000212788582, 0.8960000425577164, 0.0, 0.0, 0.0, 0.0, 0.0, 1.6483370075567327E9, 0.0, 2022-03-26 18:23:27.556
62.0, 607.382192203775, 61.130534725729376, 840.2302333950065, 370.3548128120601, 0.0, 0.4480000212788582, 0.8960000425577164, 0.0, 0.0, 0.0, 0.0, 0.0, 1.6483370075567327E9, 0.0, 2022-03-26 18:23:27.556
63.0, 624.9784214952961, 79.9459714028053, 872.6701256106608, 396.5303726019338, 0.0, 0.4480000212788582, 0.8960000425577164, 0.0, 0.0, 0.0, 0.0, 0.0, 1.6483370075724728E9, 0.0, 2022-03-26 18:23:27.572
63.0, 608.455543491058, 63.33333579963073, 854.684946723748, 384.27846034709364, 0.0, 0.4480000212788582, 0.8960000425577164, 0.0, 0.0, 0.0, 0.0, 0.0, 1.6483370075724728E9, 0.0, 2022-03-26 18:23:27.572
64.0, 612.4946354432032, 62.97804530384019, 863.6494869175367, 374.93245035782456, 0.0, 0.4480000212788582, 0.8960000425577164, 0.0, 0.0, 0.0, 0.0, 0.0, 1.6483370075731583E9, 0.0, 2022-03-26 18:23:27.573
64.0, 641.7144737970084, 90.90013837302104, 896.9757354226895, 403.7932583158836, 0.0, 0.4480000212788582, 0.8960000425577164, 0.0, 0.0, 0.0, 0.0, 0.0, 1.6483370075731583E9, 0.0, 2022-03-26 18:23:27.573
65.0, 631.5943045169115, 79.5383223076351, 877.0495484587736, 384.64123064279556, 0.0, 0.4480000212788582, 0.8960000425577164, 0.0, 0.0, 0.0, 0.0, 0.0, 1.64833700758674E9, 0.0, 2022-03-26 18:23:27.586
65.0, 612.1505646472797, 72.77284328779206, 869.3603141498752, 373.08493977971375, 0.0, 0.4480000212788582, 0.8960000425577164, 0.0, 0.0, 0.0, 0.0, 0.0, 1.64833700758674E9, 0.0, 2022-03-26 18:23:27.586
66.0, 629.3653241433203, 87.83342040935531, 885.3596061603166, 371.6525580966845, 0.0, 0.4480000212788582, 0.8960000425577164, 0.0, 0.0, 0.0, 0.0, 0.0, 1.648337007602397E9, 0.0, 2022-03-26 18:23:27.602
66.0, 635.9886869648471, 100.1414311635308, 900.9624687754549, 371.7385757956654, 0.0, 0.4480000212788582, 0.8960000425577164, 0.0, 0.0, 0.0, 0.0, 0.0, 1.648337007602397E9, 0.0, 2022-03-26 18:23:27.602
67.0, 638.7562129320577, 92.93838384887204, 894.7579747489654, 373.1036392794922, 0.0, 0.4480000212788582, 0.8960000425577164, 0.0, 0.0, 0.0, 0.0, 0.0, 1.6483370076032195E9, 0.0, 2022-03-26 18:23:27.603
67.0, 629.6383368400857, 85.33142733899876, 887.453950135503, 375.4784757513553, 0.0, 0.4480000212788582, 0.8960000425577164, 0.0, 0.0, 0.0, 0.0, 0.0, 1.6483370076032195E9, 0.0, 2022-03-26 18:23:27.603
68.0, 620.3446854501963, 71.84160819882527, 860.2012991583906, 360.9153053238988, 0.0, 0.4480000212788582, 0.8960000425577164, 0.0, 0.0, 0.0, 0.0, 0.0, 1.648337007616734E9, 0.0, 2022-03-26 18:23:27.616
68.0, 625.8086792854592, 70.07637541973963, 862.6397139295004, 364.9955361755565, 0.0, 0.4480000212788582, 0.8960000425577164, 0.0, 0.0, 0.0, 0.0, 0.0, 1.648337007616734E9, 0.0, 2022-03-26 18:23:27.616
69.0, 653.768171354197, 97.93489018967375, 893.3704718654044, 393.1457631420344, 0.0, 0.4480000212788582, 0.8960000425577164, 0.0, 0.0, 0.0, 0.0, 0.0, 1.6483370076324058E9, 0.0, 2022-03-26 18:23:27.632
69.0, 628.5949047524482, 82.00291637843475, 878.878359537106, 373.6683641728014, 0.0, 0.4480000212788582, 0.8960000425577164, 0.0, 0.0, 0.0, 0.0, 0.0, 1.6483370076324058E9, 0.0, 2022-03-26 18:23:27.632
70.0, 651.2063398845494, 102.07869934057817, 904.0703256386332, 393.0373060433194, 0.0, 0.4480000212788582, 0.944000044837594, 0.0, 0.0, 0.0, 0.0, 0.0, 1.6483370076331317E9, 0.0, 2022-03-26 18:23:27.633
70.0, 671.2222844474018, 120.96893401676789, 917.4853467796929, 427.78471653163433, 0.0, 0.4480000212788582, 0.944000044837594, 0.0, 0.0, 0.0, 0.0, 0.0, 1.6483370076331317E9, 0.0, 2022-03-26 18:23:27.633
71.0, 640.8206377075985, 94.98036922467873, 898.7821071012877, 396.94176159705967, 0.0, 0.33600001595914364, 0.944000044837594, 0.0, 0.0, 0.0, 0.0, 0.0, 1.648337007646738E9, 0.0, 2022-03-26 18:23:27.646
71.0, 651.2699181837961, 102.69204293331131, 904.7023687311448, 392.31176545191556, 0.0, 0.33600001595914364, 0.944000044837594, 0.0, 0.0, 0.0, 0.0, 0.0, 1.648337007646738E9, 0.0, 2022-03-26 18:23:27.646
72.0, 652.3881482705474, 101.2147824508138, 902.0769589622505, 393.5945511367172, -0.03200000151991844, 0.33600001595914364, 0.944000044837594, 0.0, 0.0, 0.0, 0.0, 0.0, 1.6483370076624353E9, 0.0, 2022-03-26 18:23:27.662
72.0, 640.7533195083961, 93.97059623664245, 887.7269628322683, 394.2976523283869, -0.03200000151991844, 0.33600001595914364, 0.944000044837594, 0.0, 0.0, 0.0, 0.0, 0.0, 1.6483370076624353E9, 0.0, 2022-03-26 18:23:27.662
73.0, 648.2181598199531, 109.0349132581614, 901.8787442645989, 413.8909881962463, -0.03200000151991844, 0.33600001595914364, 0.944000044837594, 0.0, 0.0, 0.0, 0.0, 0.0, 1.6483370076631503E9, 0.0, 2022-03-26 18:23:27.663
73.0, 654.6096488442272, 112.39334341837093, 899.3318723947741, 428.48781772330403, -0.03200000151991844, 0.33600001595914364, 0.944000044837594, 0.0, 0.0, 0.0, 0.0, 0.0, 1.6483370076631503E9, 0.0, 2022-03-26 18:23:27.663
74.0, 643.4086484769359, 92.99448234820738, 884.8434999664314, 410.0014922423288, -0.03200000151991844, 0.33600001595914364, 0.944000044837594, 0.0, 0.0, 0.0, 0.0, 0.0, 1.6483370077094448E9, 0.0, 2022-03-26 18:23:27.709
74.0, 634.6385830808431, 80.649072594475, 873.6125803994946, 396.45931450277567, -0.03200000151991844, 0.33600001595914364, 0.944000044837594, 0.0, 0.0, 0.0, 0.0, 0.0, 1.6483370077094448E9, 0.0, 2022-03-26 18:23:27.709
