%OpenBCI Raw EEG Data
%Number of channels = 4
%Sample Rate = 200 Hz
%Board = OpenBCI_GUI$BoardGanglionBLE
Sample Index, EXG Channel 0, EXG Channel 1, EXG Channel 2, EXG Channel 3, Accel Channel 0, Accel Channel 1, Accel Channel 2, Other, Other, Other, Other, Other, Timestamp, Other, Timestamp (Formatted)
0.0, 1058.9395828037523, 944.9642617041245, 632.8228616523556, 922.429494521115, 0.0, 0.0, 0.0, 0.0, 0.0, 0.0, 0.0, 0.0, 1.6450614281083162E9, 0.0, 2022-02-16 19:30:28.108
1.0, 1063.2890864522196, 937.4994213925675, 620.4550124988891, 957.2255237088539, 0.0, 0.09600000455975533, 0.0, 0.0, 0.0, 0.0, 0.0, 0.0, 1.6450614281217031E9, 0.0, 2022-02-16 19:30:28.121
1.0, 1030.4004062418826, 948.9285556571558, 629.4232925926335, 923.9703333028592, 0.0, 0.09600000455975533, 0.0, 0.0, 0.0, 0.0, 0.0, 0.0, 1.6450614281217031E9, 0.0, 2022-02-16 19:30:28.121
2.0, 1035.0790210864507, 951.4081093277782, 626.6146277259104, 865.6952121932991, 0.09600000455975533, 0.09600000455975533, 0.0, 0.0, 0.0, 0.0, 0.0, 0.0, 1.6450614281383097E9, 0.0, 2022-02-16 19:30:28.138
2.0, 1041.3209141124971, 931.6763971615583, 614.1308416738175, 934.550510277506, 0.09600000455975533, 0.09600000455975533, 0.0, 0.0, 0.0, 0.0, 0.0, 0.0, 1.6450614281383097E9, 0.0, 2022-02-16 19:30:28.138
3.0, 1053.707462765742, 943.9619685159996, 620.5485099977814, 937.5947888414375, 0.09600000455975533, 0.09600000455975533, 0.0, 0.0, 0.0, 0.0, 0.0, 0.0, 1.6450614281392148E9, 0.0, 2022-02-16 19:30:28.139
3.0, 1046.870925646741, 956.1241231719032, 626.872680822853, 892.5701332748868, 0.09600000455975533, 0.09600000455975533, 0.0, 0.0, 0.0, 0.0, 0.0, 0.0, 1.6450614281392148E9, 0.0, 2022-02-16 19:30:28.139
4.0, 1045.2253696662374, 952.3730035163462, 618.8431156179868, 971.8784517352469, 0.09600000455975533, 0.09600000455975533, 0.0, 0.0, 0.0, 0.0, 0.0, 0.0, 1.6450614281514945E9, 0.0, 2022-02-16 19:30:28.151
4.0, 1038.6356659443118, 948.8948965575546, 616.5916958446614, 1000.3989287973382, 0.09600000455975533, 0.09600000455975533, 0.0, 0.0, 0.0, 0.0, 0.0, 0.0, 1.6450614281514945E9, 0.0, 2022-02-16 19:30:28.151
5.0, 1057.858751716558, 960.7428996171802, 632.5386292557232, 976.4710488808341, 0.09600000455975533, 0.09600000455975533, 0.0, 0.0, 0.0, 0.0, 0.0, 0.0, 1.6450614281671708E9, 0.0, 2022-02-16 19:30:28.167
5.0, 1026.2865162906237, 948.2740731649101, 631.9402452628128, 939.2627842216752, 0.09600000455975533, 0.09600000455975533, 0.0, 0.0, 0.0, 0.0, 0.0, 0.0, 1.6450614281671708E9, 0.0, 2022-02-16 19:30:28.167
6.0, 1065.7873396226205, 926.530294822529, 616.2289255489595, 952.0345425703563, 0.09600000455975533, 0.09600000455975533, 0.0, 0.0, 0.0, 0.0, 0.0, 0.0, 1.6450614281678686E9, 0.0, 2022-02-16 19:30:28.167
6.0, 1070.1368432710879, 944.6575899077579, 631.973904362414, 768.2184597481973, 0.09600000455975533, 0.09600000455975533, 0.0, 0.0, 0.0, 0.0, 0.0, 0.0, 1.6450614281678686E9, 0.0, 2022-02-16 19:30:28.167
7.0, 1087.7966508618556, 948.5583055615425, 631.2595834708773, 894.5747196511365, 0.09600000455975533, 0.09600000455975533, 0.0, 0.0, 0.0, 0.0, 0.0, 0.0, 1.6450614281814613E9, 0.0, 2022-02-16 19:30:28.181
7.0, 1067.2795597049408, 939.133757673204, 613.5174980810843, 896.2913337307982, 0.09600000455975533, 0.09600000455975533, 0.0, 0.0, 0.0, 0.0, 0.0, 0.0, 1.6450614281814613E9, 0.0, 2022-02-16 19:30:28.181
8.0, 987.9151427452452, 942.896097028628, 625.2495642420836, 922.7436461173929, 0.09600000455975533, 0.09600000455975533, 0.0, 0.0, 0.0, 0.0, 0.0, 0.0, 1.6450614282135055E9, 0.0, 2022-02-16 19:30:28.213
8.0, 1036.619859868195, 955.9371281741187, 637.9652240914293, 953.43700505374, 0.09600000455975533, 0.09600000455975533, 0.0, 0.0, 0.0, 0.0, 0.0, 0.0, 1.6450614282135055E9, 0.0, 2022-02-16 19:30:28.213
9.0, 1061.9315027683042, 933.2321955431253, 621.3189293886535, 902.1293175616302, 0.09600000455975533, 0.09600000455975533, 0.0, 0.0, 0.0, 0.0, 0.0, 0.0, 1.6450614282142143E9, 0.0, 2022-02-16 19:30:28.214
9.0, 1061.9015835686587, 934.6234383266419, 634.4123191335239, 938.9149735257961, 0.09600000455975533, 0.09600000455975533, 0.0, 0.0, 0.0, 0.0, 0.0, 0.0, 1.6450614282142143E9, 0.0, 2022-02-16 19:30:28.214
10.0, 1061.6547501715831, 947.140883478336, 639.1395526775159, 946.9520185305737, 0.09600000455975533, 0.09600000455975533, 0.5120000243186951, 0.0, 0.0, 0.0, 0.0, 0.0, 1.645061428214968E9, 0.0, 2022-02-16 19:30:28.214
10.0, 987.1297637545504, 952.0887711197138, 634.0458089378662, 1039.4958429341204, 0.09600000455975533, 0.09600000455975533, 0.5120000243186951, 0.0, 0.0, 0.0, 0.0, 0.0, 1.645061428214968E9, 0.0, 2022-02-16 19:30:28.214
11.0, 1034.9743038876913, 941.2991597475484, 626.4351125280373, 855.0028382199816, 0.09600000455975533, 0.04800000227987766, 0.5120000243186951, 0.0, 0.0, 0.0, 0.0, 0.0, 1.6450614282157278E9, 0.0, 2022-02-16 19:30:28.215
11.0, 1085.2609986918978, 960.3315106220543, 642.3633464393206, 911.273372953292, 0.09600000455975533, 0.04800000227987766, 0.5120000243186951, 0.0, 0.0, 0.0, 0.0, 0.0, 1.6450614282157278E9, 0.0, 2022-02-16 19:30:28.215
12.0, 1064.6204908364452, 949.2389673534781, 633.1183137488551, 965.4383440115489, 0.04800000227987766, 0.04800000227987766, 0.5120000243186951, 0.0, 0.0, 0.0, 0.0, 0.0, 1.6450614282423294E9, 0.0, 2022-02-16 19:30:28.242
12.0, 1064.3063392401673, 949.758813447319, 623.1178212673403, 920.0097792497836, 0.04800000227987766, 0.04800000227987766, 0.5120000243186951, 0.0, 0.0, 0.0, 0.0, 0.0, 1.6450614282423294E9, 0.0, 2022-02-16 19:30:28.242
13.0, 1005.5562508362345, 935.9511028109118, 625.1261475435458, 932.6917799995281, 0.04800000227987766, 0.04800000227987766, 0.5120000243186951, 0.0, 0.0, 0.0, 0.0, 0.0, 1.6450614282428896E9, 0.0, 2022-02-16 19:30:28.242
13.0, 1081.0760506414808, 961.4534806087613, 643.3282406278886, 975.8614451880567, 0.04800000227987766, 0.04800000227987766, 0.5120000243186951, 0.0, 0.0, 0.0, 0.0, 0.0, 1.6450614282428896E9, 0.0, 2022-02-16 19:30:28.242
14.0, 1133.35611212207, 959.9276014268398, 636.7273172060959, 866.6414068820886, 0.04800000227987766, 0.04800000227987766, 0.5120000243186951, 0.0, 0.0, 0.0, 0.0, 0.0, 1.6450614282573545E9, 0.0, 2022-02-16 19:30:28.257
14.0, 1012.9537729485892, 943.6702563194558, 629.8533810875379, 960.4455775707029, 0.04800000227987766, 0.04800000227987766, 0.5120000243186951, 0.0, 0.0, 0.0, 0.0, 0.0, 1.6450614282573545E9, 0.0, 2022-02-16 19:30:28.257
15.0, 1011.2820376683958, 966.3527495507151, 651.0286946366541, 1000.0324186016805, 0.04800000227987766, 0.04800000227987766, 0.5120000243186951, 0.0, 0.0, 0.0, 0.0, 0.0, 1.6450614282578363E9, 0.0, 2022-02-16 19:30:28.257
15.0, 1084.3035843032412, 959.7032074294984, 644.300614616368, 915.3797831046395, 0.04800000227987766, 0.04800000227987766, 0.5120000243186951, 0.0, 0.0, 0.0, 0.0, 0.0, 1.6450614282578363E9, 0.0, 2022-02-16 19:30:28.257
16.0, 1057.9634689153172, 938.1239846851677, 633.0435157497413, 947.9655314185657, 0.04800000227987766, 0.04800000227987766, 0.5120000243186951, 0.0, 0.0, 0.0, 0.0, 0.0, 1.6450614282714467E9, 0.0, 2022-02-16 19:30:28.271
16.0, 1011.6597675639205, 954.7627995880321, 645.9611301966943, 986.374303963501, 0.04800000227987766, 0.04800000227987766, 0.5120000243186951, 0.0, 0.0, 0.0, 0.0, 0.0, 1.6450614282714467E9, 0.0, 2022-02-16 19:30:28.271
17.0, 1114.5144961453043, 965.7955044573173, 642.4231848386116, 983.8311719936319, 0.04800000227987766, 0.04800000227987766, 0.5120000243186951, 0.0, 0.0, 0.0, 0.0, 0.0, 1.6450614282871487E9, 0.0, 2022-02-16 19:30:28.287
17.0, 1035.6848848792724, 959.9463009266183, 624.9167131460272, 981.755527518224, 0.04800000227987766, 0.04800000227987766, 0.5120000243186951, 0.0, 0.0, 0.0, 0.0, 0.0, 1.6450614282871487E9, 0.0, 2022-02-16 19:30:28.287
18.0, 983.7750734942965, 960.4212682209909, 643.0178289315663, 914.0259393206798, 0.04800000227987766, 0.04800000227987766, 0.5120000243186951, 0.0, 0.0, 0.0, 0.0, 0.0, 1.64506142828803E9, 0.0, 2022-02-16 19:30:28.288
18.0, 1036.0925339744426, 966.2555121518672, 645.216890105512, 972.1439846321009, 0.04800000227987766, 0.04800000227987766, 0.5120000243186951, 0.0, 0.0, 0.0, 0.0, 0.0, 1.64506142828803E9, 0.0, 2022-02-16 19:30:28.288
19.0, 1066.0416528196074, 946.9875475801528, 631.4839774682187, 964.2714952253737, 0.04800000227987766, 0.04800000227987766, 0.5120000243186951, 0.0, 0.0, 0.0, 0.0, 0.0, 1.645061428301407E9, 0.0, 2022-02-16 19:30:28.301
19.0, 1080.941414243076, 942.3463317351416, 635.3472941224463, 1017.7670241915621, 0.04800000227987766, 0.04800000227987766, 0.5120000243186951, 0.0, 0.0, 0.0, 0.0, 0.0, 1.645061428301407E9, 0.0, 2022-02-16 19:30:28.301
20.0, 1044.5634073740803, 956.0455852728337, 643.9079251210205, 995.5220992551185, 0.04800000227987766, 0.04800000227987766, 0.7680000364780426, 0.0, 0.0, 0.0, 0.0, 0.0, 1.6450614283172436E9, 0.0, 2022-02-16 19:30:28.317
20.0, 1056.1533573367633, 953.6408296013251, 635.4071325217374, 967.9291173820384, 0.04800000227987766, 0.04800000227987766, 0.7680000364780426, 0.0, 0.0, 0.0, 0.0, 0.0, 1.6450614283172436E9, 0.0, 2022-02-16 19:30:28.317
21.0, 975.0760661973618, 947.5260931737721, 627.7141583128832, 937.4377130432986, 0.04800000227987766, 0.06400000303983688, 0.7680000364780426, 0.0, 0.0, 0.0, 0.0, 0.0, 1.6450614283177807E9, 0.0, 2022-02-16 19:30:28.317
21.0, 1009.1802138932981, 965.7880246574059, 647.6328654768877, 885.4531036592089, 0.04800000227987766, 0.06400000303983688, 0.7680000364780426, 0.0, 0.0, 0.0, 0.0, 0.0, 1.6450614283177807E9, 0.0, 2022-02-16 19:30:28.317
22.0, 1009.7524185865186, 949.2913259528577, 648.8520728624426, 836.3519571409561, 0.06400000303983688, 0.06400000303983688, 0.7680000364780426, 0.0, 0.0, 0.0, 0.0, 0.0, 1.6450614283314211E9, 0.0, 2022-02-16 19:30:28.331
22.0, 1023.231018026825, 949.1155506549403, 640.7701490581967, 935.575242865365, 0.06400000303983688, 0.06400000303983688, 0.7680000364780426, 0.0, 0.0, 0.0, 0.0, 0.0, 1.6450614283314211E9, 0.0, 2022-02-16 19:30:28.331
23.0, 1026.054642493371, 952.9639077093452, 642.5653010369278, 928.1590212532319, 0.06400000303983688, 0.06400000303983688, 0.7680000364780426, 0.0, 0.0, 0.0, 0.0, 0.0, 1.6450614283472545E9, 0.0, 2022-02-16 19:30:28.347
23.0, 1065.046839431394, 961.3637230098248, 645.8302336982451, 956.7505564144813, 0.06400000303983688, 0.06400000303983688, 0.7680000364780426, 0.0, 0.0, 0.0, 0.0, 0.0, 1.6450614283472545E9, 0.0, 2022-02-16 19:30:28.347
24.0, 1051.8337728879414, 958.5326187433675, 634.3786600339226, 915.7201140006073, 0.06400000303983688, 0.06400000303983688, 0.7680000364780426, 0.0, 0.0, 0.0, 0.0, 0.0, 1.6450614283477623E9, 0.0, 2022-02-16 19:30:28.347
24.0, 970.1319184559397, 959.4152351329103, 635.0406223260798, 890.6066857981496, 0.06400000303983688, 0.06400000303983688, 0.7680000364780426, 0.0, 0.0, 0.0, 0.0, 0.0, 1.6450614283477623E9, 0.0, 2022-02-16 19:30:28.347
25.0, 970.2927341540344, 956.9955198615789, 654.611518794205, 929.6961201350205, 0.06400000303983688, 0.06400000303983688, 0.7680000364780426, 0.0, 0.0, 0.0, 0.0, 0.0, 1.6450614283615603E9, 0.0, 2022-02-16 19:30:28.361
25.0, 1016.3421223084442, 943.329925423488, 639.1657319772057, 963.2766818371601, 0.06400000303983688, 0.06400000303983688, 0.7680000364780426, 0.0, 0.0, 0.0, 0.0, 0.0, 1.6450614283615603E9, 0.0, 2022-02-16 19:30:28.361
26.0, 1057.6717567187734, 950.6975283361971, 631.6597527661361, 941.689979292918, 0.06400000303983688, 0.06400000303983688, 0.7680000364780426, 0.0, 0.0, 0.0, 0.0, 0.0, 1.6450614283772445E9, 0.0, 2022-02-16 19:30:28.377
26.0, 1135.1924030003138, 952.4777207151055, 645.5497412015684, 920.8998754392378, 0.06400000303983688, 0.06400000303983688, 0.7680000364780426, 0.0, 0.0, 0.0, 0.0, 0.0, 1.6450614283772445E9, 0.0, 2022-02-16 19:30:28.377
27.0, 1017.7969433912076, 952.3804833162576, 649.8618458504789, 924.202207100112, 0.06400000303983688, 0.06400000303983688, 0.7680000364780426, 0.0, 0.0, 0.0, 0.0, 0.0, 1.6450614283778083E9, 0.0, 2022-02-16 19:30:28.377
27.0, 1043.1347655910067, 943.1653698254377, 638.1110801897012, 986.7669934588484, 0.06400000303983688, 0.06400000303983688, 0.7680000364780426, 0.0, 0.0, 0.0, 0.0, 0.0, 1.6450614283778083E9, 0.0, 2022-02-16 19:30:28.377
28.0, 990.1329034189694, 948.9248157572001, 644.0874403188936, 949.0688019054942, 0.06400000303983688, 0.06400000303983688, 0.7680000364780426, 0.0, 0.0, 0.0, 0.0, 0.0, 1.6450614283914466E9, 0.0, 2022-02-16 19:30:28.391
28.0, 973.0789596210234, 956.1166433719918, 644.2819151165895, 923.3270705104806, 0.06400000303983688, 0.06400000303983688, 0.7680000364780426, 0.0, 0.0, 0.0, 0.0, 0.0, 1.6450614283914466E9, 0.0, 2022-02-16 19:30:28.391
29.0, 1026.5782284871675, 940.966308651492, 631.9664245625027, 982.8026995058171, 0.06400000303983688, 0.06400000303983688, 0.7680000364780426, 0.0, 0.0, 0.0, 0.0, 0.0, 1.6450614284071813E9, 0.0, 2022-02-16 19:30:28.407
29.0, 1003.6264624590985, 938.759767677635, 634.9321652273647, 1045.1730110668577, 0.06400000303983688, 0.06400000303983688, 0.7680000364780426, 0.0, 0.0, 0.0, 0.0, 0.0, 1.6450614284071813E9, 0.0, 2022-02-16 19:30:28.407
30.0, 1089.7413988388143, 940.6783363549039, 649.0652471599169, 1152.7063544928096, 0.06400000303983688, 0.06400000303983688, 0.8800000417977571, 0.0, 0.0, 0.0, 0.0, 0.0, 1.6450614284077356E9, 0.0, 2022-02-16 19:30:28.407
30.0, 1055.468955644872, 950.241260541603, 642.4119651387446, 1199.2830685409717, 0.06400000303983688, 0.06400000303983688, 0.8800000417977571, 0.0, 0.0, 0.0, 0.0, 0.0, 1.6450614284077356E9, 0.0, 2022-02-16 19:30:28.407
31.0, 1138.4535957616754, 941.7666472420096, 626.6744661252014, 1303.6374970045872, 0.06400000303983688, 0.0800000037997961, 0.8800000417977571, 0.0, 0.0, 0.0, 0.0, 0.0, 1.645061428421419E9, 0.0, 2022-02-16 19:30:28.421
31.0, 1218.3976972145028, 946.9613682804629, 639.8912725686096, 1369.7664080210961, 0.06400000303983688, 0.0800000037997961, 0.8800000417977571, 0.0, 0.0, 0.0, 0.0, 0.0, 1.645061428421419E9, 0.0, 2022-02-16 19:30:28.421
32.0, 1208.75997502869, 936.575666103512, 635.4146123216487, 1381.6518100802787, 0.0800000037997961, 0.0800000037997961, 0.8800000417977571, 0.0, 0.0, 0.0, 0.0, 0.0, 1.6450614284370468E9, 0.0, 2022-02-16 19:30:28.437
32.0, 1186.18219899619, 929.1557045914233, 624.4417458516546, 1157.8075780323707, 0.0800000037997961, 0.0800000037997961, 0.8800000417977571, 0.0, 0.0, 0.0, 0.0, 0.0, 1.6450614284370468E9, 0.0, 2022-02-16 19:30:28.437
33.0, 1092.4266470069997, 923.7814683550969, 629.9431386864744, 965.5243617105298, 0.0800000037997961, 0.0800000037997961, 0.8800000417977571, 0.0, 0.0, 0.0, 0.0, 0.0, 1.6450614284377906E9, 0.0, 2022-02-16 19:30:28.437
33.0, 1210.5476472075097, 931.3959046648815, 627.7141583128832, 875.0000832830556, 0.0800000037997961, 0.0800000037997961, 0.8800000417977571, 0.0, 0.0, 0.0, 0.0, 0.0, 1.6450614284377906E9, 0.0, 2022-02-16 19:30:28.437
34.0, 1167.2545653204434, 934.309286730364, 625.7918497356586, 638.9263783800416, 0.0800000037997961, 0.0800000037997961, 0.8800000417977571, 0.0, 0.0, 0.0, 0.0, 0.0, 1.6450614284677377E9, 0.0, 2022-02-16 19:30:28.467
34.0, 1135.8842844921164, 926.2946811253205, 632.1496796603315, 587.772026786115, 0.0800000037997961, 0.0800000037997961, 0.8800000417977571, 0.0, 0.0, 0.0, 0.0, 0.0, 1.6450614284677377E9, 0.0, 2022-02-16 19:30:28.467
35.0, 1052.080606285017, 944.3883171109483, 648.6014995654114, 713.4775440967642, 0.0800000037997961, 0.0800000037997961, 0.8800000417977571, 0.0, 0.0, 0.0, 0.0, 0.0, 1.64506142846846E9, 0.0, 2022-02-16 19:30:28.468
35.0, 1074.669602017384, 947.4587749745697, 637.0676481020637, 728.784954615403, 0.0800000037997961, 0.0800000037997961, 0.8800000417977571, 0.0, 0.0, 0.0, 0.0, 0.0, 1.64506142846846E9, 0.0, 2022-02-16 19:30:28.468
36.0, 1051.4672626922838, 940.5698792561889, 632.179598859977, 746.4335425063036, 0.0800000037997961, 0.0800000037997961, 0.8800000417977571, 0.0, 0.0, 0.0, 0.0, 0.0, 1.6450614284692943E9, 0.0, 2022-02-16 19:30:28.469
36.0, 1017.3855543960817, 932.6076322505251, 640.6018535601906, 885.4044849597849, 0.0800000037997961, 0.0800000037997961, 0.8800000417977571, 0.0, 0.0, 0.0, 0.0, 0.0, 1.6450614284692943E9, 0.0, 2022-02-16 19:30:28.469
37.0, 1001.0683708894067, 953.8427841989323, 646.3687792918645, 775.7767975586466, 0.0800000037997961, 0.0800000037997961, 0.8800000417977571, 0.0, 0.0, 0.0, 0.0, 0.0, 1.6450614284814444E9, 0.0, 2022-02-16 19:30:28.481
37.0, 987.4887941502966, 926.855666118674, 627.4224461163394, 867.8419147678651, 0.0800000037997961, 0.0800000037997961, 0.8800000417977571, 0.0, 0.0, 0.0, 0.0, 0.0, 1.6450614284814444E9, 0.0, 2022-02-16 19:30:28.481
38.0, 951.8849465721287, 934.417743829079, 631.3119420702569, 914.1306565194391, 0.0800000037997961, 0.0800000037997961, 0.8800000417977571, 0.0, 0.0, 0.0, 0.0, 0.0, 1.6450614284973447E9, 0.0, 2022-02-16 19:30:28.497
38.0, 1021.1665932512842, 944.5977515084669, 639.5023229732178, 918.195927771274, 0.0800000037997961, 0.0800000037997961, 0.8800000417977571, 0.0, 0.0, 0.0, 0.0, 0.0, 1.6450614284973447E9, 0.0, 2022-02-16 19:30:28.497
39.0, 987.4850542503409, 919.8957123011351, 624.2098720544018, 943.2607372743078, 0.0800000037997961, 0.0800000037997961, 0.8800000417977571, 0.0, 0.0, 0.0, 0.0, 0.0, 1.6450614284978244E9, 0.0, 2022-02-16 19:30:28.497
39.0, 1043.011348892469, 919.7498562028632, 614.0074249752797, 918.2931651701219, 0.0800000037997961, 0.0800000037997961, 0.8800000417977571, 0.0, 0.0, 0.0, 0.0, 0.0, 1.6450614284978244E9, 0.0, 2022-02-16 19:30:28.497
40.0, 971.0257545453496, 947.4512951746583, 629.7561436886899, 972.6900100256316, 0.0800000037997961, 0.0800000037997961, 0.944000044837594, 0.0, 0.0, 0.0, 0.0, 0.0, 1.6450614285114112E9, 0.0, 2022-02-16 19:30:28.511
40.0, 1012.6807602518238, 949.0370127558708, 636.906832403969, 979.1899561486207, 0.0800000037997961, 0.0800000037997961, 0.944000044837594, 0.0, 0.0, 0.0, 0.0, 0.0, 1.6450614285114112E9, 0.0, 2022-02-16 19:30:28.511
41.0, 999.7556660049595, 929.8438461832702, 625.6983522367664, 960.1127264746465, 0.0800000037997961, 0.0800000037997961, 0.944000044837594, 0.0, 0.0, 0.0, 0.0, 0.0, 1.645061428527096E9, 0.0, 2022-02-16 19:30:28.527
41.0, 1074.9575743139721, 934.5187211278826, 629.9319189866073, 994.4637075676583, 0.0800000037997961, 0.0800000037997961, 0.944000044837594, 0.0, 0.0, 0.0, 0.0, 0.0, 1.645061428527096E9, 0.0, 2022-02-16 19:30:28.527
42.0, 958.6728649917059, 929.4025379884988, 631.5138966678642, 1020.1007217639126, 0.0800000037997961, 0.0800000037997961, 0.944000044837594, 0.0, 0.0, 0.0, 0.0, 0.0, 1.645061428527773E9, 0.0, 2022-02-16 19:30:28.527
42.0, 925.0362047902308, 927.229656114243, 627.2541506183334, 978.8571050525643, 0.0800000037997961, 0.0800000037997961, 0.944000044837594, 0.0, 0.0, 0.0, 0.0, 0.0, 1.645061428527773E9, 0.0, 2022-02-16 19:30:28.527
43.0, 945.7328111450188, 929.3202601894736, 634.543215631973, 923.996512602549, 0.0800000037997961, 0.0800000037997961, 0.944000044837594, 0.0, 0.0, 0.0, 0.0, 0.0, 1.6450614285414507E9, 0.0, 2022-02-16 19:30:28.541
43.0, 946.7949427324347, 935.3788981176913, 632.228217559401, 944.5884017585777, 0.0800000037997961, 0.0800000037997961, 0.944000044837594, 0.0, 0.0, 0.0, 0.0, 0.0, 1.6450614285414507E9, 0.0, 2022-02-16 19:30:28.541
44.0, 1020.6916259569116, 917.2366434326395, 613.8054703776725, 1007.1681477171369, 0.0800000037997961, 0.0800000037997961, 0.944000044837594, 0.0, 0.0, 0.0, 0.0, 0.0, 1.64506142855717E9, 0.0, 2022-02-16 19:30:28.557
44.0, 1000.7579591930844, 919.087893910706, 612.8966746884398, 996.7039076411165, 0.0800000037997961, 0.0800000037997961, 0.944000044837594, 0.0, 0.0, 0.0, 0.0, 0.0, 1.64506142855717E9, 0.0, 2022-02-16 19:30:28.557
45.0, 969.3427995652892, 934.0512336334214, 628.1928655072115, 983.479621397797, 0.0800000037997961, 0.0800000037997961, 0.944000044837594, 0.0, 0.0, 0.0, 0.0, 0.0, 1.6450614285578964E9, 0.0, 2022-02-16 19:30:28.557
45.0, 935.1825533700176, 932.2934806542471, 629.225077894982, 978.2662008595653, 0.0800000037997961, 0.0800000037997961, 0.944000044837594, 0.0, 0.0, 0.0, 0.0, 0.0, 1.6450614285578964E9, 0.0, 2022-02-16 19:30:28.557
46.0, 968.7705948720686, 918.3361740196124, 617.223738937173, 961.7844617548399, 0.0800000037997961, 0.0800000037997961, 0.944000044837594, 0.0, 0.0, 0.0, 0.0, 0.0, 1.6450614285714345E9, 0.0, 2022-02-16 19:30:28.571
46.0, 957.6518723038025, 930.4085710765794, 630.4143660808913, 1018.9712719772942, 0.0800000037997961, 0.0800000037997961, 0.944000044837594, 0.0, 0.0, 0.0, 0.0, 0.0, 1.6450614285714345E9, 0.0, 2022-02-16 19:30:28.571
47.0, 1004.5576975480653, 933.7857007365674, 633.2342506474815, 1039.4995828340761, 0.0800000037997961, 0.0800000037997961, 0.944000044837594, 0.0, 0.0, 0.0, 0.0, 0.0, 1.6450614285872853E9, 0.0, 2022-02-16 19:30:28.587
47.0, 1108.7587901134975, 919.9892098000273, 623.2898566653021, 1028.0592288696207, 0.0800000037997961, 0.0800000037997961, 0.944000044837594, 0.0, 0.0, 0.0, 0.0, 0.0, 1.6450614285872853E9, 0.0, 2022-02-16 19:30:28.587
48.0, 963.5983132333495, 912.1316799931228, 626.221938230563, 1108.6952118142508, 0.0800000037997961, 0.0800000037997961, 0.944000044837594, 0.0, 0.0, 0.0, 0.0, 0.0, 1.6450614285878708E9, 0.0, 2022-02-16 19:30:28.587
48.0, 911.9278554455377, 942.2116953367367, 643.563854325097, 1063.3414450515993, 0.0800000037997961, 0.0800000037997961, 0.944000044837594, 0.0, 0.0, 0.0, 0.0, 0.0, 1.6450614285878708E9, 0.0, 2022-02-16 19:30:28.587
49.0, 999.5237922077067, 939.7284017661586, 630.261030182708, 1016.3720415080898, 0.0800000037997961, 0.0800000037997961, 0.944000044837594, 0.0, 0.0, 0.0, 0.0, 0.0, 1.6450614286168456E9, 0.0, 2022-02-16 19:30:28.616
49.0, 993.1809218828566, 931.208909667097, 630.2161513832398, 1068.640883288812, 0.0800000037997961, 0.0800000037997961, 0.944000044837594, 0.0, 0.0, 0.0, 0.0, 0.0, 1.6450614286168456E9, 0.0, 2022-02-16 19:30:28.616
50.0, 976.2877937830053, 948.7976591587067, 644.9176981090568, 1022.8832073309459, 0.0800000037997961, 0.0800000037997961, 0.9760000463575125, 0.0, 0.0, 0.0, 0.0, 0.0, 1.645061428633582E9, 0.0, 2022-02-16 19:30:28.633
50.0, 1043.2207832899876, 944.7884864062071, 636.8395142047666, 1037.2369433608837, 0.0800000037997961, 0.0800000037997961, 0.9760000463575125, 0.0, 0.0, 0.0, 0.0, 0.0, 1.645061428633582E9, 0.0, 2022-02-16 19:30:28.633
51.0, 990.7425071117468, 934.6870166258886, 630.1862321835943, 1086.790617773775, 0.0800000037997961, 0.09600000455975533, 0.9760000463575125, 0.0, 0.0, 0.0, 0.0, 0.0, 1.6450614286342793E9, 0.0, 2022-02-16 19:30:28.634
51.0, 1019.8090095673688, 934.9824687223881, 628.8211686997674, 1115.1016604383476, 0.0800000037997961, 0.09600000455975533, 0.9760000463575125, 0.0, 0.0, 0.0, 0.0, 0.0, 1.6450614286342793E9, 0.0, 2022-02-16 19:30:28.634
52.0, 942.1312874876894, 957.7659392524511, 646.7016303879209, 1046.7998675475828, 0.0800000037997961, 0.09600000455975533, 0.9760000463575125, 0.0, 0.0, 0.0, 0.0, 0.0, 1.6450614286350243E9, 0.0, 2022-02-16 19:30:28.635
52.0, 997.2013143352233, 937.0730727976188, 629.5541890910827, 1096.7499713557772, 0.0800000037997961, 0.09600000455975533, 0.9760000463575125, 0.0, 0.0, 0.0, 0.0, 0.0, 1.6450614286350243E9, 0.0, 2022-02-16 19:30:28.635
53.0, 1024.2183516151272, 945.1475168019533, 633.2230309476145, 1160.167454904411, 0.0800000037997961, 0.09600000455975533, 0.9760000463575125, 0.0, 0.0, 0.0, 0.0, 0.0, 1.6450614286357586E9, 0.0, 2022-02-16 19:30:28.635
53.0, 1028.960544758942, 943.4421224221587, 639.2442698762752, 1209.096566024702, 0.0800000037997961, 0.09600000455975533, 0.9760000463575125, 0.0, 0.0, 0.0, 0.0, 0.0, 1.6450614286357586E9, 0.0, 2022-02-16 19:30:28.635
54.0, 1001.1431688885204, 934.9824687223881, 622.8597681703977, 1156.476173648145, 0.0800000037997961, 0.09600000455975533, 0.9760000463575125, 0.0, 0.0, 0.0, 0.0, 0.0, 1.64506142864645E9, 0.0, 2022-02-16 19:30:28.646
54.0, 1013.3202831442468, 934.9824687223881, 620.5372902979143, 1220.9819680838846, 0.0800000037997961, 0.09600000455975533, 0.9760000463575125, 0.0, 0.0, 0.0, 0.0, 0.0, 1.64506142864645E9, 0.0, 2022-02-16 19:30:28.646
55.0, 1012.1010757586919, 934.2569281309843, 636.7871556053869, 1238.716573673766, 0.0800000037997961, 0.09600000455975533, 0.9760000463575125, 0.0, 0.0, 0.0, 0.0, 0.0, 1.645061428661443E9, 0.0, 2022-02-16 19:30:28.661
55.0, 1053.9655158626847, 943.8535114172846, 631.6447931663133, 1178.5864621861838, 0.0800000037997961, 0.09600000455975533, 0.9760000463575125, 0.0, 0.0, 0.0, 0.0, 0.0, 1.645061428661443E9, 0.0, 2022-02-16 19:30:28.661
56.0, 995.6903947531246, 941.617051243782, 621.4386061872356, 1159.4643537127413, 0.0800000037997961, 0.09600000455975533, 0.9760000463575125, 0.0, 0.0, 0.0, 0.0, 0.0, 1.645061428677119E9, 0.0, 2022-02-16 19:30:28.677
56.0, 960.4605371705256, 945.3532112995163, 632.4413918568753, 1141.3931571268477, 0.0800000037997961, 0.09600000455975533, 0.9760000463575125, 0.0, 0.0, 0.0, 0.0, 0.0, 1.645061428677119E9, 0.0, 2022-02-16 19:30:28.677
57.0, 978.9468626515009, 938.7859469773248, 629.3522344934754, 1167.5500174169429, 0.0800000037997961, 0.09600000455975533, 0.9760000463575125, 0.0, 0.0, 0.0, 0.0, 0.0, 1.6450614286777086E9, 0.0, 2022-02-16 19:30:28.677
57.0, 1003.1253158650361, 916.7915953379124, 618.6075019207783, 1173.5974356452934, 0.0800000037997961, 0.09600000455975533, 0.9760000463575125, 0.0, 0.0, 0.0, 0.0, 0.0, 1.6450614286777086E9, 0.0, 2022-02-16 19:30:28.677
58.0, 1018.3504485846497, 934.8627919238061, 626.9848778215237, 1180.3068161658011, 0.0800000037997961, 0.09600000455975533, 0.9760000463575125, 0.0, 0.0, 0.0, 0.0, 0.0, 1.645061428707781E9, 0.0, 2022-02-16 19:30:28.707
58.0, 1006.5697637242265, 931.3772051651031, 624.4866246511228, 1167.6734341154806, 0.0800000037997961, 0.09600000455975533, 0.9760000463575125, 0.0, 0.0, 0.0, 0.0, 0.0, 1.645061428707781E9, 0.0, 2022-02-16 19:30:28.707
59.0, 955.5388288288377, 945.4429688984528, 618.7720575188287, 1061.6584900715388, 0.0800000037997961, 0.09600000455975533, 0.9760000463575125, 0.0, 0.0, 0.0, 0.0, 0.0, 1.6450614287085943E9, 0.0, 2022-02-16 19:30:28.708
59.0, 1015.1191750229336, 939.784500265494, 623.8059628591873, 1024.1921723154373, 0.0800000037997961, 0.09600000455975533, 0.9760000463575125, 0.0, 0.0, 0.0, 0.0, 0.0, 1.6450614287085943E9, 0.0, 2022-02-16 19:30:28.708
60.0, 971.2351889428683, 961.8087711045519, 636.7534965057857, 1076.8424838916399, 0.0800000037997961, 0.09600000455975533, 0.9920000471174717, 0.0, 0.0, 0.0, 0.0, 0.0, 1.6450614287092488E9, 0.0, 2022-02-16 19:30:28.709
60.0, 973.1574975200929, 956.3372974693775, 630.3433079817332, 1082.0596443298273, 0.0800000037997961, 0.09600000455975533, 0.9920000471174717, 0.0, 0.0, 0.0, 0.0, 0.0, 1.6450614287092488E9, 0.0, 2022-02-16 19:30:28.709
61.0, 1001.1394289885648, 943.1653698254377, 627.2204915187322, 1013.6942731398158, 0.0800000037997961, 0.09600000455975533, 0.9920000471174717, 0.0, 0.0, 0.0, 0.0, 0.0, 1.645061428721439E9, 0.0, 2022-02-16 19:30:28.721
61.0, 1008.6902869991027, 955.7875321758911, 627.4822845156305, 977.1853697723709, 0.0800000037997961, 0.09600000455975533, 0.9920000471174717, 0.0, 0.0, 0.0, 0.0, 0.0, 1.645061428721439E9, 0.0, 2022-02-16 19:30:28.721
62.0, 977.9034305638634, 960.8775360155851, 645.4375442028977, 921.3748427336104, 0.0800000037997961, 0.09600000455975533, 0.9920000471174717, 0.0, 0.0, 0.0, 0.0, 0.0, 1.6450614287371116E9, 0.0, 2022-02-16 19:30:28.737
62.0, 1014.0757429352961, 930.4721493758261, 627.837575011421, 934.2812374806963, 0.0800000037997961, 0.09600000455975533, 0.9920000471174717, 0.0, 0.0, 0.0, 0.0, 0.0, 1.6450614287371116E9, 0.0, 2022-02-16 19:30:28.737
63.0, 969.791587559972, 941.1084248498082, 625.3430617409758, 951.6979515743442, 0.0800000037997961, 0.09600000455975533, 0.9920000471174717, 0.0, 0.0, 0.0, 0.0, 0.0, 1.6450614287378285E9, 0.0, 2022-02-16 19:30:28.737
63.0, 965.8497330066748, 947.9113028692082, 634.1280867368914, 969.2867010659538, 0.0800000037997961, 0.09600000455975533, 0.9920000471174717, 0.0, 0.0, 0.0, 0.0, 0.0, 1.6450614287378285E9, 0.0, 2022-02-16 19:30:28.737
64.0, 952.4347118656151, 953.6894483007491, 614.8376827654429, 887.8204603311606, 0.0800000037997961, 0.09600000455975533, 0.9920000471174717, 0.0, 0.0, 0.0, 0.0, 0.0, 1.645061428751448E9, 0.0, 2022-02-16 19:30:28.751
64.0, 974.6721570021473, 956.6589288655668, 609.8000375251286, 877.2215838567354, 0.0800000037997961, 0.09600000455975533, 0.9920000471174717, 0.0, 0.0, 0.0, 0.0, 0.0, 1.645061428751448E9, 0.0, 2022-02-16 19:30:28.751
65.0, 934.7599446750246, 957.549025055021, 616.9320267406292, 855.5339040136896, 0.0800000037997961, 0.09600000455975533, 0.9920000471174717, 0.0, 0.0, 0.0, 0.0, 0.0, 1.6450614287671645E9, 0.0, 2022-02-16 19:30:28.767
65.0, 981.05616622651, 957.332110857591, 609.3475096304901, 934.610348676797, 0.0800000037997961, 0.09600000455975533, 0.9920000471174717, 0.0, 0.0, 0.0, 0.0, 0.0, 1.6450614287671645E9, 0.0, 2022-02-16 19:30:28.767
66.0, 973.7521416130476, 956.3372974693775, 609.179214132484, 831.4826073986478, 0.0800000037997961, 0.09600000455975533, 0.9920000471174717, 0.0, 0.0, 0.0, 0.0, 0.0, 1.6450614287678275E9, 0.0, 2022-02-16 19:30:28.767
66.0, 986.3406448638998, 968.9818992195651, 621.7041390840895, 804.8320803144015, 0.0800000037997961, 0.09600000455975533, 0.9920000471174717, 0.0, 0.0, 0.0, 0.0, 0.0, 1.6450614287678275E9, 0.0, 2022-02-16 19:30:28.767
67.0, 993.188401682768, 966.1171358535066, 616.9395065405406, 908.3749504876323, 0.0800000037997961, 0.09600000455975533, 0.9920000471174717, 0.0, 0.0, 0.0, 0.0, 0.0, 1.6450614287814388E9, 0.0, 2022-02-16 19:30:28.781
67.0, 975.4911950924434, 947.3540577758104, 601.8452703193761, 854.3296562279575, 0.0800000037997961, 0.09600000455975533, 0.9920000471174717, 0.0, 0.0, 0.0, 0.0, 0.0, 1.6450614287814388E9, 0.0, 2022-02-16 19:30:28.781
68.0, 985.192495577503, 958.7083940412849, 605.8619228717871, 864.9808913017623, 0.0800000037997961, 0.09600000455975533, 0.9920000471174717, 0.0, 0.0, 0.0, 0.0, 0.0, 1.6450614287971463E9, 0.0, 2022-02-16 19:30:28.797
68.0, 968.5873397742398, 955.4696406796575, 618.177413425874, 872.5691483118571, 0.0800000037997961, 0.09600000455975533, 0.9920000471174717, 0.0, 0.0, 0.0, 0.0, 0.0, 1.6450614287971463E9, 0.0, 2022-02-16 19:30:28.797
69.0, 998.012872625608, 924.6902640443295, 607.032511557918, 954.9703640355729, 0.0800000037997961, 0.09600000455975533, 0.9920000471174717, 0.0, 0.0, 0.0, 0.0, 0.0, 1.6450614287978797E9, 0.0, 2022-02-16 19:30:28.797
69.0, 1018.1709333867766, 961.0420916136354, 605.2934580785222, 897.0430536218919, 0.0800000037997961, 0.09600000455975533, 0.9920000471174717, 0.0, 0.0, 0.0, 0.0, 0.0, 1.6450614287978797E9, 0.0, 2022-02-16 19:30:28.797
70.0, 956.3840462188236, 966.9997522430494, 617.0741429389454, 810.0043619531207, 0.0800000037997961, 0.09600000455975533, 1.008000047877431, 0.0, 0.0, 0.0, 0.0, 0.0, 1.6450614288114157E9, 0.0, 2022-02-16 19:30:28.811
70.0, 950.0299561941065, 971.4689326900989, 617.8819613293745, 903.2176284487359, 0.0800000037997961, 0.09600000455975533, 1.008000047877431, 0.0, 0.0, 0.0, 0.0, 0.0, 1.6450614288114157E9, 0.0, 2022-02-16 19:30:28.811
71.0, 945.2989827501588, 953.3678169045597, 614.4375134701841, 855.5039848140441, 0.0800000037997961, 0.09600000455975533, 1.008000047877431, 0.0, 0.0, 0.0, 0.0, 0.0, 1.6450614288273115E9, 0.0, 2022-02-16 19:30:28.827
71.0, 987.2008218537085, 956.5018530674279, 621.1581136905588, 874.2408835920505, 0.0800000037997961, 0.09600000455975533, 1.008000047877431, 0.0, 0.0, 0.0, 0.0, 0.0, 1.6450614288273115E9, 0.0, 2022-02-16 19:30:28.827
72.0, 990.0917645194568, 942.8287788294256, 612.6797604910098, 935.5939423651434, 0.09600000455975533, 0.09600000455975533, 1.008000047877431, 0.0, 0.0, 0.0, 0.0, 0.0, 1.6450614288278902E9, 0.0, 2022-02-16 19:30:28.827
72.0, 979.0627995501272, 932.6599908499047, 601.1159898280166, 945.3737807492726, 0.09600000455975533, 0.09600000455975533, 1.008000047877431, 0.0, 0.0, 0.0, 0.0, 0.0, 1.6450614288278902E9, 0.0, 2022-02-16 19:30:28.827
73.0, 1013.7541115391068, 943.161629925482, 594.8628771021031, 875.972457271535, 0.09600000455975533, 0.09600000455975533, 1.008000047877431, 0.0, 0.0, 0.0, 0.0, 0.0, 1.6450614288414075E9, 0.0, 2022-02-16 19:30:28.841
73.0, 1014.0570434355177, 960.1819146238267, 611.3520960067399, 820.7490945258178, 0.09600000455975533, 0.09600000455975533, 1.008000047877431, 0.0, 0.0, 0.0, 0.0, 0.0, 1.6450614288414075E9, 0.0, 2022-02-16 19:30:28.841
74.0, 1029.7496636495925, 948.6480631604791, 600.4315881361254, 943.3168357736431, 0.09600000455975533, 0.09600000455975533, 1.008000047877431, 0.0, 0.0, 0.0, 0.0, 0.0, 1.6450614288571854E9, 0.0, 2022-02-16 19:30:28.857
74.0, 963.5235152342357, 948.7826995588839, 606.0526577695273, 873.6873783986084, 0.09600000455975533, 0.09600000455975533, 1.008000047877431, 0.0, 0.0, 0.0, 0.0, 0.0, 1.6450614288571854E9, 0.0, 2022-02-16 19:30:28.857
75.0, 913.6631690249778, 956.8160046637058, 618.1848932257853, 922.5903102192096, 0.09600000455975533, 0.09600000455975533, 1.008000047877431, 0.0, 0.0, 0.0, 0.0, 0.0, 1.6450614288580153E9, 0.0, 2022-02-16 19:30:28.858
75.0, 981.8939038165845, 945.4728880980983, 610.2600452196784, 967.7271627844311, 0.09600000455975533, 0.09600000455975533, 1.008000047877431, 0.0, 0.0, 0.0, 0.0, 0.0, 1.6450614288580153E9, 0.0, 2022-02-16 19:30:28.858
76.0, 1006.2331727282144, 940.7306949542835, 602.9859398058616, 898.4492560052313, 0.09600000455975533, 0.09600000455975533, 1.008000047877431, 0.0, 0.0, 0.0, 0.0, 0.0, 1.645061428871436E9, 0.0, 2022-02-16 19:30:28.871
76.0, 961.2533959611319, 970.8929880969226, 625.0850086440332, 862.6097947298549, 0.09600000455975533, 0.09600000455975533, 1.008000047877431, 0.0, 0.0, 0.0, 0.0, 0.0, 1.645061428871436E9, 0.0, 2022-02-16 19:30:28.871
77.0, 1010.9716259720735, 954.8675167867914, 617.223738937173, 929.568963536527, 0.09600000455975533, 0.09600000455975533, 1.008000047877431, 0.0, 0.0, 0.0, 0.0, 0.0, 1.6450614288873909E9, 0.0, 2022-02-16 19:30:28.887
77.0, 970.7490019486286, 946.1348503902555, 601.6246162219904, 855.8779748096131, 0.09600000455975533, 0.09600000455975533, 1.008000047877431, 0.0, 0.0, 0.0, 0.0, 0.0, 1.6450614288873909E9, 0.0, 2022-02-16 19:30:28.887
78.0, 930.6011759242974, 949.5045002503321, 610.0917497216724, 881.1559586101212, 0.09600000455975533, 0.09600000455975533, 1.008000047877431, 0.0, 0.0, 0.0, 0.0, 0.0, 1.645061428887928E9, 0.0, 2022-02-16 19:30:28.887
78.0, 968.8491327711381, 955.7501331763342, 618.0951356268488, 856.506278002169, 0.09600000455975533, 0.09600000455975533, 1.008000047877431, 0.0, 0.0, 0.0, 0.0, 0.0, 1.645061428887928E9, 0.0, 2022-02-16 19:30:28.887
79.0, 1016.0279707121663, 943.4570820219815, 606.3929886654951, 936.8505487502553, 0.09600000455975533, 0.09600000455975533, 1.008000047877431, 0.0, 0.0, 0.0, 0.0, 0.0, 1.6450614289014702E9, 0.0, 2022-02-16 19:30:28.901
79.0, 987.0175667558797, 944.3658777112141, 609.8262168248184, 873.9603910953738, 0.09600000455975533, 0.09600000455975533, 1.008000047877431, 0.0, 0.0, 0.0, 0.0, 0.0, 1.6450614289014702E9, 0.0, 2022-02-16 19:30:28.901
80.0, 972.2711412305944, 964.1050696773455, 621.2815303890966, 885.3633460602723, 0.09600000455975533, 0.09600000455975533, 1.008000047877431, 0.0, 0.0, 0.0, 0.0, 0.0, 1.6450614289172385E9, 0.0, 2022-02-16 19:30:28.917
80.0, 987.0587056553923, 953.5361124025658, 612.3506492949091, 965.2139500142075, 0.09600000455975533, 0.09600000455975533, 1.008000047877431, 0.0, 0.0, 0.0, 0.0, 0.0, 1.6450614289172385E9, 0.0, 2022-02-16 19:30:28.917
81.0, 983.5207602973096, 942.256574136205, 606.3518497659825, 916.4905333914794, 0.09600000455975533, 0.09600000455975533, 1.008000047877431, 0.0, 0.0, 0.0, 0.0, 0.0, 1.6450614289178112E9, 0.0, 2022-02-16 19:30:28.917
81.0, 1040.7973281187005, 943.9395291162655, 615.3463091594167, 787.0413762251846, 0.09600000455975533, 0.09600000455975533, 1.008000047877431, 0.0, 0.0, 0.0, 0.0, 0.0, 1.6450614289178112E9, 0.0, 2022-02-16 19:30:28.917
82.0, 1047.1626378432848, 954.3663701927289, 627.2130117188208, 875.2394368802197, 0.09600000455975533, 0.09600000455975533, 1.008000047877431, 0.0, 0.0, 0.0, 0.0, 0.0, 1.6450614289314616E9, 0.0, 2022-02-16 19:30:28.931
82.0, 942.8381285793148, 940.4763817572966, 605.9030617712997, 942.3669011848979, 0.09600000455975533, 0.09600000455975533, 1.008000047877431, 0.0, 0.0, 0.0, 0.0, 0.0, 1.6450614289314616E9, 0.0, 2022-02-16 19:30:28.931
83.0, 949.6036075991578, 940.3903640583158, 609.9645931231789, 837.6459625256248, 0.09600000455975533, 0.09600000455975533, 1.008000047877431, 0.0, 0.0, 0.0, 0.0, 0.0, 1.6450614289471912E9, 0.0, 2022-02-16 19:30:28.947
83.0, 937.082422547508, 961.0009527141228, 623.9854780570604, 907.9037230932154, 0.09600000455975533, 0.09600000455975533, 1.008000047877431, 0.0, 0.0, 0.0, 0.0, 0.0, 1.6450614289471912E9, 0.0, 2022-02-16 19:30:28.947
84.0, 992.7994520873763, 935.9698023106903, 610.9781060111709, 952.8311412609182, 0.09600000455975533, 0.09600000455975533, 1.008000047877431, 0.0, 0.0, 0.0, 0.0, 0.0, 1.6450614289478831E9, 0.0, 2022-02-16 19:30:28.947
84.0, 1013.0846694470383, 943.0943117262796, 598.5204992587678, 947.8159354203381, 0.09600000455975533, 0.09600000455975533, 1.008000047877431, 0.0, 0.0, 0.0, 0.0, 0.0, 1.6450614289478831E9, 0.0, 2022-02-16 19:30:28.947
85.0, 976.6356044788845, 953.7979053994641, 613.0649701864459, 868.264523462858, 0.09600000455975533, 0.09600000455975533, 1.008000047877431, 0.0, 0.0, 0.0, 0.0, 0.0, 1.6450614289615574E9, 0.0, 2022-02-16 19:30:28.961
85.0, 987.8104255464859, 948.9472551569343, 609.6317420271225, 774.7745043705218, 0.09600000455975533, 0.09600000455975533, 1.008000047877431, 0.0, 0.0, 0.0, 0.0, 0.0, 1.6450614289615574E9, 0.0, 2022-02-16 19:30:28.961
86.0, 986.1349503663369, 951.0415991321206, 610.4470402174629, 847.9119879039936, 0.09600000455975533, 0.09600000455975533, 1.008000047877431, 0.0, 0.0, 0.0, 0.0, 0.0, 1.645061428977137E9, 0.0, 2022-02-16 19:30:28.977
86.0, 995.1705486592837, 948.0683786673471, 621.2703106892295, 854.468032526318, 0.09600000455975533, 0.09600000455975533, 1.008000047877431, 0.0, 0.0, 0.0, 0.0, 0.0, 1.645061428977137E9, 0.0, 2022-02-16 19:30:28.977
87.0, 1045.6479783612303, 948.7714798590168, 624.5389832505025, 903.0904718502425, 0.09600000455975533, 0.09600000455975533, 1.008000047877431, 0.0, 0.0, 0.0, 0.0, 0.0, 1.6450614289779065E9, 0.0, 2022-02-16 19:30:28.977
87.0, 943.4103332725354, 935.3564587179571, 606.7744584609754, 947.636420222465, 0.09600000455975533, 0.09600000455975533, 1.008000047877431, 0.0, 0.0, 0.0, 0.0, 0.0, 1.6450614289779065E9, 0.0, 2022-02-16 19:30:28.977
88.0, 926.408748073969, 952.436581815593, 611.0267247105949, 836.2958586416207, 0.09600000455975533, 0.09600000455975533, 1.008000047877431, 0.0, 0.0, 0.0, 0.0, 0.0, 1.6450614289915245E9, 0.0, 2022-02-16 19:30:28.991
88.0, 981.7742270180024, 959.4488942325115, 620.5111109982245, 948.5152967120521, 0.09600000455975533, 0.09600000455975533, 1.008000047877431, 0.0, 0.0, 0.0, 0.0, 0.0, 1.6450614289915245E9, 0.0, 2022-02-16 19:30:28.991
89.0, 992.7134343883954, 951.5502255260944, 609.6093026273884, 892.9029843709432, 0.09600000455975533, 0.09600000455975533, 1.008000047877431, 0.0, 0.0, 0.0, 0.0, 0.0, 1.6450614290071807E9, 0.0, 2022-02-16 19:30:29.007
89.0, 1003.2861315631308, 938.0417068861425, 608.8762822360732, 932.9348734966479, 0.09600000455975533, 0.09600000455975533, 1.008000047877431, 0.0, 0.0, 0.0, 0.0, 0.0, 1.6450614290071807E9, 0.0, 2022-02-16 19:30:29.007
90.0, 1030.1236536451615, 947.4812143743038, 613.7680713781156, 838.1695485194214, 0.09600000455975533, 0.09600000455975533, 1.008000047877431, 0.0, 0.0, 0.0, 0.0, 0.0, 1.6450614290078416E9, 0.0, 2022-02-16 19:30:29.007
90.0, 993.659629077185, 958.454080844298, 616.6253549442627, 866.0991213885136, 0.09600000455975533, 0.09600000455975533, 1.008000047877431, 0.0, 0.0, 0.0, 0.0, 0.0, 1.6450614290078416E9, 0.0, 2022-02-16 19:30:29.007
91.0, 1024.7942962083034, 949.5344194499776, 624.1088947555982, 942.2023455868475, 0.09600000455975533, 0.09600000455975533, 1.008000047877431, 0.0, 0.0, 0.0, 0.0, 0.0, 1.645061429021413E9, 0.0, 2022-02-16 19:30:29.021
91.0, 993.3716567805968, 959.3815760333091, 641.0730809546076, 828.6141041326337, 0.09600000455975533, 0.09600000455975533, 1.008000047877431, 0.0, 0.0, 0.0, 0.0, 0.0, 1.645061429021413E9, 0.0, 2022-02-16 19:30:29.021
92.0, 949.5736883995123, 960.8251774162054, 640.92348495638, 873.1114338054322, 0.09600000455975533, 0.09600000455975533, 1.008000047877431, 0.0, 0.0, 0.0, 0.0, 0.0, 1.6450614290371192E9, 0.0, 2022-02-16 19:30:29.037
92.0, 1034.0879475981928, 947.4849542742595, 632.6882252539508, 901.624431067612, 0.09600000455975533, 0.09600000455975533, 1.008000047877431, 0.0, 0.0, 0.0, 0.0, 0.0, 1.6450614290371192E9, 0.0, 2022-02-16 19:30:29.037
93.0, 1035.5988671802916, 951.1463163308799, 630.0964745846577, 912.9451082334854, 0.09600000455975533, 0.09600000455975533, 1.008000047877431, 0.0, 0.0, 0.0, 0.0, 0.0, 1.6450614290378573E9, 0.0, 2022-02-16 19:30:29.037
93.0, 967.379352088552, 955.391102780588, 633.0547354496084, 814.5520802992396, 0.09600000455975533, 0.09600000455975533, 1.008000047877431, 0.0, 0.0, 0.0, 0.0, 0.0, 1.6450614290378573E9, 0.0, 2022-02-16 19:30:29.037
94.0, 1064.1754427417181, 946.3255852879956, 628.2751433062367, 916.325977793429, 0.09600000455975533, 0.09600000455975533, 1.008000047877431, 0.0, 0.0, 0.0, 0.0, 0.0, 1.6450614290514145E9, 0.0, 2022-02-16 19:30:29.051
94.0, 916.1726418952458, 940.3641847586259, 630.5377827794291, 898.5352737042122, 0.09600000455975533, 0.09600000455975533, 1.008000047877431, 0.0, 0.0, 0.0, 0.0, 0.0, 1.6450614290514145E9, 0.0, 2022-02-16 19:30:29.051
95.0, 1017.4977513947524, 946.6621762840077, 632.5872479551472, 943.9638384659775, 0.09600000455975533, 0.09600000455975533, 1.008000047877431, 0.0, 0.0, 0.0, 0.0, 0.0, 1.6450614290671968E9, 0.0, 2022-02-16 19:30:29.067
95.0, 998.3008449221961, 931.5155814634636, 625.1411071433686, 894.2493483549915, 0.09600000455975533, 0.09600000455975533, 1.008000047877431, 0.0, 0.0, 0.0, 0.0, 0.0, 1.6450614290671968E9, 0.0, 2022-02-16 19:30:29.067
96.0, 972.0056083337404, 925.890771930106, 619.2844238127582, 940.4333729078062, 0.09600000455975533, 0.09600000455975533, 1.008000047877431, 0.0, 0.0, 0.0, 0.0, 0.0, 1.6450614290678513E9, 0.0, 2022-02-16 19:30:29.067
96.0, 963.5085556344129, 953.0200062086806, 635.4220921215601, 894.5036615519784, 0.09600000455975533, 0.09600000455975533, 1.008000047877431, 0.0, 0.0, 0.0, 0.0, 0.0, 1.6450614290678513E9, 0.0, 2022-02-16 19:30:29.067
97.0, 978.6813297546469, 949.7363740475848, 638.9114187802188, 834.9719340573065, 0.09600000455975533, 0.09600000455975533, 1.008000047877431, 0.0, 0.0, 0.0, 0.0, 0.0, 1.645061429081426E9, 0.0, 2022-02-16 19:30:29.081
97.0, 1059.6576435952447, 941.71428864263, 629.0418227971531, 925.8589827804826, 0.09600000455975533, 0.09600000455975533, 1.008000047877431, 0.0, 0.0, 0.0, 0.0, 0.0, 1.645061429081426E9, 0.0, 2022-02-16 19:30:29.081
98.0, 1034.9817836876027, 948.1656160661951, 638.4102721861564, 868.2196446633898, 0.09600000455975533, 0.09600000455975533, 1.008000047877431, 0.0, 0.0, 0.0, 0.0, 0.0, 1.6450614290971155E9, 0.0, 2022-02-16 19:30:29.097
98.0, 882.9959893883206, 954.0335190966725, 643.8854857212864, 887.9924957291223, 0.09600000455975533, 0.09600000455975533, 1.008000047877431, 0.0, 0.0, 0.0, 0.0, 0.0, 1.6450614290971155E9, 0.0, 2022-02-16 19:30:29.097
99.0, 979.0067010507919, 943.6702563194558, 633.9897104385309, 896.9532960229553, 0.09600000455975533, 0.09600000455975533, 1.008000047877431, 0.0, 0.0, 0.0, 0.0, 0.0, 1.6450614290978377E9, 0.0, 2022-02-16 19:30:29.097
99.0, 1045.6778975608759, 930.6965433731675, 627.3887870167382, 934.6926264758222, 0.09600000455975533, 0.09600000455975533, 1.008000047877431, 0.0, 0.0, 0.0, 0.0, 0.0, 1.6450614290978377E9, 0.0, 2022-02-16 19:30:29.097
100.0, 1016.3944809078239, 955.7501331763342, 647.4533502790146, 912.0699716438539, 0.09600000455975533, 0.09600000455975533, 1.008000047877431, 0.0, 0.0, 0.0, 0.0, 0.0, 1.6450614291121583E9, 0.0, 2022-02-16 19:30:29.112
100.0, 978.2362816599198, 943.763753818348, 637.5388754964806, 908.0757584911771, 0.09600000455975533, 0.09600000455975533, 1.008000047877431, 0.0, 0.0, 0.0, 0.0, 0.0, 1.6450614291121583E9, 0.0, 2022-02-16 19:30:29.112
0.0, 957.9323648004793, 932.6188519503921, 626.0349432327785, 875.4077323782258, 0.09600000455975533, 0.09600000455975533, 1.008000047877431, 0.0, 0.0, 0.0, 0.0, 0.0, 1.6450614291127217E9, 0.0, 2022-02-16 19:30:29.112
1.0, 1032.083361221943, 942.0097407391295, 627.4748047157191, 843.8579363520257, 0.09600000455975533, 0.09600000455975533, 1.008000047877431, 0.0, 0.0, 0.0, 0.0, 0.0, 1.6450614291264472E9, 0.0, 2022-02-16 19:30:29.126
1.0, 991.4082093038596, 930.7489019725472, 631.7831694646738, 874.8168281852268, 0.09600000455975533, 0.09600000455975533, 1.008000047877431, 0.0, 0.0, 0.0, 0.0, 0.0, 1.6450614291264472E9, 0.0, 2022-02-16 19:30:29.126
2.0, 1005.6011296357028, 920.8119877902791, 628.5705954027362, 933.7800908866338, 0.09600000455975533, 0.09600000455975533, 1.008000047877431, 0.0, 0.0, 0.0, 0.0, 0.0, 1.6450614291421728E9, 0.0, 2022-02-16 19:30:29.142
2.0, 964.2976745250635, 926.2572821257636, 630.0141967856325, 918.521299067419, 0.09600000455975533, 0.09600000455975533, 1.008000047877431, 0.0, 0.0, 0.0, 0.0, 0.0, 1.6450614291421728E9, 0.0, 2022-02-16 19:30:29.142
3.0, 1053.972995662596, 953.9138422980905, 634.2028847360052, 893.5312875634991, 0.09600000455975533, 0.09600000455975533, 1.008000047877431, 0.0, 0.0, 0.0, 0.0, 0.0, 1.6450614291428044E9, 0.0, 2022-02-16 19:30:29.142
3.0, 1013.3651619437151, 940.2744271596894, 633.3464476461522, 905.5214068214409, 0.09600000455975533, 0.09600000455975533, 1.008000047877431, 0.0, 0.0, 0.0, 0.0, 0.0, 1.6450614291428044E9, 0.0, 2022-02-16 19:30:29.142
4.0, 990.6265702131204, 934.900190923363, 626.3490948290564, 927.9271474559791, 0.09600000455975533, 0.09600000455975533, 1.008000047877431, 0.0, 0.0, 0.0, 0.0, 0.0, 1.6450614291727915E9, 0.0, 2022-02-16 19:30:29.172
4.0, 1046.0556274564005, 942.7951197298244, 646.2341428934596, 880.1349659222178, 0.09600000455975533, 0.09600000455975533, 1.008000047877431, 0.0, 0.0, 0.0, 0.0, 0.0, 1.6450614291727915E9, 0.0, 2022-02-16 19:30:29.172
5.0, 972.155204331968, 937.3909642938524, 637.6211532955058, 843.1398755605333, 0.09600000455975533, 0.09600000455975533, 1.008000047877431, 0.0, 0.0, 0.0, 0.0, 0.0, 1.6450614291735582E9, 0.0, 2022-02-16 19:30:29.173
5.0, 961.8443001541309, 923.792688054964, 622.1267477790825, 889.8736654068343, 0.09600000455975533, 0.09600000455975533, 1.008000047877431, 0.0, 0.0, 0.0, 0.0, 0.0, 1.6450614291735582E9, 0.0, 2022-02-16 19:30:29.173
6.0, 980.3979438343085, 939.7134421663359, 633.5259628440253, 833.6330498731695, 0.09600000455975533, 0.09600000455975533, 1.008000047877431, 0.0, 0.0, 0.0, 0.0, 0.0, 1.6450614291742685E9, 0.0, 2022-02-16 19:30:29.174
6.0, 1011.2184593691491, 942.6043848320842, 635.8783599161543, 936.7233921517618, 0.09600000455975533, 0.09600000455975533, 1.008000047877431, 0.0, 0.0, 0.0, 0.0, 0.0, 1.6450614291742685E9, 0.0, 2022-02-16 19:30:29.174
7.0, 1000.1633151001297, 935.6855699140579, 624.5614226502366, 1009.8234766856767, 0.09600000455975533, 0.09600000455975533, 1.008000047877431, 0.0, 0.0, 0.0, 0.0, 0.0, 1.6450614291864622E9, 0.0, 2022-02-16 19:30:29.186
7.0, 986.7557737589814, 936.3512721061707, 635.9494180153124, 814.6904565976001, 0.09600000455975533, 0.09600000455975533, 1.008000047877431, 0.0, 0.0, 0.0, 0.0, 0.0, 1.6450614291864622E9, 0.0, 2022-02-16 19:30:29.186
8.0, 1020.4709718595259, 945.6449234960601, 638.2868554876186, 933.1854467936791, 0.09600000455975533, 0.09600000455975533, 1.008000047877431, 0.0, 0.0, 0.0, 0.0, 0.0, 1.645061429202302E9, 0.0, 2022-02-16 19:30:29.202
8.0, 1058.677789806854, 924.1217992510647, 625.1411071433686, 919.9910797500052, 0.09600000455975533, 0.09600000455975533, 1.008000047877431, 0.0, 0.0, 0.0, 0.0, 0.0, 1.645061429202302E9, 0.0, 2022-02-16 19:30:29.202
9.0, 923.3158508106135, 918.7176438150927, 616.9619459402747, 1000.208193899598, 0.09600000455975533, 0.09600000455975533, 1.008000047877431, 0.0, 0.0, 0.0, 0.0, 0.0, 1.6450614292028573E9, 0.0, 2022-02-16 19:30:29.202
9.0, 992.0439922963269, 940.2033690605313, 638.2868554876186, 993.9139422741719, 0.09600000455975533, 0.09600000455975533, 1.008000047877431, 0.0, 0.0, 0.0, 0.0, 0.0, 1.6450614292028573E9, 0.0, 2022-02-16 19:30:29.202
10.0, 1005.9190211319365, 926.4891559230164, 632.9200990512036, 852.803777046036, 0.09600000455975533, 0.09600000455975533, 1.008000047877431, 0.0, 0.0, 0.0, 0.0, 0.0, 1.6450614292164576E9, 0.0, 2022-02-16 19:30:29.216
10.0, 1026.42863248894, 937.4919415926561, 628.6566131017171, 883.171764686238, 0.09600000455975533, 0.09600000455975533, 1.008000047877431, 0.0, 0.0, 0.0, 0.0, 0.0, 1.6450614292164576E9, 0.0, 2022-02-16 19:30:29.216
11.0, 948.3096022144891, 942.2677938360721, 643.2758820285089, 878.8110413379036, 0.09600000455975533, 0.09600000455975533, 1.008000047877431, 0.0, 0.0, 0.0, 0.0, 0.0, 1.6450614292475495E9, 0.0, 2022-02-16 19:30:29.247
11.0, 973.2958738184534, 946.1834690896794, 642.3334272396751, 907.4063163991086, 0.09600000455975533, 0.09600000455975533, 1.008000047877431, 0.0, 0.0, 0.0, 0.0, 0.0, 1.6450614292475495E9, 0.0, 2022-02-16 19:30:29.247
12.0, 1080.047578153666, 953.5473321024328, 625.4664784395136, 986.0377129674889, 0.09600000455975533, 0.09600000455975533, 1.008000047877431, 0.0, 0.0, 0.0, 0.0, 0.0, 1.6450614292482383E9, 0.0, 2022-02-16 19:30:29.248
12.0, 1036.739536666777, 947.4699946744367, 630.9342121747322, 904.096504938323, 0.09600000455975533, 0.09600000455975533, 1.008000047877431, 0.0, 0.0, 0.0, 0.0, 0.0, 1.6450614292482383E9, 0.0, 2022-02-16 19:30:29.248
13.0, 1034.2899021958, 947.877643769607, 637.3593602986075, 857.796543486882, 0.09600000455975533, 0.09600000455975533, 1.008000047877431, 0.0, 0.0, 0.0, 0.0, 0.0, 1.6450614292628195E9, 0.0, 2022-02-16 19:30:29.262
13.0, 1041.8931188057177, 935.9062240114436, 630.3059089821763, 907.5895714969374, 0.09600000455975533, 0.09600000455975533, 1.008000047877431, 0.0, 0.0, 0.0, 0.0, 0.0, 1.6450614292628195E9, 0.0, 2022-02-16 19:30:29.262
14.0, 916.6326495897956, 930.3300331775099, 629.3858935930766, 915.6864549010061, 0.09600000455975533, 0.09600000455975533, 1.008000047877431, 0.0, 0.0, 0.0, 0.0, 0.0, 1.645061429263495E9, 0.0, 2022-02-16 19:30:29.263
14.0, 968.404084676411, 938.1763432845473, 636.7460167058744, 931.6857469114475, 0.09600000455975533, 0.09600000455975533, 1.008000047877431, 0.0, 0.0, 0.0, 0.0, 0.0, 1.645061429263495E9, 0.0, 2022-02-16 19:30:29.263
15.0, 1007.673034211155, 942.2042155368254, 633.0023768502288, 980.1436306373216, 0.09600000455975533, 0.09600000455975533, 1.008000047877431, 0.0, 0.0, 0.0, 0.0, 0.0, 1.6450614292642477E9, 0.0, 2022-02-16 19:30:29.264
15.0, 1000.2381130992435, 936.4859085045755, 627.1569132194854, 837.4701872277074, 0.09600000455975533, 0.09600000455975533, 1.008000047877431, 0.0, 0.0, 0.0, 0.0, 0.0, 1.6450614292642477E9, 0.0, 2022-02-16 19:30:29.264
16.0, 1047.1551580433734, 939.8368588648736, 635.3846931220032, 896.523207528051, 0.09600000455975533, 0.09600000455975533, 1.008000047877431, 0.0, 0.0, 0.0, 0.0, 0.0, 1.6450614292777045E9, 0.0, 2022-02-16 19:30:29.277
16.0, 963.362699536141, 938.2810604833066, 635.4520113212056, 967.8580592828803, 0.09600000455975533, 0.09600000455975533, 1.008000047877431, 0.0, 0.0, 0.0, 0.0, 0.0, 1.6450614292777045E9, 0.0, 2022-02-16 19:30:29.277
17.0, 978.6925494545139, 932.8656853474677, 624.9840313452296, 882.7341963914223, 0.09600000455975533, 0.09600000455975533, 1.008000047877431, 0.0, 0.0, 0.0, 0.0, 0.0, 1.645061429292818E9, 0.0, 2022-02-16 19:30:29.292
17.0, 1035.4193519824184, 936.1156584089622, 631.1623460720293, 901.1980824726634, 0.09600000455975533, 0.09600000455975533, 1.008000047877431, 0.0, 0.0, 0.0, 0.0, 0.0, 1.645061429292818E9, 0.0, 2022-02-16 19:30:29.292
18.0, 977.3461854704656, 953.7904255995527, 642.0155357434414, 910.2785595650785, 0.09600000455975533, 0.09600000455975533, 1.008000047877431, 0.0, 0.0, 0.0, 0.0, 0.0, 1.6450614292930913E9, 0.0, 2022-02-16 19:30:29.293
18.0, 993.6035305778496, 936.6654237024486, 638.7244237824343, 809.5742734582163, 0.09600000455975533, 0.09600000455975533, 1.008000047877431, 0.0, 0.0, 0.0, 0.0, 0.0, 1.6450614292930913E9, 0.0, 2022-02-16 19:30:29.293
19.0, 1040.2026840257458, 942.2490943362936, 633.1108339489438, 893.1161586684175, 0.09600000455975533, 0.09600000455975533, 1.008000047877431, 0.0, 0.0, 0.0, 0.0, 0.0, 1.6450614293064137E9, 0.0, 2022-02-16 19:30:29.306
19.0, 990.4283555154689, 961.7564125051722, 647.412211379502, 940.2314183101989, 0.09600000455975533, 0.09600000455975533, 1.008000047877431, 0.0, 0.0, 0.0, 0.0, 0.0, 1.6450614293064137E9, 0.0, 2022-02-16 19:30:29.306
20.0, 979.0366202504374, 953.7605063999072, 639.2779289758764, 880.6809913157485, 0.09600000455975533, 0.09600000455975533, 1.008000047877431, 0.0, 0.0, 0.0, 0.0, 0.0, 1.6450614293221488E9, 0.0, 2022-02-16 19:30:29.322
20.0, 1040.6552119203843, 940.424023157917, 630.0104568856768, 901.6393906674348, 0.09600000455975533, 0.09600000455975533, 1.008000047877431, 0.0, 0.0, 0.0, 0.0, 0.0, 1.6450614293221488E9, 0.0, 2022-02-16 19:30:29.322
21.0, 991.5578053020872, 950.4020762396976, 643.2010840293951, 955.7968819257803, 0.09600000455975533, 0.09600000455975533, 1.008000047877431, 0.0, 0.0, 0.0, 0.0, 0.0, 1.645061429322848E9, 0.0, 2022-02-16 19:30:29.322
21.0, 985.2785132764839, 944.403276710771, 640.609333360102, 982.5259469090961, 0.09600000455975533, 0.09600000455975533, 1.008000047877431, 0.0, 0.0, 0.0, 0.0, 0.0, 1.645061429322848E9, 0.0, 2022-02-16 19:30:29.322
22.0, 1063.117051054258, 930.9957353696227, 629.068002096843, 911.7483402476646, 0.09600000455975533, 0.09600000455975533, 1.008000047877431, 0.0, 0.0, 0.0, 0.0, 0.0, 1.6450614293365383E9, 0.0, 2022-02-16 19:30:29.336
22.0, 1008.9408602961339, 932.2373821549118, 630.6985984775238, 962.4052851474844, 0.09600000455975533, 0.09600000455975533, 1.008000047877431, 0.0, 0.0, 0.0, 0.0, 0.0, 1.6450614293365383E9, 0.0, 2022-02-16 19:30:29.336
23.0, 1049.3392596174963, 942.7614606302232, 640.5868939603679, 1005.6983670345508, 0.09600000455975533, 0.09600000455975533, 1.008000047877431, 0.0, 0.0, 0.0, 0.0, 0.0, 1.6450614293521628E9, 0.0, 2022-02-16 19:30:29.352
23.0, 1010.350802579429, 935.0797061212361, 621.9659320809878, 1153.5440920828842, 0.09600000455975533, 0.09600000455975533, 1.008000047877431, 0.0, 0.0, 0.0, 0.0, 0.0, 1.6450614293521628E9, 0.0, 2022-02-16 19:30:29.352
24.0, 1034.8434073892422, 944.7884864062071, 609.9795527230017, 1270.1616525012068, 0.09600000455975533, 0.09600000455975533, 1.008000047877431, 0.0, 0.0, 0.0, 0.0, 0.0, 1.645061429352812E9, 0.0, 2022-02-16 19:30:29.352
24.0, 1143.0873318067752, 943.1354506257921, 624.5053241509013, 1303.4654616066255, 0.09600000455975533, 0.09600000455975533, 1.008000047877431, 0.0, 0.0, 0.0, 0.0, 0.0, 1.645061429352812E9, 0.0, 2022-02-16 19:30:29.352
25.0, 1127.4059312925674, 936.1567973084748, 626.390233728569, 1375.6567504513077, 0.09600000455975533, 0.09600000455975533, 1.008000047877431, 0.0, 0.0, 0.0, 0.0, 0.0, 1.6450614293665948E9, 0.0, 2022-02-16 19:30:29.366
25.0, 1135.0016681025736, 922.8539731660858, 619.6920729079284, 1215.4693555491976, 0.09600000455975533, 0.09600000455975533, 1.008000047877431, 0.0, 0.0, 0.0, 0.0, 0.0, 1.6450614293665948E9, 0.0, 2022-02-16 19:30:29.366
26.0, 1273.5574816609733, 946.7294944832101, 619.3891410115175, 1097.7260852442123, 0.09600000455975533, 0.09600000455975533, 1.008000047877431, 0.0, 0.0, 0.0, 0.0, 0.0, 1.6450614293822055E9, 0.0, 2022-02-16 19:30:29.382
26.0, 1110.864353788551, 941.725508342497, 625.0737889441662, 963.5010758345015, 0.09600000455975533, 0.09600000455975533, 1.008000047877431, 0.0, 0.0, 0.0, 0.0, 0.0, 1.6450614293822055E9, 0.0, 2022-02-16 19:30:29.382
27.0, 1155.2794056623243, 928.0337346047163, 606.9951125583611, 825.0387597749941, 0.09600000455975533, 0.09600000455975533, 1.008000047877431, 0.0, 0.0, 0.0, 0.0, 0.0, 1.6450614293828092E9, 0.0, 2022-02-16 19:30:29.382
27.0, 1116.735996718984, 938.3595983823761, 624.086455355864, 616.0232310513966, 0.09600000455975533, 0.09600000455975533, 1.008000047877431, 0.0, 0.0, 0.0, 0.0, 0.0, 1.6450614293828092E9, 0.0, 2022-02-16 19:30:29.382
28.0, 1101.4510256000794, 956.0979438722134, 637.0751279019751, 674.1113571631722, 0.09600000455975533, 0.09600000455975533, 1.008000047877431, 0.0, 0.0, 0.0, 0.0, 0.0, 1.6450614293964176E9, 0.0, 2022-02-16 19:30:29.396
28.0, 1160.0851771053858, 958.2072474472225, 626.8465015231632, 677.1070170276798, 0.09600000455975533, 0.09600000455975533, 1.008000047877431, 0.0, 0.0, 0.0, 0.0, 0.0, 1.6450614293964176E9, 0.0, 2022-02-16 19:30:29.396
29.0, 1075.9561276021414, 953.0798446079716, 629.7486638887785, 732.6632308694534, 0.09600000455975533, 0.09600000455975533, 1.008000047877431, 0.0, 0.0, 0.0, 0.0, 0.0, 1.6450614294121616E9, 0.0, 2022-02-16 19:30:29.412
29.0, 1013.0435305475257, 960.0285787256435, 641.6415457478724, 676.7479866319336, 0.09600000455975533, 0.09600000455975533, 1.008000047877431, 0.0, 0.0, 0.0, 0.0, 0.0, 1.6450614294121616E9, 0.0, 2022-02-16 19:30:29.412
30.0, 1017.853041890543, 948.4087095633149, 634.326301434543, 773.5029383855872, 0.09600000455975533, 0.09600000455975533, 1.008000047877431, 0.0, 0.0, 0.0, 0.0, 0.0, 1.6450614294128E9, 0.0, 2022-02-16 19:30:29.412
30.0, 939.434819619637, 930.3487326772884, 625.1822460428812, 821.2913800193928, 0.09600000455975533, 0.09600000455975533, 1.008000047877431, 0.0, 0.0, 0.0, 0.0, 0.0, 1.6450614294128E9, 0.0, 2022-02-16 19:30:29.412
31.0, 1035.1762584852986, 941.7853467417881, 632.3404145580716, 877.588094052393, 0.09600000455975533, 0.09600000455975533, 1.008000047877431, 0.0, 0.0, 0.0, 0.0, 0.0, 1.6450614294263847E9, 0.0, 2022-02-16 19:30:29.426
31.0, 1009.2138729928993, 961.565677607432, 640.4447777620517, 967.173657590989, 0.09600000455975533, 0.09600000455975533, 1.008000047877431, 0.0, 0.0, 0.0, 0.0, 0.0, 1.6450614294263847E9, 0.0, 2022-02-16 19:30:29.426
32.0, 996.5543116428889, 937.2002293961123, 629.4345122925006, 1069.8526108744554, 0.09600000455975533, 0.09600000455975533, 1.008000047877431, 0.0, 0.0, 0.0, 0.0, 0.0, 1.6450614294421573E9, 0.0, 2022-02-16 19:30:29.442
32.0, 1047.5366278388537, 952.4665010152385, 639.2180905765854, 956.4588442179374, 0.09600000455975533, 0.09600000455975533, 1.008000047877431, 0.0, 0.0, 0.0, 0.0, 0.0, 1.6450614294421573E9, 0.0, 2022-02-16 19:30:29.442
33.0, 1050.7566817007028, 965.7431458579376, 646.8138273865916, 983.2066087010317, 0.09600000455975533, 0.09600000455975533, 1.008000047877431, 0.0, 0.0, 0.0, 0.0, 0.0, 1.6450614294429429E9, 0.0, 2022-02-16 19:30:29.442
33.0, 1079.7147270576097, 951.5988442255184, 631.2221844713204, 981.0412066266872, 0.09600000455975533, 0.09600000455975533, 1.008000047877431, 0.0, 0.0, 0.0, 0.0, 0.0, 1.6450614294429429E9, 0.0, 2022-02-16 19:30:29.442
34.0, 968.8005140717141, 943.2775668241084, 624.292149853427, 981.0636460264213, 0.09600000455975533, 0.09600000455975533, 1.008000047877431, 0.0, 0.0, 0.0, 0.0, 0.0, 1.6450614294564707E9, 0.0, 2022-02-16 19:30:29.456
34.0, 1000.810317792464, 954.3588903928176, 636.2860090113245, 1001.3039845866151, 0.09600000455975533, 0.09600000455975533, 1.008000047877431, 0.0, 0.0, 0.0, 0.0, 0.0, 1.6450614294564707E9, 0.0, 2022-02-16 19:30:29.456
35.0, 1018.8702946784906, 964.4753197729588, 635.1565592247061, 982.4960277094506, 0.09600000455975533, 0.09600000455975533, 1.008000047877431, 0.0, 0.0, 0.0, 0.0, 0.0, 1.6450614294721932E9, 0.0, 2022-02-16 19:30:29.472
35.0, 951.8512874725275, 946.9202293809503, 631.3530809697695, 1047.1663777432404, 0.09600000455975533, 0.09600000455975533, 1.008000047877431, 0.0, 0.0, 0.0, 0.0, 0.0, 1.6450614294721932E9, 0.0, 2022-02-16 19:30:29.472
36.0, 994.1196367717348, 954.4187287921086, 646.2117034937255, 990.7499869116582, 0.09600000455975533, 0.09600000455975533, 1.008000047877431, 0.0, 0.0, 0.0, 0.0, 0.0, 1.645061429472921E9, 0.0, 2022-02-16 19:30:29.472
36.0, 1007.2317260163836, 961.5768973072991, 651.3727654325776, 965.666477908846, 0.09600000455975533, 0.09600000455975533, 1.008000047877431, 0.0, 0.0, 0.0, 0.0, 0.0, 1.645061429472921E9, 0.0, 2022-02-16 19:30:29.472
37.0, 1020.6542269573547, 961.5881170071661, 644.0575211192481, 1000.7579591930844, 0.09600000455975533, 0.09600000455975533, 1.008000047877431, 0.0, 0.0, 0.0, 0.0, 0.0, 1.6450614294864123E9, 0.0, 2022-02-16 19:30:29.486
37.0, 977.4396829693578, 970.9902254957706, 643.9939428200014, 947.7860162206925, 0.09600000455975533, 0.09600000455975533, 1.008000047877431, 0.0, 0.0, 0.0, 0.0, 0.0, 1.6450614294864123E9, 0.0, 2022-02-16 19:30:29.486
38.0, 1012.3815682553686, 965.6496483590454, 640.6392525597475, 1026.2865162906237, 0.09600000455975533, 0.09600000455975533, 1.008000047877431, 0.0, 0.0, 0.0, 0.0, 0.0, 1.6450614295021408E9, 0.0, 2022-02-16 19:30:29.502
38.0, 1070.1555427708663, 951.6512028248981, 635.2089178240858, 1031.1371665331535, 0.09600000455975533, 0.09600000455975533, 1.008000047877431, 0.0, 0.0, 0.0, 0.0, 0.0, 1.6450614295021408E9, 0.0, 2022-02-16 19:30:29.502
39.0, 1061.9726416678168, 947.8701639696956, 633.2753895469941, 1063.2666470524855, 0.09600000455975533, 0.09600000455975533, 1.008000047877431, 0.0, 0.0, 0.0, 0.0, 0.0, 1.6450614295028503E9, 0.0, 2022-02-16 19:30:29.502
39.0, 1035.1388594857417, 950.8284248346463, 636.9816304030828, 1090.6352349282242, 0.09600000455975533, 0.09600000455975533, 1.008000047877431, 0.0, 0.0, 0.0, 0.0, 0.0, 1.6450614295028503E9, 0.0, 2022-02-16 19:30:29.502
40.0, 1008.3836152027361, 954.486046991311, 635.5118497204967, 986.8941500573419, 0.09600000455975533, 0.09600000455975533, 1.008000047877431, 0.0, 0.0, 0.0, 0.0, 0.0, 1.645061429517205E9, 0.0, 2022-02-16 19:30:29.517
40.0, 982.3239923114888, 949.3212451525033, 633.0023768502288, 1082.8001445210539, 0.09600000455975533, 0.09600000455975533, 1.008000047877431, 0.0, 0.0, 0.0, 0.0, 0.0, 1.645061429517205E9, 0.0, 2022-02-16 19:30:29.517
41.0, 1016.357081908267, 958.1922878473997, 641.8098412458785, 1049.3243000176735, 0.09600000455975533, 0.0800000037997961, 1.008000047877431, 0.0, 0.0, 0.0, 0.0, 0.0, 1.645061429532118E9, 0.0, 2022-02-16 19:30:29.532
41.0, 1039.271448936779, 968.0319646308199, 637.6884714947082, 1047.4767894395627, 0.09600000455975533, 0.0800000037997961, 1.008000047877431, 0.0, 0.0, 0.0, 0.0, 0.0, 1.645061429532118E9, 0.0, 2022-02-16 19:30:29.532
42.0, 1054.9453696510755, 946.0750119909644, 626.7268247245811, 1076.5432918951847, 0.09600000455975533, 0.0800000037997961, 1.008000047877431, 0.0, 0.0, 0.0, 0.0, 0.0, 1.6450614295328915E9, 0.0, 2022-02-16 19:30:29.532
42.0, 1021.5480630467646, 952.7357738120481, 627.7365977126174, 1057.30150662316, 0.09600000455975533, 0.0800000037997961, 1.008000047877431, 0.0, 0.0, 0.0, 0.0, 0.0, 1.6450614295328915E9, 0.0, 2022-02-16 19:30:29.532
43.0, 1014.5731496294029, 956.3036383697763, 639.0123960790224, 1048.0452542328276, 0.09600000455975533, 0.0800000037997961, 1.008000047877431, 0.0, 0.0, 0.0, 0.0, 0.0, 1.6450614295465856E9, 0.0, 2022-02-16 19:30:29.546
43.0, 1025.486177700106, 939.4890481689945, 620.7953433948569, 1028.803468960803, 0.09600000455975533, 0.0800000037997961, 1.008000047877431, 0.0, 0.0, 0.0, 0.0, 0.0, 1.6450614295465856E9, 0.0, 2022-02-16 19:30:29.546
44.0, 1007.4262008140795, 937.6789365904406, 612.3693487946875, 1096.8920875540935, 0.09600000455975533, 0.0800000037997961, 1.008000047877431, 0.0, 0.0, 0.0, 0.0, 0.0, 1.6450614295622E9, 0.0, 2022-02-16 19:30:29.562
44.0, 1041.5565278097056, 947.9449619688094, 620.6195680969395, 1094.7341652796604, 0.09600000455975533, 0.0800000037997961, 1.008000047877431, 0.0, 0.0, 0.0, 0.0, 0.0, 1.6450614295622E9, 0.0, 2022-02-16 19:30:29.562
45.0, 1041.8445001062937, 934.9675091225654, 609.553204128053, 1131.2991671464406, 0.09600000455975533, 0.0800000037997961, 1.008000047877431, 0.0, 0.0, 0.0, 0.0, 0.0, 1.6450614295628855E9, 0.0, 2022-02-16 19:30:29.562
45.0, 955.8866395247169, 917.4385980302468, 589.4138428666629, 1154.3930493728258, 0.09600000455975533, 0.0800000037997961, 1.008000047877431, 0.0, 0.0, 0.0, 0.0, 0.0, 1.6450614295628855E9, 0.0, 2022-02-16 19:30:29.562
46.0, 1037.1471857619472, 931.1116722682491, 611.1052626096644, 1122.237389553804, 0.09600000455975533, 0.0800000037997961, 1.008000047877431, 0.0, 0.0, 0.0, 0.0, 0.0, 1.6450614295764036E9, 0.0, 2022-02-16 19:30:29.576
46.0, 1078.3870625733398, 946.0862316908315, 616.621615044307, 1084.0941499057226, 0.09600000455975533, 0.0800000037997961, 1.008000047877431, 0.0, 0.0, 0.0, 0.0, 0.0, 1.6450614295764036E9, 0.0, 2022-02-16 19:30:29.576
47.0, 1033.530702504795, 929.3838384887204, 611.1613611089997, 1163.013518770691, 0.09600000455975533, 0.0800000037997961, 1.008000047877431, 0.0, 0.0, 0.0, 0.0, 0.0, 1.6450614295933652E9, 0.0, 2022-02-16 19:30:29.593
47.0, 1013.6269549406134, 932.3121801540256, 613.7082329788245, 1168.6271086041816, 0.09600000455975533, 0.0800000037997961, 1.008000047877431, 0.0, 0.0, 0.0, 0.0, 0.0, 1.6450614295933652E9, 0.0, 2022-02-16 19:30:29.593
48.0, 987.3317183521576, 938.2810604833066, 617.2199990372173, 1189.7238842542283, 0.09600000455975533, 0.0800000037997961, 1.008000047877431, 0.0, 0.0, 0.0, 0.0, 0.0, 1.6450614295934403E9, 0.0, 2022-02-16 19:30:29.593
48.0, 1054.3133265585639, 929.1257853917778, 606.0825769691728, 1181.2717103543691, 0.09600000455975533, 0.0800000037997961, 1.008000047877431, 0.0, 0.0, 0.0, 0.0, 0.0, 1.6450614295934403E9, 0.0, 2022-02-16 19:30:29.593
49.0, 1041.3246540124528, 922.1508719744161, 608.2330194436945, 1209.1788438237272, 0.09600000455975533, 0.0800000037997961, 1.008000047877431, 0.0, 0.0, 0.0, 0.0, 0.0, 1.6450614296064696E9, 0.0, 2022-02-16 19:30:29.606
49.0, 986.4079630631022, 937.6153582911938, 617.1938197375275, 1212.3278395864181, 0.09600000455975533, 0.0800000037997961, 1.008000047877431, 0.0, 0.0, 0.0, 0.0, 0.0, 1.6450614296064696E9, 0.0, 2022-02-16 19:30:29.606
50.0, 1014.0607833354734, 931.8858315590769, 618.0502568273805, 1126.2241229065694, 0.09600000455975533, 0.0800000037997961, 1.008000047877431, 0.0, 0.0, 0.0, 0.0, 0.0, 1.6450614296227336E9, 0.0, 2022-02-16 19:30:29.622
50.0, 1009.7411988866515, 921.608586480841, 605.2934580785222, 1221.4270161786117, 0.09600000455975533, 0.0800000037997961, 1.008000047877431, 0.0, 0.0, 0.0, 0.0, 0.0, 1.6450614296227336E9, 0.0, 2022-02-16 19:30:29.622
51.0, 1070.1518028709106, 941.7666472420096, 618.8169363182969, 1142.4216296146624, 0.09600000455975533, 0.09600000455975533, 1.008000047877431, 0.0, 0.0, 0.0, 0.0, 0.0, 1.6450614296229196E9, 0.0, 2022-02-16 19:30:29.622
51.0, 1060.630017583724, 933.2995137423277, 617.4705723342486, 1178.126454491634, 0.09600000455975533, 0.09600000455975533, 1.008000047877431, 0.0, 0.0, 0.0, 0.0, 0.0, 1.6450614296229196E9, 0.0, 2022-02-16 19:30:29.622
52.0, 1030.8155351369642, 929.6456314856187, 606.4079482653178, 1093.316743196454, 0.09600000455975533, 0.09600000455975533, 1.008000047877431, 0.0, 0.0, 0.0, 0.0, 0.0, 1.6450614296364143E9, 0.0, 2022-02-16 19:30:29.636
52.0, 1027.3972665774636, 935.12832482066, 622.2950432770886, 1078.0916104768403, 0.09600000455975533, 0.09600000455975533, 1.008000047877431, 0.0, 0.0, 0.0, 0.0, 0.0, 1.6450614296364143E9, 0.0, 2022-02-16 19:30:29.636
53.0, 1035.2510564844124, 934.9301101230085, 624.4866246511228, 1088.4212141544558, 0.09600000455975533, 0.09600000455975533, 1.008000047877431, 0.0, 0.0, 0.0, 0.0, 0.0, 1.6450614296521657E9, 0.0, 2022-02-16 19:30:29.652
53.0, 1024.8092558081262, 929.87002548296, 615.4697258579545, 1045.6217990615405, 0.09600000455975533, 0.09600000455975533, 1.008000047877431, 0.0, 0.0, 0.0, 0.0, 0.0, 1.6450614296521657E9, 0.0, 2022-02-16 19:30:29.652
54.0, 1058.3000599113293, 930.7825610721484, 613.2482252842747, 1021.9482323420234, 0.09600000455975533, 0.09600000455975533, 1.008000047877431, 0.0, 0.0, 0.0, 0.0, 0.0, 1.6450614296528826E9, 0.0, 2022-02-16 19:30:29.652
54.0, 958.2465163967572, 953.0798446079716, 630.3470478816889, 1047.2823146418668, 0.09600000455975533, 0.09600000455975533, 1.008000047877431, 0.0, 0.0, 0.0, 0.0, 0.0, 1.6450614296528826E9, 0.0, 2022-02-16 19:30:29.652
55.0, 987.5112335500307, 943.7188750188798, 624.8568747467361, 1039.634219232481, 0.09600000455975533, 0.09600000455975533, 1.008000047877431, 0.0, 0.0, 0.0, 0.0, 0.0, 1.6450614296827807E9, 0.0, 2022-02-16 19:30:29.682
55.0, 1031.1409064331092, 921.5076091820374, 618.2335119252093, 973.4080708171241, 0.09600000455975533, 0.09600000455975533, 1.008000047877431, 0.0, 0.0, 0.0, 0.0, 0.0, 1.6450614296827807E9, 0.0, 2022-02-16 19:30:29.682
56.0, 994.0074397730641, 947.9449619688094, 623.1290409672074, 867.565162171144, 0.09600000455975533, 0.09600000455975533, 1.008000047877431, 0.0, 0.0, 0.0, 0.0, 0.0, 1.6450614296835065E9, 0.0, 2022-02-16 19:30:29.683
56.0, 995.2977052577771, 955.5369588788599, 630.3320882818662, 933.7165125873871, 0.09600000455975533, 0.09600000455975533, 1.008000047877431, 0.0, 0.0, 0.0, 0.0, 0.0, 1.6450614296835065E9, 0.0, 2022-02-16 19:30:29.683
57.0, 1056.4899483327754, 938.1015452854335, 610.5592372161336, 903.5803987444378, 0.09600000455975533, 0.09600000455975533, 1.008000047877431, 0.0, 0.0, 0.0, 0.0, 0.0, 1.6450614296842728E9, 0.0, 2022-02-16 19:30:29.684
57.0, 1018.9712719772942, 931.6988365612924, 621.3563283882104, 906.8341117058881, 0.09600000455975533, 0.09600000455975533, 1.008000047877431, 0.0, 0.0, 0.0, 0.0, 0.0, 1.6450614296842728E9, 0.0, 2022-02-16 19:30:29.684
58.0, 966.2648619017564, 961.1168896127492, 633.6942583420314, 854.2548582288437, 0.09600000455975533, 0.09600000455975533, 1.008000047877431, 0.0, 0.0, 0.0, 0.0, 0.0, 1.6450614296964452E9, 0.0, 2022-02-16 19:30:29.696
58.0, 1040.984323116485, 948.7228611595929, 625.3243622411974, 856.9176669972949, 0.09600000455975533, 0.09600000455975533, 1.008000047877431, 0.0, 0.0, 0.0, 0.0, 0.0, 1.6450614296964452E9, 0.0, 2022-02-16 19:30:29.696
59.0, 1051.3849848932587, 950.4170358395204, 620.0174442040734, 901.093365273904, 0.09600000455975533, 0.09600000455975533, 1.008000047877431, 0.0, 0.0, 0.0, 0.0, 0.0, 1.6450614297118952E9, 0.0, 2022-02-16 19:30:29.711
59.0, 1018.08117578784, 956.2849388699979, 629.0156434974633, 942.9989442774095, 0.09600000455975533, 0.09600000455975533, 1.008000047877431, 0.0, 0.0, 0.0, 0.0, 0.0, 1.6450614297118952E9, 0.0, 2022-02-16 19:30:29.711
60.0, 1022.8084093318321, 952.1149504194036, 622.6204145732336, 900.5697792801075, 0.09600000455975533, 0.09600000455975533, 1.008000047877431, 0.0, 0.0, 0.0, 0.0, 0.0, 1.645061429727147E9, 0.0, 2022-02-16 19:30:29.727
60.0, 1046.8784054466523, 945.6898022955284, 613.1322883856483, 894.0885326568969, 0.09600000455975533, 0.09600000455975533, 1.008000047877431, 0.0, 0.0, 0.0, 0.0, 0.0, 1.645061429727147E9, 0.0, 2022-02-16 19:30:29.727
61.0, 949.154819604475, 929.8924648826942, 624.9391525457613, 934.6514875763096, 0.09600000455975533, 0.09600000455975533, 1.008000047877431, 0.0, 0.0, 0.0, 0.0, 0.0, 1.645061429727827E9, 0.0, 2022-02-16 19:30:29.727
61.0, 1046.2052234546281, 944.3396984115243, 619.6172749088146, 915.2451467062347, 0.09600000455975533, 0.09600000455975533, 1.008000047877431, 0.0, 0.0, 0.0, 0.0, 0.0, 1.645061429727827E9, 0.0, 2022-02-16 19:30:29.727
62.0, 1035.1986978850327, 946.4003832871094, 615.1780136614107, 885.2661086614244, 0.09600000455975533, 0.09600000455975533, 1.008000047877431, 0.0, 0.0, 0.0, 0.0, 0.0, 1.645061429742126E9, 0.0, 2022-02-16 19:30:29.742
62.0, 975.4911950924434, 952.0214529205114, 626.0312033328228, 867.9054930671118, 0.09600000455975533, 0.09600000455975533, 1.008000047877431, 0.0, 0.0, 0.0, 0.0, 0.0, 1.645061429742126E9, 0.0, 2022-02-16 19:30:29.742
63.0, 1004.3707025502808, 954.4823070913553, 627.4486254160292, 872.9580979072489, 0.09600000455975533, 0.09600000455975533, 1.008000047877431, 0.0, 0.0, 0.0, 0.0, 0.0, 1.6450614297427902E9, 0.0, 2022-02-16 19:30:29.742
63.0, 1030.9165124357678, 949.433442151174, 621.0384368919767, 912.6608758368529, 0.09600000455975533, 0.09600000455975533, 1.008000047877431, 0.0, 0.0, 0.0, 0.0, 0.0, 1.6450614297427902E9, 0.0, 2022-02-16 19:30:29.742
64.0, 1080.2607524511404, 945.3120724000037, 612.0514572984539, 919.1496022599749, 0.09600000455975533, 0.09600000455975533, 1.008000047877431, 0.0, 0.0, 0.0, 0.0, 0.0, 1.6450614297564788E9, 0.0, 2022-02-16 19:30:29.756
64.0, 996.8198445397429, 953.2817992055789, 626.5061706271954, 959.0805140868761, 0.09600000455975533, 0.09600000455975533, 1.008000047877431, 0.0, 0.0, 0.0, 0.0, 0.0, 1.6450614297564788E9, 0.0, 2022-02-16 19:30:29.756
65.0, 977.1404909729026, 954.1868549948558, 620.1932195019908, 906.6732960077934, 0.09600000455975533, 0.09600000455975533, 1.008000047877431, 0.0, 0.0, 0.0, 0.0, 0.0, 1.645061429772168E9, 0.0, 2022-02-16 19:30:29.772
65.0, 1068.880236885976, 927.1548581151292, 613.3903414825909, 892.5813529747538, 0.09600000455975533, 0.09600000455975533, 1.008000047877431, 0.0, 0.0, 0.0, 0.0, 0.0, 1.645061429772168E9, 0.0, 2022-02-16 19:30:29.772
66.0, 1039.9932496282272, 943.5505795208737, 624.2846700535156, 890.6553044975735, 0.09600000455975533, 0.09600000455975533, 1.008000047877431, 0.0, 0.0, 0.0, 0.0, 0.0, 1.6450614297729113E9, 0.0, 2022-02-16 19:30:29.772
66.0, 1032.217997620348, 943.644077019766, 619.624754708726, 938.6457007289864, 0.09600000455975533, 0.09600000455975533, 1.008000047877431, 0.0, 0.0, 0.0, 0.0, 0.0, 1.6450614297729113E9, 0.0, 2022-02-16 19:30:29.772
67.0, 1032.251656719949, 945.7683401945978, 610.7499721138738, 947.5504025234841, 0.09600000455975533, 0.09600000455975533, 1.008000047877431, 0.0, 0.0, 0.0, 0.0, 0.0, 1.6450614297864788E9, 0.0, 2022-02-16 19:30:29.786
67.0, 1010.4368202784099, 942.9783748276532, 612.496505393181, 911.972734245006, 0.09600000455975533, 0.09600000455975533, 1.008000047877431, 0.0, 0.0, 0.0, 0.0, 0.0, 1.6450614297864788E9, 0.0, 2022-02-16 19:30:29.786
68.0, 1042.480283098761, 958.8093713400885, 620.443792799022, 916.9318415862508, 0.09600000455975533, 0.09600000455975533, 1.008000047877431, 0.0, 0.0, 0.0, 0.0, 0.0, 1.6450614298023157E9, 0.0, 2022-02-16 19:30:29.802
68.0, 1096.8397289547138, 935.9211836112663, 610.7649317136966, 914.6243233135901, 0.09600000455975533, 0.09600000455975533, 1.008000047877431, 0.0, 0.0, 0.0, 0.0, 0.0, 1.6450614298023157E9, 0.0, 2022-02-16 19:30:29.802
69.0, 989.5532189258374, 939.3319723708555, 613.5137581811287, 903.8347119414248, 0.09600000455975533, 0.09600000455975533, 1.008000047877431, 0.0, 0.0, 0.0, 0.0, 0.0, 1.6450614298029103E9, 0.0, 2022-02-16 19:30:29.802
69.0, 1030.082514745649, 951.6586826248094, 626.7230848246254, 949.9102793955244, 0.09600000455975533, 0.09600000455975533, 1.008000047877431, 0.0, 0.0, 0.0, 0.0, 0.0, 1.6450614298029103E9, 0.0, 2022-02-16 19:30:29.802
70.0, 1034.4694173936732, 936.2577746072784, 621.240391489584, 974.458982704673, 0.09600000455975533, 0.09600000455975533, 1.008000047877431, 0.0, 0.0, 0.0, 0.0, 0.0, 1.645061429816427E9, 0.0, 2022-02-16 19:30:29.816
70.0, 1020.9945578533225, 943.4084633225575, 617.0217843395658, 915.4695407035761, 0.09600000455975533, 0.09600000455975533, 1.008000047877431, 0.0, 0.0, 0.0, 0.0, 0.0, 1.645061429816427E9, 0.0, 2022-02-16 19:30:29.816
71.0, 1022.580275434535, 946.4826610861346, 627.029756620992, 932.1008758065291, 0.09600000455975533, 0.09600000455975533, 1.008000047877431, 0.0, 0.0, 0.0, 0.0, 0.0, 1.6450614298322303E9, 0.0, 2022-02-16 19:30:29.832
71.0, 1023.171179627534, 952.2832459174097, 618.7645777189173, 874.7008912866004, 0.09600000455975533, 0.09600000455975533, 1.008000047877431, 0.0, 0.0, 0.0, 0.0, 0.0, 1.6450614298322303E9, 0.0, 2022-02-16 19:30:29.832
72.0, 1099.6895327209495, 933.235935443081, 606.6660013622604, 969.7130496609025, 0.09600000455975533, 0.09600000455975533, 1.008000047877431, 0.0, 0.0, 0.0, 0.0, 0.0, 1.6450614298327827E9, 0.0, 2022-02-16 19:30:29.832
72.0, 1045.3824454643764, 927.2707950137556, 613.8877481766976, 943.4178130724467, 0.09600000455975533, 0.09600000455975533, 1.008000047877431, 0.0, 0.0, 0.0, 0.0, 0.0, 1.6450614298327827E9, 0.0, 2022-02-16 19:30:29.832
73.0, 1031.7916490253992, 947.9599215686321, 620.8028231947683, 945.5121570476331, 0.09600000455975533, 0.09600000455975533, 1.008000047877431, 0.0, 0.0, 0.0, 0.0, 0.0, 1.6450614298791702E9, 0.0, 2022-02-16 19:30:29.879
73.0, 1032.3040153193288, 938.1464240849018, 611.7410456021316, 952.8348811608739, 0.09600000455975533, 0.09600000455975533, 1.008000047877431, 0.0, 0.0, 0.0, 0.0, 0.0, 1.6450614298791702E9, 0.0, 2022-02-16 19:30:29.879
74.0, 993.0687248841859, 940.5100408568978, 616.6664938437752, 912.7169743361883, 0.09600000455975533, 0.09600000455975533, 1.008000047877431, 0.0, 0.0, 0.0, 0.0, 0.0, 1.6450614298800297E9, 0.0, 2022-02-16 19:30:29.880
74.0, 976.9123570756055, 954.5758045902476, 625.9377058339305, 915.7275938005187, 0.09600000455975533, 0.09600000455975533, 1.008000047877431, 0.0, 0.0, 0.0, 0.0, 0.0, 1.6450614298800297E9, 0.0, 2022-02-16 19:30:29.880
75.0, 1063.9398290445097, 945.5140269976109, 620.7878635949455, 925.8253236808814, 0.09600000455975533, 0.09600000455975533, 1.008000047877431, 0.0, 0.0, 0.0, 0.0, 0.0, 1.6450614298806796E9, 0.0, 2022-02-16 19:30:29.880
75.0, 1022.6101946341805, 932.2560816546902, 617.2760975365527, 953.0181362587027, 0.09600000455975533, 0.09600000455975533, 1.008000047877431, 0.0, 0.0, 0.0, 0.0, 0.0, 1.6450614298806796E9, 0.0, 2022-02-16 19:30:29.880
76.0, 1032.1058006216772, 937.8659315882251, 628.596774702426, 1005.417874537874, 0.09600000455975533, 0.09600000455975533, 1.008000047877431, 0.0, 0.0, 0.0, 0.0, 0.0, 1.6450614298813744E9, 0.0, 2022-02-16 19:30:29.881
76.0, 1099.3529417249374, 949.9944271445274, 629.7748431884684, 926.6406218712218, 0.09600000455975533, 0.09600000455975533, 1.008000047877431, 0.0, 0.0, 0.0, 0.0, 0.0, 1.6450614298813744E9, 0.0, 2022-02-16 19:30:29.881
77.0, 1004.1163893532939, 940.7942732535303, 618.6897797198035, 1040.9319645171054, 0.09600000455975533, 0.09600000455975533, 1.008000047877431, 0.0, 0.0, 0.0, 0.0, 0.0, 1.645061429893062E9, 0.0, 2022-02-16 19:30:29.893
77.0, 992.705954588484, 933.8305795360357, 619.5499567096122, 999.0450850133784, 0.09600000455975533, 0.09600000455975533, 1.008000047877431, 0.0, 0.0, 0.0, 0.0, 0.0, 1.645061429893062E9, 0.0, 2022-02-16 19:30:29.893
78.0, 1108.6952118142508, 955.4546810798347, 635.8035619170405, 802.8574131377973, 0.09600000455975533, 0.09600000455975533, 1.008000047877431, 0.0, 0.0, 0.0, 0.0, 0.0, 1.6450614298933544E9, 0.0, 2022-02-16 19:30:29.893
78.0, 1063.6368971480988, 948.6555429603904, 630.5901413788088, 923.2934114108793, 0.09600000455975533, 0.09600000455975533, 1.008000047877431, 0.0, 0.0, 0.0, 0.0, 0.0, 1.6450614298933544E9, 0.0, 2022-02-16 19:30:29.893
79.0, 1033.9233920001425, 938.4343963814899, 622.9570055692457, 930.1785672293045, 0.09600000455975533, 0.09600000455975533, 1.008000047877431, 0.0, 0.0, 0.0, 0.0, 0.0, 1.6450614299064255E9, 0.0, 2022-02-16 19:30:29.906
79.0, 973.9952351101674, 950.0430458439514, 633.6755588422529, 909.7362740715034, 0.09600000455975533, 0.09600000455975533, 1.008000047877431, 0.0, 0.0, 0.0, 0.0, 0.0, 1.6450614299064255E9, 0.0, 2022-02-16 19:30:29.906
80.0, 1101.925992894452, 945.5888249967247, 623.9854780570604, 994.1383362715133, 0.09600000455975533, 0.09600000455975533, 1.008000047877431, 0.0, 0.0, 0.0, 0.0, 0.0, 1.6450614299221225E9, 0.0, 2022-02-16 19:30:29.922
80.0, 1041.9342577052303, 930.9658161699772, 612.5937427920289, 928.1403217534535, 0.09600000455975533, 0.09600000455975533, 1.008000047877431, 0.0, 0.0, 0.0, 0.0, 0.0, 1.6450614299221225E9, 0.0, 2022-02-16 19:30:29.922
81.0, 1052.0656466851942, 952.4777207151055, 630.8070555762388, 924.6622147946618, 0.09600000455975533, 0.09600000455975533, 1.008000047877431, 0.0, 0.0, 0.0, 0.0, 0.0, 1.6450614299228332E9, 0.0, 2022-02-16 19:30:29.922
81.0, 1039.3350272360258, 955.5294790789485, 632.5909878551029, 967.9852158813737, 0.09600000455975533, 0.09600000455975533, 1.008000047877431, 0.0, 0.0, 0.0, 0.0, 0.0, 1.6450614299228332E9, 0.0, 2022-02-16 19:30:29.922
82.0, 985.6225840724073, 943.1055314261466, 623.7723037595861, 909.3735037758015, 0.09600000455975533, 0.09600000455975533, 1.008000047877431, 0.0, 0.0, 0.0, 0.0, 0.0, 1.645061429936442E9, 0.0, 2022-02-16 19:30:29.936
82.0, 1014.8686017259024, 948.6218838607892, 624.8905338463373, 854.0379440314136, 0.09600000455975533, 0.09600000455975533, 1.008000047877431, 0.0, 0.0, 0.0, 0.0, 0.0, 1.645061429936442E9, 0.0, 2022-02-16 19:30:29.936
83.0, 1050.838959499728, 945.0241001034155, 631.0875480729155, 956.7879554140382, 0.09600000455975533, 0.09600000455975533, 1.008000047877431, 0.0, 0.0, 0.0, 0.0, 0.0, 1.6450614299521637E9, 0.0, 2022-02-16 19:30:29.952
83.0, 1068.4613680909388, 942.4809681335464, 625.2720036418177, 1005.6721877348609, 0.09600000455975533, 0.09600000455975533, 1.008000047877431, 0.0, 0.0, 0.0, 0.0, 0.0, 1.6450614299521637E9, 0.0, 2022-02-16 19:30:29.952
84.0, 1070.0770048717968, 946.9613682804629, 623.9480790575035, 936.274604157079, 0.09600000455975533, 0.09600000455975533, 1.008000047877431, 0.0, 0.0, 0.0, 0.0, 0.0, 1.645061429952799E9, 0.0, 2022-02-16 19:30:29.952
84.0, 1005.6946271345951, 949.4558815509081, 625.1261475435458, 950.2356506916694, 0.09600000455975533, 0.09600000455975533, 1.008000047877431, 0.0, 0.0, 0.0, 0.0, 0.0, 1.645061429952799E9, 0.0, 2022-02-16 19:30:29.952
85.0, 1015.4557660189457, 942.7539808303118, 619.5088178100996, 952.1803986686282, 0.09600000455975533, 0.09600000455975533, 1.008000047877431, 0.0, 0.0, 0.0, 0.0, 0.0, 1.6450614299664347E9, 0.0, 2022-02-16 19:30:29.966
85.0, 1005.4253543377854, 939.459128969349, 615.6342814560048, 889.6567512094043, 0.09600000455975533, 0.09600000455975533, 1.008000047877431, 0.0, 0.0, 0.0, 0.0, 0.0, 1.6450614299664347E9, 0.0, 2022-02-16 19:30:29.966
86.0, 1091.0466239233501, 944.029286715202, 622.9233464696445, 946.20029863948, 0.09600000455975533, 0.09600000455975533, 1.008000047877431, 0.0, 0.0, 0.0, 0.0, 0.0, 1.6450614299821863E9, 0.0, 2022-02-16 19:30:29.982
86.0, 1022.9467856301926, 945.4055698988959, 624.2547508538701, 1007.5982362120412, 0.09600000455975533, 0.09600000455975533, 1.008000047877431, 0.0, 0.0, 0.0, 0.0, 0.0, 1.6450614299821863E9, 0.0, 2022-02-16 19:30:29.982
87.0, 1002.8223839686252, 934.3541655298322, 610.3535427185707, 979.4554890454747, 0.09600000455975533, 0.09600000455975533, 1.008000047877431, 0.0, 0.0, 0.0, 0.0, 0.0, 1.645061429982829E9, 0.0, 2022-02-16 19:30:29.982
87.0, 970.9995752456598, 949.3549042521045, 624.509064050857, 858.2341117816977, 0.09600000455975533, 0.09600000455975533, 1.008000047877431, 0.0, 0.0, 0.0, 0.0, 0.0, 1.645061429982829E9, 0.0, 2022-02-16 19:30:29.982
88.0, 1031.5859545278363, 955.6454159775749, 633.0584753495641, 969.8252466595732, 0.09600000455975533, 0.09600000455975533, 1.008000047877431, 0.0, 0.0, 0.0, 0.0, 0.0, 1.6450614299964185E9, 0.0, 2022-02-16 19:30:29.996
88.0, 1064.526993337553, 949.7775129470974, 630.1937119835056, 928.6826072470285, 0.09600000455975533, 0.09600000455975533, 1.008000047877431, 0.0, 0.0, 0.0, 0.0, 0.0, 1.6450614299964185E9, 0.0, 2022-02-16 19:30:29.996
89.0, 1044.8252003709786, 940.6484171552584, 623.013104068581, 897.8471321123652, 0.09600000455975533, 0.09600000455975533, 1.008000047877431, 0.0, 0.0, 0.0, 0.0, 0.0, 1.6450614300118978E9, 0.0, 2022-02-16 19:30:30.011
89.0, 1062.597204960417, 966.0348580544814, 638.0175826908089, 852.5756431487389, 0.09600000455975533, 0.09600000455975533, 1.008000047877431, 0.0, 0.0, 0.0, 0.0, 0.0, 1.6450614300118978E9, 0.0, 2022-02-16 19:30:30.011
90.0, 1021.1628533513285, 961.2814452107996, 637.4229385978542, 945.3962201490067, 0.09600000455975533, 0.09600000455975533, 1.008000047877431, 0.0, 0.0, 0.0, 0.0, 0.0, 1.645061430027184E9, 0.0, 2022-02-16 19:30:30.027
90.0, 1062.705662059132, 941.8264856413007, 621.5433233859949, 956.765516014304, 0.09600000455975533, 0.09600000455975533, 1.008000047877431, 0.0, 0.0, 0.0, 0.0, 0.0, 1.645061430027184E9, 0.0, 2022-02-16 19:30:30.027
91.0, 1049.4252773164771, 946.7781131826341, 635.9120190157555, 935.9193136612885, 0.09600000455975533, 0.09600000455975533, 1.008000047877431, 0.0, 0.0, 0.0, 0.0, 0.0, 1.6450614300278676E9, 0.0, 2022-02-16 19:30:30.027
91.0, 1072.8295712391846, 964.6697945706546, 635.7624230175279, 955.0638615344651, 0.09600000455975533, 0.09600000455975533, 1.008000047877431, 0.0, 0.0, 0.0, 0.0, 0.0, 1.6450614300278676E9, 0.0, 2022-02-16 19:30:30.027
92.0, 1020.8300022552721, 951.423068927601, 624.146293755155, 979.4592289454304, 0.09600000455975533, 0.09600000455975533, 1.008000047877431, 0.0, 0.0, 0.0, 0.0, 0.0, 1.645061430042216E9, 0.0, 2022-02-16 19:30:30.042
92.0, 1051.2466085948981, 942.5894252322614, 626.5286100269295, 932.9797522961162, 0.09600000455975533, 0.09600000455975533, 1.008000047877431, 0.0, 0.0, 0.0, 0.0, 0.0, 1.645061430042216E9, 0.0, 2022-02-16 19:30:30.042
93.0, 1036.5188825693913, 944.4294560104609, 639.4798835734837, 967.6972435847856, 0.09600000455975533, 0.09600000455975533, 1.008000047877431, 0.0, 0.0, 0.0, 0.0, 0.0, 1.6450614300428483E9, 0.0, 2022-02-16 19:30:30.042
93.0, 991.632603301201, 941.0859854500741, 626.4463322279043, 921.2140270355158, 0.09600000455975533, 0.09600000455975533, 1.008000047877431, 0.0, 0.0, 0.0, 0.0, 0.0, 1.6450614300428483E9, 0.0, 2022-02-16 19:30:30.042
94.0, 1019.3976205722429, 933.2022763434798, 621.1244545909576, 925.3054775870405, 0.09600000455975533, 0.09600000455975533, 1.008000047877431, 0.0, 0.0, 0.0, 0.0, 0.0, 1.6450614300564487E9, 0.0, 2022-02-16 19:30:30.056
94.0, 1085.8706023846753, 941.6394906435162, 632.1833387599327, 978.2325417599641, 0.09600000455975533, 0.09600000455975533, 1.008000047877431, 0.0, 0.0, 0.0, 0.0, 0.0, 1.6450614300564487E9, 0.0, 2022-02-16 19:30:30.056
95.0, 1025.0710488050245, 946.1311104902998, 624.8194757471792, 954.6973513388075, 0.09600000455975533, 0.09600000455975533, 1.008000047877431, 0.0, 0.0, 0.0, 0.0, 0.0, 1.645061430072059E9, 0.0, 2022-02-16 19:30:30.072
95.0, 1032.360113818664, 936.2428150074556, 616.4607993462123, 1091.5702099171467, 0.09600000455975533, 0.09600000455975533, 1.008000047877431, 0.0, 0.0, 0.0, 0.0, 0.0, 1.645061430072059E9, 0.0, 2022-02-16 19:30:30.072
96.0, 1046.0182284568436, 946.7220146832988, 621.8238158826716, 896.6653237263672, 0.09600000455975533, 0.09600000455975533, 1.008000047877431, 0.0, 0.0, 0.0, 0.0, 0.0, 1.6450614300727289E9, 0.0, 2022-02-16 19:30:30.072
96.0, 1030.6584593388252, 948.3675706638023, 628.3462014053948, 887.4277708358131, 0.09600000455975533, 0.09600000455975533, 1.008000047877431, 0.0, 0.0, 0.0, 0.0, 0.0, 1.6450614300727289E9, 0.0, 2022-02-16 19:30:30.072
97.0, 1025.2131650033407, 940.2108488604426, 625.5113572389819, 933.4434998906218, 0.09600000455975533, 0.09600000455975533, 1.008000047877431, 0.0, 0.0, 0.0, 0.0, 0.0, 1.6450614300863657E9, 0.0, 2022-02-16 19:30:30.086
97.0, 1010.1413681819104, 941.1420839494094, 625.6272941376083, 933.2340654931031, 0.09600000455975533, 0.09600000455975533, 1.008000047877431, 0.0, 0.0, 0.0, 0.0, 0.0, 1.6450614300863657E9, 0.0, 2022-02-16 19:30:30.086
98.0, 1015.5791827174835, 946.8678707815707, 625.7955896356143, 963.2392828376032, 0.09600000455975533, 0.09600000455975533, 1.008000047877431, 0.0, 0.0, 0.0, 0.0, 0.0, 1.6450614301020384E9, 0.0, 2022-02-16 19:30:30.102
98.0, 1070.0470856721513, 940.6484171552584, 619.5948355090804, 962.5997599451803, 0.09600000455975533, 0.09600000455975533, 1.008000047877431, 0.0, 0.0, 0.0, 0.0, 0.0, 1.6450614301020384E9, 0.0, 2022-02-16 19:30:30.102
99.0, 1035.5988671802916, 929.8812451828271, 614.583369568456, 932.6020224005915, 0.09600000455975533, 0.09600000455975533, 1.008000047877431, 0.0, 0.0, 0.0, 0.0, 0.0, 1.6450614301027908E9, 0.0, 2022-02-16 19:30:30.102
99.0, 965.7861547074281, 947.1371435783803, 626.7380444244482, 896.0968589331023, 0.09600000455975533, 0.09600000455975533, 1.008000047877431, 0.0, 0.0, 0.0, 0.0, 0.0, 1.6450614301027908E9, 0.0, 2022-02-16 19:30:30.102
100.0, 1039.9745501284488, 969.3708488149568, 626.2929963297211, 954.2036845446564, 0.09600000455975533, 0.09600000455975533, 1.008000047877431, 0.0, 0.0, 0.0, 0.0, 0.0, 1.6450614301170764E9, 0.0, 2022-02-16 19:30:30.117
100.0, 1024.7456775088795, 954.2242539944127, 615.8773749531247, 971.8223532359116, 0.09600000455975533, 0.09600000455975533, 1.008000047877431, 0.0, 0.0, 0.0, 0.0, 0.0, 1.6450614301170764E9, 0.0, 2022-02-16 19:30:30.117
0.0, 985.1083478285, 950.8957430338487, 620.9224999933504, 1024.20713191526, 0.09600000455975533, 0.09600000455975533, 1.008000047877431, 0.0, 0.0, 0.0, 0.0, 0.0, 1.6450614301176991E9, 0.0, 2022-02-16 19:30:30.117
1.0, 1005.8311334829777, 945.1662163017318, 619.4714188105427, 1003.645161958877, 0.09600000455975533, 0.09600000455975533, 1.008000047877431, 0.0, 0.0, 0.0, 0.0, 0.0, 1.6450614301313984E9, 0.0, 2022-02-16 19:30:30.131
1.0, 1000.6326725445688, 945.6075244965032, 610.6489948150702, 916.6438692896627, 0.09600000455975533, 0.09600000455975533, 1.008000047877431, 0.0, 0.0, 0.0, 0.0, 0.0, 1.6450614301313984E9, 0.0, 2022-02-16 19:30:30.131
2.0, 1070.2583900196478, 951.7297407239676, 625.5599759384058, 866.1963587873615, 0.09600000455975533, 0.09600000455975533, 1.008000047877431, 0.0, 0.0, 0.0, 0.0, 0.0, 1.6450614301470923E9, 0.0, 2022-02-16 19:30:30.147
2.0, 1020.1025917138904, 953.1658623069525, 625.2907031415962, 950.5610219878145, 0.09600000455975533, 0.09600000455975533, 1.008000047877431, 0.0, 0.0, 0.0, 0.0, 0.0, 1.6450614301470923E9, 0.0, 2022-02-16 19:30:30.147
3.0, 1014.7433150773868, 936.5046080043539, 620.432573099155, 985.7123416713439, 0.09600000455975533, 0.09600000455975533, 1.008000047877431, 0.0, 0.0, 0.0, 0.0, 0.0, 1.6450614301477213E9, 0.0, 2022-02-16 19:30:30.147
3.0, 1039.6286093825474, 938.8981439759955, 620.9785984926857, 971.1566510437988, 0.09600000455975533, 0.09600000455975533, 1.008000047877431, 0.0, 0.0, 0.0, 0.0, 0.0, 1.6450614301477213E9, 0.0, 2022-02-16 19:30:30.147
4.0, 980.0520030884072, 957.5004063555971, 633.8401144403033, 872.2662164154463, 0.09600000455975533, 0.09600000455975533, 1.008000047877431, 0.0, 0.0, 0.0, 0.0, 0.0, 1.6450614301613665E9, 0.0, 2022-02-16 19:30:30.161
4.0, 1030.3798367921263, 947.3091789763421, 615.3163899597712, 931.5324110132642, 0.09600000455975533, 0.09600000455975533, 1.008000047877431, 0.0, 0.0, 0.0, 0.0, 0.0, 1.6450614301613665E9, 0.0, 2022-02-16 19:30:30.161
5.0, 1065.9313257709146, 935.8538654120639, 601.6807147213258, 1011.0426840712316, 0.09600000455975533, 0.09600000455975533, 1.008000047877431, 0.0, 0.0, 0.0, 0.0, 0.0, 1.6450614301770227E9, 0.0, 2022-02-16 19:30:30.177
5.0, 932.390718053095, 947.140883478336, 619.516297610011, 905.1062779263593, 0.09600000455975533, 0.09600000455975533, 1.008000047877431, 0.0, 0.0, 0.0, 0.0, 0.0, 1.6450614301770227E9, 0.0, 2022-02-16 19:30:30.177
6.0, 1013.860698687844, 951.9952736208215, 626.1396604315378, 954.3645002427511, 0.09600000455975533, 0.09600000455975533, 1.008000047877431, 0.0, 0.0, 0.0, 0.0, 0.0, 1.645061430192162E9, 0.0, 2022-02-16 19:30:30.192
6.0, 1079.1743115140125, 944.0966049144045, 613.1771671851166, 994.6432227655314, 0.09600000455975533, 0.09600000455975533, 1.008000047877431, 0.0, 0.0, 0.0, 0.0, 0.0, 1.645061430192162E9, 0.0, 2022-02-16 19:30:30.192
7.0, 1036.775065716356, 936.8785979999229, 615.7464784546755, 956.3690866190009, 0.09600000455975533, 0.09600000455975533, 1.008000047877431, 0.0, 0.0, 0.0, 0.0, 0.0, 1.6450614301928847E9, 0.0, 2022-02-16 19:30:30.192
7.0, 1068.5829148394987, 954.0073397969827, 631.117467272561, 977.6416375669651, 0.09600000455975533, 0.09600000455975533, 1.008000047877431, 0.0, 0.0, 0.0, 0.0, 0.0, 1.6450614301928847E9, 0.0, 2022-02-16 19:30:30.192
8.0, 1036.644169217907, 941.7180285425857, 618.5102645219304, 1027.8348348722793, 0.09600000455975533, 0.09600000455975533, 1.008000047877431, 0.0, 0.0, 0.0, 0.0, 0.0, 1.6450614302235346E9, 0.0, 2022-02-16 19:30:30.223
8.0, 1034.8714566389099, 933.5987057387829, 619.7780906069092, 986.9352889568545, 0.09600000455975533, 0.09600000455975533, 1.008000047877431, 0.0, 0.0, 0.0, 0.0, 0.0, 1.6450614302235346E9, 0.0, 2022-02-16 19:30:30.223
9.0, 1044.8457698207349, 932.5739731509238, 623.8246623589657, 1068.2481937934645, 0.09600000455975533, 0.09600000455975533, 1.008000047877431, 0.0, 0.0, 0.0, 0.0, 0.0, 1.6450614302241733E9, 0.0, 2022-02-16 19:30:30.224
9.0, 1047.3627224909142, 936.190456408076, 615.5108647574671, 940.7400447041728, 0.09600000455975533, 0.09600000455975533, 1.008000047877431, 0.0, 0.0, 0.0, 0.0, 0.0, 1.6450614302241733E9, 0.0, 2022-02-16 19:30:30.224
10.0, 1055.4035073956475, 936.3774514058605, 615.0545969628729, 932.4000678029843, 0.09600000455975533, 0.09600000455975533, 1.008000047877431, 0.0, 0.0, 0.0, 0.0, 0.0, 1.6450614302251647E9, 0.0, 2022-02-16 19:30:30.225
10.0, 1022.496127685532, 943.9357892163098, 629.0642621968873, 954.8619069368578, 0.09600000455975533, 0.09600000455975533, 1.008000047877431, 0.0, 0.0, 0.0, 0.0, 0.0, 1.6450614302251647E9, 0.0, 2022-02-16 19:30:30.225
11.0, 1011.8635921115056, 944.077905414626, 626.5660090264864, 1022.797189631965, 0.09600000455975533, 0.09600000455975533, 1.008000047877431, 0.0, 0.0, 0.0, 0.0, 0.0, 1.6450614302256837E9, 0.0, 2022-02-16 19:30:30.225
11.0, 1027.3729572277516, 938.1464240849018, 610.8771287123673, 990.3535575163551, 0.09600000455975533, 0.09600000455975533, 1.008000047877431, 0.0, 0.0, 0.0, 0.0, 0.0, 1.6450614302256837E9, 0.0, 2022-02-16 19:30:30.225
12.0, 1044.939267319627, 942.9372359281406, 630.3283483819105, 974.5337807037868, 0.09600000455975533, 0.09600000455975533, 1.008000047877431, 0.0, 0.0, 0.0, 0.0, 0.0, 1.6450614302365108E9, 0.0, 2022-02-16 19:30:30.236
12.0, 1097.813972893171, 956.7860854640603, 642.430664638523, 947.973011218477, 0.09600000455975533, 0.09600000455975533, 1.008000047877431, 0.0, 0.0, 0.0, 0.0, 0.0, 1.6450614302365108E9, 0.0, 2022-02-16 19:30:30.236
13.0, 1087.551687414758, 938.1763432845473, 625.9526654337533, 1027.356127677951, 0.09600000455975533, 0.09600000455975533, 1.008000047877431, 0.0, 0.0, 0.0, 0.0, 0.0, 1.6450614302515545E9, 0.0, 2022-02-16 19:30:30.251
13.0, 1002.7681554192677, 942.9521955279633, 629.0717419967987, 1003.7236998579465, 0.09600000455975533, 0.09600000455975533, 1.008000047877431, 0.0, 0.0, 0.0, 0.0, 0.0, 1.6450614302515545E9, 0.0, 2022-02-16 19:30:30.251
14.0, 1010.4461700282991, 948.5096868621185, 631.263323370833, 989.8187518226914, 0.09600000455975533, 0.09600000455975533, 1.008000047877431, 0.0, 0.0, 0.0, 0.0, 0.0, 1.6450614302669344E9, 0.0, 2022-02-16 19:30:30.266
14.0, 1047.7292326865718, 931.8858315590769, 621.2291717897169, 939.7040924164467, 0.09600000455975533, 0.09600000455975533, 1.008000047877431, 0.0, 0.0, 0.0, 0.0, 0.0, 1.6450614302669344E9, 0.0, 2022-02-16 19:30:30.266
15.0, 1059.5136574469507, 936.9646156989038, 618.6785600199364, 908.8873167815618, 0.09600000455975533, 0.09600000455975533, 1.008000047877431, 0.0, 0.0, 0.0, 0.0, 0.0, 1.645061430282179E9, 0.0, 2022-02-16 19:30:30.282
15.0, 1064.3493480896577, 944.2873398121446, 636.5029232087545, 954.3719800426625, 0.09600000455975533, 0.09600000455975533, 1.008000047877431, 0.0, 0.0, 0.0, 0.0, 0.0, 1.645061430282179E9, 0.0, 2022-02-16 19:30:30.282
16.0, 992.4273320417851, 950.0991443432868, 627.5383830149658, 943.2869165739976, 0.09600000455975533, 0.09600000455975533, 1.008000047877431, 0.0, 0.0, 0.0, 0.0, 0.0, 1.6450614302828455E9, 0.0, 2022-02-16 19:30:30.282
16.0, 1055.108055299148, 940.3828842584044, 623.8433618587442, 942.6399138816632, 0.09600000455975533, 0.09600000455975533, 1.008000047877431, 0.0, 0.0, 0.0, 0.0, 0.0, 1.6450614302828455E9, 0.0, 2022-02-16 19:30:30.282
17.0, 1006.0667471801862, 942.7240616306663, 630.889333375264, 887.2632152377628, 0.09600000455975533, 0.09600000455975533, 1.008000047877431, 0.0, 0.0, 0.0, 0.0, 0.0, 1.6450614302971742E9, 0.0, 2022-02-16 19:30:30.297
17.0, 1001.5639076335356, 937.058113197796, 636.1027539134957, 952.0607218700461, 0.09600000455975533, 0.09600000455975533, 1.008000047877431, 0.0, 0.0, 0.0, 0.0, 0.0, 1.6450614302971742E9, 0.0, 2022-02-16 19:30:30.297
18.0, 1015.947562863119, 931.3360662655905, 622.0295103802346, 1035.352033783216, 0.09600000455975533, 0.09600000455975533, 1.008000047877431, 0.0, 0.0, 0.0, 0.0, 0.0, 1.645061430297842E9, 0.0, 2022-02-16 19:30:30.297
18.0, 1067.7414373494685, 933.3331728419289, 627.306509217713, 967.4541500876658, 0.09600000455975533, 0.09600000455975533, 1.008000047877431, 0.0, 0.0, 0.0, 0.0, 0.0, 1.645061430297842E9, 0.0, 2022-02-16 19:30:30.297
19.0, 1095.618651619181, 949.1940885540098, 640.6392525597475, 924.6921339943074, 0.09600000455975533, 0.09600000455975533, 1.008000047877431, 0.0, 0.0, 0.0, 0.0, 0.0, 1.6450614303115032E9, 0.0, 2022-02-16 19:30:30.311
19.0, 1057.8419221667573, 940.2893867595121, 625.9863245333545, 903.8945503407158, 0.09600000455975533, 0.09600000455975533, 1.008000047877431, 0.0, 0.0, 0.0, 0.0, 0.0, 1.6450614303115032E9, 0.0, 2022-02-16 19:30:30.311
20.0, 1028.4089095154777, 935.5845926152542, 623.1813995665871, 953.2537499559112, 0.09600000455975533, 0.09600000455975533, 1.008000047877431, 0.0, 0.0, 0.0, 0.0, 0.0, 1.645061430327156E9, 0.0, 2022-02-16 19:30:30.327
20.0, 1004.200537102297, 953.8689634986222, 634.9097258276306, 931.6857469114475, 0.09600000455975533, 0.09600000455975533, 1.008000047877431, 0.0, 0.0, 0.0, 0.0, 0.0, 1.645061430327156E9, 0.0, 2022-02-16 19:30:30.327
21.0, 1013.2997136944905, 951.7671397235245, 631.4764976683073, 1025.4450388005935, 0.09600000455975533, 0.09600000455975533, 1.008000047877431, 0.0, 0.0, 0.0, 0.0, 0.0, 1.6450614303278928E9, 0.0, 2022-02-16 19:30:30.327
21.0, 1086.9682630216703, 937.6265779910609, 612.230972496327, 1025.654473198112, 0.09600000455975533, 0.09600000455975533, 1.008000047877431, 0.0, 0.0, 0.0, 0.0, 0.0, 1.6450614303278928E9, 0.0, 2022-02-16 19:30:30.327
22.0, 1041.7902715569362, 944.0928650144488, 630.8968131751753, 1012.7218991513364, 0.09600000455975533, 0.09600000455975533, 1.008000047877431, 0.0, 0.0, 0.0, 0.0, 0.0, 1.6450614303414788E9, 0.0, 2022-02-16 19:30:30.341
22.0, 1127.5873164404184, 951.7147811241448, 643.7022306234576, 1064.1305639422499, 0.09600000455975533, 0.09600000455975533, 1.008000047877431, 0.0, 0.0, 0.0, 0.0, 0.0, 1.6450614303414788E9, 0.0, 2022-02-16 19:30:30.341
23.0, 1098.1804830888286, 934.2569281309843, 619.9089871053584, 1203.25858219387, 0.09600000455975533, 0.09600000455975533, 1.008000047877431, 0.0, 0.0, 0.0, 0.0, 0.0, 1.6450614303734982E9, 0.0, 2022-02-16 19:30:30.373
23.0, 1086.8485862230882, 916.5447619408369, 614.4075942705385, 1218.5547730126418, 0.09600000455975533, 0.09600000455975533, 1.008000047877431, 0.0, 0.0, 0.0, 0.0, 0.0, 1.6450614303734982E9, 0.0, 2022-02-16 19:30:30.373
24.0, 1148.3213217947632, 930.8610989712179, 622.3324422766455, 1370.5929259113036, 0.09600000455975533, 0.09600000455975533, 1.008000047877431, 0.0, 0.0, 0.0, 0.0, 0.0, 1.645061430374296E9, 0.0, 2022-02-16 19:30:30.374
24.0, 1186.3112255446613, 926.7958277193829, 609.6167824272998, 1450.9745956589468, 0.09600000455975533, 0.09600000455975533, 1.008000047877431, 0.0, 0.0, 0.0, 0.0, 0.0, 1.645061430374296E9, 0.0, 2022-02-16 19:30:30.374
25.0, 1244.0777202602476, 913.3658469785005, 594.6721422043629, 1368.3639455377124, 0.09600000455975533, 0.09600000455975533, 1.008000047877431, 0.0, 0.0, 0.0, 0.0, 0.0, 1.645061430375038E9, 0.0, 2022-02-16 19:30:30.375
25.0, 1257.0514332065359, 933.7221224373206, 613.4800990815274, 1608.1195819471031, 0.09600000455975533, 0.09600000455975533, 1.008000047877431, 0.0, 0.0, 0.0, 0.0, 0.0, 1.645061430375038E9, 0.0, 2022-02-16 19:30:30.375
26.0, 1223.0407830094919, 930.244015478529, 612.8517958889715, 1496.6855228673667, 0.09600000455975533, 0.09600000455975533, 1.008000047877431, 0.0, 0.0, 0.0, 0.0, 0.0, 1.6450614303757389E9, 0.0, 2022-02-16 19:30:30.375
26.0, 1188.413049319759, 914.566354864277, 595.98484708881, 1274.8570968955755, 0.09600000455975533, 0.09600000455975533, 1.008000047877431, 0.0, 0.0, 0.0, 0.0, 0.0, 1.6450614303757389E9, 0.0, 2022-02-16 19:30:30.375
27.0, 1261.7337879510596, 918.7213837150484, 597.4621075713076, 1172.8887246036902, 0.09600000455975533, 0.09600000455975533, 1.008000047877431, 0.0, 0.0, 0.0, 0.0, 0.0, 1.6450614303864005E9, 0.0, 2022-02-16 19:30:30.386
27.0, 1112.7137343166396, 933.1798369437456, 617.0180444396101, 1189.0376126123592, 0.09600000455975533, 0.09600000455975533, 1.008000047877431, 0.0, 0.0, 0.0, 0.0, 0.0, 1.6450614303864005E9, 0.0, 2022-02-16 19:30:30.386
28.0, 1143.3360351538286, 924.503269046545, 613.618475379888, 1152.2519566481933, 0.09600000455975533, 0.09600000455975533, 1.008000047877431, 0.0, 0.0, 0.0, 0.0, 0.0, 1.6450614304014995E9, 0.0, 2022-02-16 19:30:30.401
28.0, 1086.0744269322604, 930.6591443736106, 612.5750432922505, 1233.1235532900319, 0.09600000455975533, 0.09600000455975533, 1.008000047877431, 0.0, 0.0, 0.0, 0.0, 0.0, 1.6450614304014995E9, 0.0, 2022-02-16 19:30:30.401
29.0, 1073.1605523852631, 948.4087095633149, 627.4710648157634, 1328.6854769578204, 0.09600000455975533, 0.09600000455975533, 1.008000047877431, 0.0, 0.0, 0.0, 0.0, 0.0, 1.6450614304171371E9, 0.0, 2022-02-16 19:30:30.417
29.0, 1122.3177974028513, 939.096358673647, 614.4936119695194, 1396.1420524585992, 0.09600000455975533, 0.09600000455975533, 1.008000047877431, 0.0, 0.0, 0.0, 0.0, 0.0, 1.6450614304171371E9, 0.0, 2022-02-16 19:30:30.417
30.0, 1059.4388594478369, 929.0584671925753, 608.4648932409473, 1408.6707173101604, 0.09600000455975533, 0.09600000455975533, 1.008000047877431, 0.0, 0.0, 0.0, 0.0, 0.0, 1.6450614304178843E9, 0.0, 2022-02-16 19:30:30.417
30.0, 1100.9442691560835, 926.59013322182, 621.3525884882547, 1468.0939877061173, 0.09600000455975533, 0.09600000455975533, 1.008000047877431, 0.0, 0.0, 0.0, 0.0, 0.0, 1.6450614304178843E9, 0.0, 2022-02-16 19:30:30.417
31.0, 1081.8259005825967, 927.8616992067546, 623.1664399667643, 1539.6083546588197, 0.09600000455975533, 0.09600000455975533, 1.008000047877431, 0.0, 0.0, 0.0, 0.0, 0.0, 1.6450614304316473E9, 0.0, 2022-02-16 19:30:30.431
31.0, 1118.2861852506176, 923.1681247623637, 609.5232849284075, 1487.9453766709194, 0.09600000455975533, 0.09600000455975533, 1.008000047877431, 0.0, 0.0, 0.0, 0.0, 0.0, 1.6450614304316473E9, 0.0, 2022-02-16 19:30:30.431
32.0, 1088.961629698053, 931.0219146693125, 615.2191525609232, 1446.6718407599255, 0.09600000455975533, 0.09600000455975533, 1.008000047877431, 0.0, 0.0, 0.0, 0.0, 0.0, 1.645061430447146E9, 0.0, 2022-02-16 19:30:30.447
32.0, 1048.9858390716836, 924.1068396512419, 625.631034037564, 1428.9671543696895, 0.09600000455975533, 0.09600000455975533, 1.008000047877431, 0.0, 0.0, 0.0, 0.0, 0.0, 1.645061430447146E9, 0.0, 2022-02-16 19:30:30.447
33.0, 1071.1858852086589, 925.1128727393225, 615.2041929611005, 1565.8474927479401, 0.09600000455975533, 0.09600000455975533, 1.008000047877431, 0.0, 0.0, 0.0, 0.0, 0.0, 1.6450614304480214E9, 0.0, 2022-02-16 19:30:30.448
33.0, 1052.6135420287028, 925.4980824347585, 620.2044392018579, 1539.3316020620987, 0.09600000455975533, 0.09600000455975533, 1.008000047877431, 0.0, 0.0, 0.0, 0.0, 0.0, 1.6450614304480214E9, 0.0, 2022-02-16 19:30:30.448
34.0, 1104.628070612438, 928.579759998247, 633.0285561499186, 1511.6189433904365, 0.09600000455975533, 0.09600000455975533, 1.008000047877431, 0.0, 0.0, 0.0, 0.0, 0.0, 1.645061430461517E9, 0.0, 2022-02-16 19:30:30.461
34.0, 1065.7854696726426, 930.509548375383, 620.2343584015034, 1477.4848764948547, 0.09600000455975533, 0.09600000455975533, 1.008000047877431, 0.0, 0.0, 0.0, 0.0, 0.0, 1.645061430461517E9, 0.0, 2022-02-16 19:30:30.461
35.0, 1102.1410371419042, 914.843107460998, 619.0600298154168, 1495.245661384426, 0.09600000455975533, 0.09600000455975533, 1.008000047877431, 0.0, 0.0, 0.0, 0.0, 0.0, 1.6450614304771113E9, 0.0, 2022-02-16 19:30:30.477
35.0, 1108.5063468664885, 925.1502717388794, 626.1882791309617, 1566.95824303478, 0.09600000455975533, 0.09600000455975533, 1.008000047877431, 0.0, 0.0, 0.0, 0.0, 0.0, 1.6450614304771113E9, 0.0, 2022-02-16 19:30:30.477
36.0, 1071.3467009067535, 937.155350596644, 621.8986138817854, 1588.256973282434, 0.09600000455975533, 0.09600000455975533, 1.008000047877431, 0.0, 0.0, 0.0, 0.0, 0.0, 1.6450614304778557E9, 0.0, 2022-02-16 19:30:30.477
36.0, 1107.305838980712, 923.0372282639146, 615.1555742616765, 1527.640674800612, 0.09600000455975533, 0.09600000455975533, 1.008000047877431, 0.0, 0.0, 0.0, 0.0, 0.0, 1.6450614304778557E9, 0.0, 2022-02-16 19:30:30.477
37.0, 1123.4883860889822, 930.075719980523, 625.3692410406657, 1590.1231833603233, 0.09600000455975533, 0.09600000455975533, 1.008000047877431, 0.0, 0.0, 0.0, 0.0, 0.0, 1.6450614304914541E9, 0.0, 2022-02-16 19:30:30.491
37.0, 1131.2037996975705, 924.0470012519509, 627.5645623146556, 1588.6047839783132, 0.09600000455975533, 0.09600000455975533, 1.008000047877431, 0.0, 0.0, 0.0, 0.0, 0.0, 1.6450614304914541E9, 0.0, 2022-02-16 19:30:30.491
38.0, 1056.0168509883806, 935.5097946161404, 618.6822999198921, 1576.1284777261317, 0.09600000455975533, 0.09600000455975533, 1.008000047877431, 0.0, 0.0, 0.0, 0.0, 0.0, 1.6450614305072196E9, 0.0, 2022-02-16 19:30:30.507
38.0, 1039.8006447805092, 935.3714183177799, 621.4124268875457, 1487.7733412729576, 0.09600000455975533, 0.09600000455975533, 1.008000047877431, 0.0, 0.0, 0.0, 0.0, 0.0, 1.6450614305072196E9, 0.0, 2022-02-16 19:30:30.507
39.0, 1110.406216043979, 943.6739962194115, 628.3387216054834, 1562.6797974854708, 0.09600000455975533, 0.09600000455975533, 1.008000047877431, 0.0, 0.0, 0.0, 0.0, 0.0, 1.6450614305078738E9, 0.0, 2022-02-16 19:30:30.507
39.0, 1069.4056928297505, 936.1605372084305, 623.6975057604723, 1530.80089026317, 0.09600000455975533, 0.09600000455975533, 1.008000047877431, 0.0, 0.0, 0.0, 0.0, 0.0, 1.6450614305078738E9, 0.0, 2022-02-16 19:30:30.507
40.0, 1105.8248385982588, 909.3304949263111, 607.8141506486572, 1608.3439759444445, 0.09600000455975533, 0.09600000455975533, 1.008000047877431, 0.0, 0.0, 0.0, 0.0, 0.0, 1.6450614305214736E9, 0.0, 2022-02-16 19:30:30.521
40.0, 1093.2400752473623, 918.4334114184603, 624.0415765563957, 1658.1519635543227, 0.09600000455975533, 0.09600000455975533, 1.008000047877431, 0.0, 0.0, 0.0, 0.0, 0.0, 1.6450614305214736E9, 0.0, 2022-02-16 19:30:30.521
41.0, 1168.5467007551342, 915.5499485526234, 628.5331964031793, 1617.5590894352645, 0.09600000455975533, 0.09600000455975533, 1.008000047877431, 0.0, 0.0, 0.0, 0.0, 0.0, 1.6450614305371544E9, 0.0, 2022-02-16 19:30:30.537
41.0, 1124.1129493815824, 921.223376785405, 613.1509878854267, 1570.4288701936603, 0.09600000455975533, 0.09600000455975533, 1.008000047877431, 0.0, 0.0, 0.0, 0.0, 0.0, 1.6450614305371544E9, 0.0, 2022-02-16 19:30:30.537
42.0, 1095.3269394226372, 935.9959816103801, 626.0686023323797, 1609.4622060311958, 0.09600000455975533, 0.09600000455975533, 1.008000047877431, 0.0, 0.0, 0.0, 0.0, 0.0, 1.6450614305378845E9, 0.0, 2022-02-16 19:30:30.537
42.0, 1177.268147451803, 926.4891559230164, 626.7006454248913, 1586.6151572018862, 0.09600000455975533, 0.09600000455975533, 1.008000047877431, 0.0, 0.0, 0.0, 0.0, 0.0, 1.6450614305378845E9, 0.0, 2022-02-16 19:30:30.537
43.0, 1186.700175140053, 920.1275860983878, 615.1293949619867, 1629.1265999982134, 0.09600000455975533, 0.09600000455975533, 1.008000047877431, 0.0, 0.0, 0.0, 0.0, 0.0, 1.645061430551402E9, 0.0, 2022-02-16 19:30:30.551
43.0, 1123.2602521916851, 933.6884633377194, 621.7415380836464, 1653.903437204659, 0.09600000455975533, 0.09600000455975533, 1.008000047877431, 0.0, 0.0, 0.0, 0.0, 0.0, 1.645061430551402E9, 0.0, 2022-02-16 19:30:30.551
44.0, 1146.3653541179374, 939.6723032668233, 632.0449624615721, 1637.1187662035227, 0.09600000455975533, 0.09600000455975533, 1.008000047877431, 0.0, 0.0, 0.0, 0.0, 0.0, 1.6450614305671203E9, 0.0, 2022-02-16 19:30:30.567
44.0, 1129.3338497197255, 931.8334729596972, 614.9536196640693, 1624.197411856614, 0.09600000455975533, 0.09600000455975533, 1.008000047877431, 0.0, 0.0, 0.0, 0.0, 0.0, 1.6450614305671203E9, 0.0, 2022-02-16 19:30:30.567
45.0, 1133.6609139684588, 922.8539731660858, 611.6026693037711, 1741.7125482643023, 0.09600000455975533, 0.09600000455975533, 1.008000047877431, 0.0, 0.0, 0.0, 0.0, 0.0, 1.6450614305679193E9, 0.0, 2022-02-16 19:30:30.567
45.0, 1153.9610909279436, 934.1185518326238, 621.4647854869254, 1668.2384737348184, 0.09600000455975533, 0.09600000455975533, 1.008000047877431, 0.0, 0.0, 0.0, 0.0, 0.0, 1.6450614305679193E9, 0.0, 2022-02-16 19:30:30.567
46.0, 1143.1901790555567, 922.6071397690102, 622.7400913718157, 1717.9118249462917, 0.09600000455975533, 0.09600000455975533, 1.008000047877431, 0.0, 0.0, 0.0, 0.0, 0.0, 1.6450614305814269E9, 0.0, 2022-02-16 19:30:30.581
46.0, 1171.2730878228322, 916.2867088438943, 613.0200913869776, 1646.872425287962, 0.09600000455975533, 0.09600000455975533, 1.008000047877431, 0.0, 0.0, 0.0, 0.0, 0.0, 1.6450614305814269E9, 0.0, 2022-02-16 19:30:30.581
47.0, 1194.3894094489515, 925.7486557317898, 613.3118035835214, 1752.8537102323025, 0.09600000455975533, 0.09600000455975533, 1.008000047877431, 0.0, 0.0, 0.0, 0.0, 0.0, 1.6450614305971732E9, 0.0, 2022-02-16 19:30:30.597
47.0, 1233.460144286044, 932.5403140513226, 634.0944276372902, 1745.7479003164917, 0.09600000455975533, 0.09600000455975533, 1.008000047877431, 0.0, 0.0, 0.0, 0.0, 0.0, 1.6450614305971732E9, 0.0, 2022-02-16 19:30:30.597
48.0, 1211.1030223509297, 918.6091867163777, 619.7593911071308, 1835.0791506581008, 0.09600000455975533, 0.09600000455975533, 1.008000047877431, 0.0, 0.0, 0.0, 0.0, 0.0, 1.6450614305978396E9, 0.0, 2022-02-16 19:30:30.597
48.0, 1142.66659306176, 921.3355737840757, 614.6693872674368, 1747.457034596242, 0.09600000455975533, 0.09600000455975533, 1.008000047877431, 0.0, 0.0, 0.0, 0.0, 0.0, 1.6450614305978396E9, 0.0, 2022-02-16 19:30:30.597
49.0, 1168.9618296502158, 937.4732420928776, 633.2604299471714, 1756.2906782915816, 0.09600000455975533, 0.09600000455975533, 1.008000047877431, 0.0, 0.0, 0.0, 0.0, 0.0, 1.6450614306114335E9, 0.0, 2022-02-16 19:30:30.611
49.0, 1149.7312640780583, 931.2350889667869, 624.351988252718, 1799.1574115836993, 0.09600000455975533, 0.09600000455975533, 1.008000047877431, 0.0, 0.0, 0.0, 0.0, 0.0, 1.6450614306114335E9, 0.0, 2022-02-16 19:30:30.611
50.0, 1218.3733878647909, 926.5751736219972, 617.3621152355336, 1690.5731562701985, 0.09600000455975533, 0.09600000455975533, 1.008000047877431, 0.0, 0.0, 0.0, 0.0, 0.0, 1.645061430627118E9, 0.0, 2022-02-16 19:30:30.627
50.0, 1218.5379434628412, 935.6556507144123, 629.6140274903737, 1658.4361959509552, 0.09600000455975533, 0.09600000455975533, 1.008000047877431, 0.0, 0.0, 0.0, 0.0, 0.0, 1.645061430627118E9, 0.0, 2022-02-16 19:30:30.627
51.0, 1170.0464006373659, 932.0316876573488, 624.2210917542689, 1773.7522711846977, 0.09600000455975533, 0.09600000455975533, 1.008000047877431, 0.0, 0.0, 0.0, 0.0, 0.0, 1.6450614306278307E9, 0.0, 2022-02-16 19:30:30.627
51.0, 1142.8461082596332, 914.517736164853, 615.1443545618095, 1747.0643451008946, 0.09600000455975533, 0.09600000455975533, 1.008000047877431, 0.0, 0.0, 0.0, 0.0, 0.0, 1.6450614306278307E9, 0.0, 2022-02-16 19:30:30.627
52.0, 1192.8298711674288, 917.0346888350323, 625.473958239425, 1662.2321944059804, 0.09600000455975533, 0.09600000455975533, 1.008000047877431, 0.0, 0.0, 0.0, 0.0, 0.0, 1.6450614306578376E9, 0.0, 2022-02-16 19:30:30.657
52.0, 1154.9671240160242, 937.0842924974859, 632.7854626527987, 1626.972417623736, 0.09600000455975533, 0.09600000455975533, 1.008000047877431, 0.0, 0.0, 0.0, 0.0, 0.0, 1.6450614306578376E9, 0.0, 2022-02-16 19:30:30.657
53.0, 1180.3386053154245, 929.6568511854857, 616.3972210469656, 1575.0102476393804, 0.09600000455975533, 0.09600000455975533, 1.008000047877431, 0.0, 0.0, 0.0, 0.0, 0.0, 1.6450614306584744E9, 0.0, 2022-02-16 19:30:30.658
53.0, 1162.1065930314362, 911.8848465960473, 616.9656858402304, 1561.7149032969028, 0.09600000455975533, 0.09600000455975533, 1.008000047877431, 0.0, 0.0, 0.0, 0.0, 0.0, 1.6450614306584744E9, 0.0, 2022-02-16 19:30:30.658
54.0, 1195.2009677393362, 929.1145656919107, 629.2624768945388, 1545.3191818911582, 0.09600000455975533, 0.09600000455975533, 1.008000047877431, 0.0, 0.0, 0.0, 0.0, 0.0, 1.6450614306593907E9, 0.0, 2022-02-16 19:30:30.659
54.0, 1195.4702405361459, 935.9361432110891, 635.1602991246618, 1593.3544569220394, 0.09600000455975533, 0.09600000455975533, 1.008000047877431, 0.0, 0.0, 0.0, 0.0, 0.0, 1.6450614306593907E9, 0.0, 2022-02-16 19:30:30.659
55.0, 1201.330663766712, 919.7722956025973, 628.2527039065026, 1573.32729265932, 0.09600000455975533, 0.09600000455975533, 1.008000047877431, 0.0, 0.0, 0.0, 0.0, 0.0, 1.6450614306727884E9, 0.0, 2022-02-16 19:30:30.672
55.0, 1140.3702944889665, 912.6328265871853, 623.869541158434, 1497.7139953551814, 0.09600000455975533, 0.09600000455975533, 1.008000047877431, 0.0, 0.0, 0.0, 0.0, 0.0, 1.6450614306727884E9, 0.0, 2022-02-16 19:30:30.672
56.0, 1218.9418526580557, 919.1813914095983, 626.0237235329114, 1450.5650766137987, 0.09600000455975533, 0.09600000455975533, 1.008000047877431, 0.0, 0.0, 0.0, 0.0, 0.0, 1.645061430687111E9, 0.0, 2022-02-16 19:30:30.687
56.0, 1227.8465544525534, 907.6213606465608, 617.4256935347803, 1451.8927410980687, 0.09600000455975533, 0.09600000455975533, 1.008000047877431, 0.0, 0.0, 0.0, 0.0, 0.0, 1.645061430687111E9, 0.0, 2022-02-16 19:30:30.687
57.0, 1126.2633918561041, 906.6789058577269, 616.2812841483392, 1513.3205978702754, 0.09600000455975533, 0.09600000455975533, 1.008000047877431, 0.0, 0.0, 0.0, 0.0, 0.0, 1.6450614306878147E9, 0.0, 2022-02-16 19:30:30.687
57.0, 1154.1443460257724, 933.4378900406882, 628.6678328015842, 1434.9958730982617, 0.09600000455975533, 0.09600000455975533, 1.008000047877431, 0.0, 0.0, 0.0, 0.0, 0.0, 1.6450614306878147E9, 0.0, 2022-02-16 19:30:30.687
58.0, 1153.9723106278107, 934.4140039291233, 623.278636965435, 1416.5731259165332, 0.09600000455975533, 0.09600000455975533, 1.008000047877431, 0.0, 0.0, 0.0, 0.0, 0.0, 1.645061430701456E9, 0.0, 2022-02-16 19:30:30.701
58.0, 1145.9016065234318, 934.6196984266862, 625.3842006404884, 1435.1342493966222, 0.09600000455975533, 0.09600000455975533, 1.008000047877431, 0.0, 0.0, 0.0, 0.0, 0.0, 1.645061430701456E9, 0.0, 2022-02-16 19:30:30.701
59.0, 1213.2310254257172, 942.2790135359392, 634.4310186333023, 1428.709101272747, 0.09600000455975533, 0.09600000455975533, 1.008000047877431, 0.0, 0.0, 0.0, 0.0, 0.0, 1.6450614307171288E9, 0.0, 2022-02-16 19:30:30.717
59.0, 1196.0910639287904, 931.9681093581021, 629.2998758940957, 1433.0997438207269, 0.09600000455975533, 0.09600000455975533, 1.008000047877431, 0.0, 0.0, 0.0, 0.0, 0.0, 1.6450614307171288E9, 0.0, 2022-02-16 19:30:30.717
60.0, 1223.3811139054596, 918.8934191130102, 619.9052472054027, 1428.1032374799252, 0.09600000455975533, 0.09600000455975533, 1.008000047877431, 0.0, 0.0, 0.0, 0.0, 0.0, 1.6450614307179778E9, 0.0, 2022-02-16 19:30:30.717
60.0, 1176.1760966647416, 934.7954737246037, 635.4744507209398, 1440.3027911353856, 0.09600000455975533, 0.09600000455975533, 1.008000047877431, 0.0, 0.0, 0.0, 0.0, 0.0, 1.6450614307179778E9, 0.0, 2022-02-16 19:30:30.717
61.0, 1215.501144698821, 945.9141962928697, 628.5070171034895, 1445.1123024784029, 0.09600000455975533, 0.09600000455975533, 1.008000047877431, 0.0, 0.0, 0.0, 0.0, 0.0, 1.6450614307314796E9, 0.0, 2022-02-16 19:30:30.731
61.0, 1144.9853310342878, 923.7590289553627, 611.8869017004035, 1395.6521255644038, 0.09600000455975533, 0.09600000455975533, 1.008000047877431, 0.0, 0.0, 0.0, 0.0, 0.0, 1.6450614307314796E9, 0.0, 2022-02-16 19:30:30.731
62.0, 1161.661544936709, 920.1238461984321, 618.876774717588, 1428.7651997720823, 0.0800000037997961, 0.09600000455975533, 1.008000047877431, 0.0, 0.0, 0.0, 0.0, 0.0, 1.6450614307471325E9, 0.0, 2022-02-16 19:30:30.747
62.0, 1249.2986205983907, 941.725508342497, 622.0332502801903, 1530.281044169329, 0.0800000037997961, 0.09600000455975533, 1.008000047877431, 0.0, 0.0, 0.0, 0.0, 0.0, 1.6450614307471325E9, 0.0, 2022-02-16 19:30:30.747
63.0, 1230.9918103152886, 929.9036845825613, 611.2922576074488, 1477.4549572952092, 0.0800000037997961, 0.09600000455975533, 1.008000047877431, 0.0, 0.0, 0.0, 0.0, 0.0, 1.6450614307478173E9, 0.0, 2022-02-16 19:30:30.747
63.0, 1218.2200519666076, 929.8176668835804, 617.923100228887, 1515.1419291486964, 0.0800000037997961, 0.09600000455975533, 1.008000047877431, 0.0, 0.0, 0.0, 0.0, 0.0, 1.6450614307478173E9, 0.0, 2022-02-16 19:30:30.747
64.0, 1192.5231993710622, 939.4217299697921, 624.460445351433, 1420.013833875768, 0.0800000037997961, 0.09600000455975533, 1.008000047877431, 0.0, 0.0, 0.0, 0.0, 0.0, 1.6450614307614443E9, 0.0, 2022-02-16 19:30:30.761
64.0, 1190.6644690930843, 928.3404064010829, 626.113481131848, 1411.2400285797194, 0.0800000037997961, 0.09600000455975533, 1.008000047877431, 0.0, 0.0, 0.0, 0.0, 0.0, 1.6450614307614443E9, 0.0, 2022-02-16 19:30:30.761
65.0, 1196.2780589265749, 924.5406680461019, 611.1688409089111, 1472.824961150065, 0.0800000037997961, 0.09600000455975533, 1.008000047877431, 0.0, 0.0, 0.0, 0.0, 0.0, 1.645061430778006E9, 0.0, 2022-02-16 19:30:30.778
65.0, 1197.7777588088065, 932.7908873483539, 620.5298104980029, 1487.021621381864, 0.0800000037997961, 0.09600000455975533, 1.008000047877431, 0.0, 0.0, 0.0, 0.0, 0.0, 1.645061430778006E9, 0.0, 2022-02-16 19:30:30.778
66.0, 1192.3399442732334, 938.2623609835282, 627.7440775125287, 1502.2430142015219, 0.0800000037997961, 0.09600000455975533, 1.008000047877431, 0.0, 0.0, 0.0, 0.0, 0.0, 1.645061430778545E9, 0.0, 2022-02-16 19:30:30.778
66.0, 1164.3318335050717, 933.9801755342633, 619.6771133081056, 1393.310948192142, 0.0800000037997961, 0.09600000455975533, 1.008000047877431, 0.0, 0.0, 0.0, 0.0, 0.0, 1.645061430778545E9, 0.0, 2022-02-16 19:30:30.778
67.0, 1199.4756733886898, 935.0460470216349, 624.5988216497935, 1488.7045763619244, 0.0800000037997961, 0.09600000455975533, 1.008000047877431, 0.0, 0.0, 0.0, 0.0, 0.0, 1.6450614307914515E9, 0.0, 2022-02-16 19:30:30.791
67.0, 1220.602368238382, 945.8206987939775, 622.3324422766455, 1399.8632529145107, 0.0800000037997961, 0.09600000455975533, 1.008000047877431, 0.0, 0.0, 0.0, 0.0, 0.0, 1.6450614307914515E9, 0.0, 2022-02-16 19:30:30.791
68.0, 1203.7354194382206, 935.0348273217678, 622.6952125723474, 1464.7056383462623, 0.0800000037997961, 0.09600000455975533, 1.008000047877431, 0.0, 0.0, 0.0, 0.0, 0.0, 1.6450614308071895E9, 0.0, 2022-02-16 19:30:30.807
68.0, 1282.3593362066895, 922.4164048712701, 616.6515342439525, 1462.7833297690377, 0.0800000037997961, 0.09600000455975533, 1.008000047877431, 0.0, 0.0, 0.0, 0.0, 0.0, 1.6450614308071895E9, 0.0, 2022-02-16 19:30:30.807
69.0, 1216.937266281806, 934.1148119326681, 633.5035234442912, 1473.6028603408486, 0.0800000037997961, 0.09600000455975533, 1.008000047877431, 0.0, 0.0, 0.0, 0.0, 0.0, 1.6450614308078108E9, 0.0, 2022-02-16 19:30:30.807
69.0, 1196.3603367256, 919.5815607048571, 620.8888408937491, 1534.7726640161127, 0.0800000037997961, 0.09600000455975533, 1.008000047877431, 0.0, 0.0, 0.0, 0.0, 0.0, 1.6450614308078108E9, 0.0, 2022-02-16 19:30:30.807
70.0, 1183.4576818784699, 934.2681478308514, 614.9872787636705, 1478.494649482891, 0.0800000037997961, 0.09600000455975533, 1.008000047877431, 0.0, 0.0, 0.0, 0.0, 0.0, 1.645061430837814E9, 0.0, 2022-02-16 19:30:30.837
70.0, 1174.9830685788766, 934.634658026509, 624.785816647578, 1506.9889472452924, 0.0800000037997961, 0.09600000455975533, 1.008000047877431, 0.0, 0.0, 0.0, 0.0, 0.0, 1.645061430837814E9, 0.0, 2022-02-16 19:30:30.837
71.0, 1250.585146183148, 925.9580901293084, 629.3110955939628, 1539.9636451546103, 0.0800000037997961, 0.09600000455975533, 1.008000047877431, 0.0, 0.0, 0.0, 0.0, 0.0, 1.6450614308385377E9, 0.0, 2022-02-16 19:30:30.838
71.0, 1143.691325649619, 924.8211605427787, 618.2110725254752, 1519.4540337976068, 0.0800000037997961, 0.09600000455975533, 1.008000047877431, 0.0, 0.0, 0.0, 0.0, 0.0, 1.6450614308385377E9, 0.0, 2022-02-16 19:30:30.838
