%OpenBCI Raw EEG Data
%Number of channels = 4
%Sample Rate = 200.0 Hz
%First Column = SampleIndex
%Last Column = Timestamp 
%Other Columns = EEG data in microvolts followed by Accel Data (in G) interleaved with Aux Data
0, -128.14, -259.62, -1171.84, -292.32, 0.000, 0.000, 0.000, 16:35:53.474, 1602452153474
1, -141.45, -261.53, -1182.81, -411.65, 0.000, 0.000, 0.000, 16:35:53.488, 1602452153488
2, -112.91, -244.65, -1168.26, -495.96, 0.000, 0.000, 0.000, 16:35:53.488, 1602452153488
3, -92.20, -221.74, -1139.05, -313.39, 0.000, 0.000, 0.000, 16:35:53.503, 1602452153503
4, -182.63, -279.93, -1213.71, -348.51, 0.000, 0.000, 0.000, 16:35:53.503, 1602452153503
5, -153.41, -262.80, -1204.30, -516.80, 0.000, 0.000, 0.000, 16:35:53.504, 1602452153504
6, -118.08, -200.57, -1160.75, -392.05, 0.000, 0.000, 0.000, 16:35:53.504, 1602452153504
7, -33.18, -160.01, -1104.95, -201.74, 0.000, 0.000, 0.000, 16:35:53.518, 1602452153518
8, -131.62, -267.25, -1225.06, -473.16, 0.000, 0.000, 0.000, 16:35:53.518, 1602452153518
9, -113.81, -240.30, -1186.86, -462.62, 0.000, 0.000, 0.000, 16:35:53.533, 1602452153533
10, -95.41, -220.40, -1173.98, -260.47, 0.000, 0.000, 0.000, 16:35:53.533, 1602452153533
11, -106.89, -230.13, -1183.75, -376.74, 0.000, 0.000, 0.000, 16:35:53.534, 1602452153534
12, -100.34, -203.67, -1160.61, -471.72, 0.000, 0.000, 0.000, 16:35:53.534, 1602452153534
13, -86.66, -195.57, -1155.74, -304.79, 0.000, 0.000, 0.000, 16:35:53.548, 1602452153548
14, -115.70, -228.99, -1197.62, -303.37, 0.000, 0.000, 0.000, 16:35:53.548, 1602452153548
15, -88.71, -182.86, -1140.62, -462.38, 0.000, 0.000, 0.000, 16:35:53.563, 1602452153563
16, -22.19, -110.40, -1083.05, -321.08, 0.000, 0.000, 0.000, 16:35:53.563, 1602452153563
17, -43.01, -132.96, -1068.24, -184.66, 0.000, 0.000, 0.000, 16:35:53.564, 1602452153564
18, -70.79, -105.26, -1090.12, -376.47, 0.000, 0.000, 0.000, 16:35:53.564, 1602452153564
19, 96.76, 9.46, -972.51, -297.14, 0.000, 0.000, 0.000, 16:35:53.578, 1602452153578
20, 108.47, 37.66, -931.55, -83.19, 0.000, 0.000, 0.000, 16:35:53.578, 1602452153578
21, 58.68, -9.39, -965.13, -216.99, 0.000, 0.000, 0.000, 16:35:53.594, 1602452153594
22, 60.47, 7.20, -955.36, -323.05, 0.000, 0.000, 0.000, 16:35:53.594, 1602452153594
23, 19.50, -6.20, -938.04, -176.50, 0.000, 0.000, 0.000, 16:35:53.595, 1602452153595
24, 25.18, -32.67, -1000.90, -165.52, 0.000, 0.000, 0.000, 16:35:53.595, 1602452153595
25, 56.29, -33.26, -1001.32, -336.89, 0.000, 0.000, 0.000, 16:35:53.608, 1602452153608
26, 89.62, 24.18, -952.50, -219.96, 0.000, 0.000, 0.000, 16:35:53.608, 1602452153608
27, -23.37, -70.84, -1051.82, -154.87, 0.000, 0.000, 0.000, 16:35:53.626, 1602452153626
28, -71.70, -128.60, -1078.30, -371.51, 0.000, 0.000, 0.000, 16:35:53.626, 1602452153626
29, 9.14, -49.92, -1000.65, -332.16, 0.000, 0.000, 0.000, 16:35:53.628, 1602452153628
30, 20.60, -16.41, -971.35, -121.51, 0.000, 0.000, 0.000, 16:35:53.628, 1602452153628
31, -35.51, -103.14, -1047.07, -277.43, 0.000, 0.000, 0.000, 16:35:53.638, 1602452153638
32, -27.79, -86.23, -1050.92, -389.35, 0.000, 0.000, 0.000, 16:35:53.638, 1602452153638
33, -36.18, -106.98, -1077.05, -246.08, 0.000, 0.000, 0.000, 16:35:53.653, 1602452153653
34, -88.16, -155.08, -1123.75, -245.35, 0.000, 0.000, 0.000, 16:35:53.653, 1602452153653
35, -117.62, -192.77, -1153.69, -456.93, 0.000, 0.000, 0.000, 16:35:53.654, 1602452153654
36, -97.49, -175.23, -1135.56, -367.00, 0.000, 0.000, 0.000, 16:35:53.654, 1602452153654
37, -110.68, -197.64, -1148.61, -224.25, 0.000, 0.000, 0.000, 16:35:53.668, 1602452153668
38, -138.70, -232.23, -1191.46, -436.46, 0.000, 0.000, 0.000, 16:35:53.668, 1602452153668
39, -128.75, -201.57, -1141.93, -429.15, 0.000, 0.000, 0.000, 16:35:53.699, 1602452153699
40, -112.42, -177.92, -1117.96, -217.53, 0.000, 0.000, 0.000, 16:35:53.699, 1602452153699
41, -113.99, -193.04, -1145.63, -322.74, 0.000, 0.000, 0.000, 16:35:53.701, 1602452153701
42, -97.92, -190.93, -1156.87, -433.01, 0.000, 0.000, 0.000, 16:35:53.701, 1602452153701
43, -114.82, -185.75, -1197.69, -287.69, 0.000, 0.000, 0.000, 16:35:53.701, 1602452153701
44, -164.60, -236.73, -1240.06, -297.94, 0.000, 0.000, 0.000, 16:35:53.701, 1602452153701
45, -178.57, -232.87, -1230.20, -492.61, 0.000, 0.000, 0.000, 16:35:53.702, 1602452153702
46, -190.59, -257.69, -1259.13, -417.43, 0.000, 0.000, 0.000, 16:35:53.702, 1602452153702
47, -196.05, -275.37, -1269.31, -293.05, 0.000, 0.000, 0.000, 16:35:53.712, 1602452153712
48, -187.08, -292.99, -1279.24, -493.15, 0.000, 0.000, 0.000, 16:35:53.712, 1602452153712
49, -166.27, -263.11, -1242.64, -480.89, 0.000, 0.000, 0.000, 16:35:53.727, 1602452153727
50, -180.13, -287.46, -1247.51, -302.52, 0.000, 0.000, 0.000, 16:35:53.727, 1602452153727
51, -218.72, -333.68, -1289.41, -448.96, 0.000, 0.000, 0.000, 16:35:53.743, 1602452153743
52, -201.09, -307.65, -1269.37, -542.10, 0.000, 0.000, 0.000, 16:35:53.743, 1602452153743
53, -171.40, -283.20, -1240.67, -358.14, 0.000, 0.000, 0.000, 16:35:53.743, 1602452153743
54, -201.88, -315.45, -1262.44, -362.31, 0.000, 0.000, 0.000, 16:35:53.743, 1602452153743
55, -176.55, -284.73, -1242.31, -524.44, 0.000, 0.000, 0.000, 16:35:53.757, 1602452153757
56, -166.97, -282.81, -1264.45, -436.81, 0.000, 0.000, 0.000, 16:35:53.757, 1602452153757
57, -129.05, -216.93, -1162.68, -247.72, 0.000, 0.000, 0.000, 16:35:53.773, 1602452153773
58, -309.49, -425.35, -1358.08, -585.17, 0.000, 0.000, 0.000, 16:35:53.773, 1602452153773
59, -184.70, -273.02, -1232.94, -494.50, 0.000, 0.000, 0.000, 16:35:53.774, 1602452153774
60, -234.17, -340.85, -1316.99, -355.54, 0.000, 0.000, 0.000, 16:35:53.774, 1602452153774
61, -212.62, -285.73, -1247.51, -436.54, 0.000, 0.000, 0.000, 16:35:53.787, 1602452153787
62, -242.53, -357.75, -1312.80, -581.82, 0.000, 0.000, 0.000, 16:35:53.787, 1602452153787
63, -215.72, -331.10, -1291.26, -394.31, 0.000, 0.000, 0.000, 16:35:53.804, 1602452153804
64, -226.96, -358.67, -1337.50, -402.09, 0.000, 0.000, 0.000, 16:35:53.804, 1602452153804
65, -211.86, -330.32, -1253.82, -554.64, 0.000, 0.000, 0.000, 16:35:53.806, 1602452153806
66, -171.30, -278.17, -1211.70, -424.28, 0.000, 0.000, 0.000, 16:35:53.806, 1602452153806
67, -215.90, -333.77, -1267.50, -327.20, 0.000, 0.000, 0.000, 16:35:53.817, 1602452153817
68, -246.86, -360.25, -1281.73, -535.27, 0.000, 0.000, 0.000, 16:35:53.817, 1602452153817
69, -218.89, -325.67, -1267.21, -527.15, 0.000, 0.000, 0.000, 16:35:53.834, 1602452153834
70, -184.75, -288.25, -1230.21, -313.05, 0.000, 0.000, 0.000, 16:35:53.834, 1602452153834
71, -243.24, -351.74, -1294.08, -464.51, 0.000, 0.000, 0.000, 16:35:53.835, 1602452153835
72, -235.47, -329.80, -1279.35, -566.28, 0.000, 0.000, 0.000, 16:35:53.835, 1602452153835
73, -201.91, -321.16, -1268.99, -390.93, 0.000, 0.000, 0.000, 16:35:53.848, 1602452153848
74, -239.10, -351.69, -1303.61, -391.54, 0.000, 0.000, 0.000, 16:35:53.848, 1602452153848
75, -276.86, -369.75, -1310.21, -592.88, 0.000, 0.000, 0.000, 16:35:53.863, 1602452153863
76, -232.94, -341.47, -1278.90, -483.27, 0.000, 0.000, 0.000, 16:35:53.863, 1602452153863
77, -236.41, -339.19, -1284.18, -339.63, 0.000, 0.000, 0.000, 16:35:53.864, 1602452153864
78, -246.35, -337.18, -1302.18, -533.83, 0.000, 0.000, 0.000, 16:35:53.864, 1602452153864
79, -198.38, -299.69, -1265.02, -511.96, 0.000, 0.000, 0.000, 16:35:53.878, 1602452153878
80, -195.17, -312.24, -1273.09, -334.65, 0.000, 0.000, 0.000, 16:35:53.878, 1602452153878
81, -246.95, -337.69, -1282.33, -459.54, 0.000, 0.000, 0.000, 16:35:53.893, 1602452153893
82, -243.47, -320.24, -1257.51, -556.00, 0.000, 0.000, 0.000, 16:35:53.893, 1602452153893
83, -211.52, -305.13, -1251.49, -380.19, 0.000, 0.000, 0.000, 16:35:53.894, 1602452153894
84, -215.14, -316.46, -1259.71, -363.38, 0.000, 0.000, 0.000, 16:35:53.894, 1602452153894
85, -229.77, -319.06, -1278.53, -559.68, 0.000, 0.000, 0.000, 16:35:53.908, 1602452153908
86, -200.54, -280.26, -1238.64, -441.23, 0.000, 0.000, 0.000, 16:35:53.908, 1602452153908
87, -235.95, -340.11, -1280.39, -331.94, 0.000, 0.000, 0.000, 16:35:53.923, 1602452153923
88, -249.68, -341.55, -1288.76, -533.07, 0.000, 0.000, 0.000, 16:35:53.923, 1602452153923
89, -197.05, -294.43, -1244.99, -506.63, 0.000, 0.000, 0.000, 16:35:53.925, 1602452153925
90, -192.47, -289.77, -1253.98, -318.42, 0.000, 0.000, 0.000, 16:35:53.925, 1602452153925
91, -219.53, -312.12, -1260.29, -439.54, 0.000, 0.000, 0.000, 16:35:53.938, 1602452153938
92, -235.54, -332.12, -1279.80, -566.41, 0.000, 0.000, 0.000, 16:35:53.938, 1602452153938
93, -220.05, -338.66, -1291.20, -409.56, 0.000, 0.000, 0.000, 16:35:53.953, 1602452153953
94, -217.15, -327.67, -1278.26, -366.41, 0.000, 0.000, 0.000, 16:35:53.953, 1602452153953
95, -212.73, -322.92, -1296.62, -556.93, 0.000, 0.000, 0.000, 16:35:53.954, 1602452153954
96, -182.16, -292.09, -1250.66, -457.75, 0.000, 0.000, 0.000, 16:35:53.954, 1602452153954
97, -169.69, -269.11, -1223.01, -285.86, 0.000, 0.000, 0.000, 16:35:53.968, 1602452153968
98, -202.35, -294.97, -1259.62, -486.58, 0.000, 0.000, 0.000, 16:35:53.968, 1602452153968
99, -189.01, -272.62, -1247.56, -507.54, 0.000, 0.000, 0.000, 16:35:54.000, 1602452154000
100, -182.73, -292.17, -1264.66, -327.68, 0.000, 0.000, 0.000, 16:35:54.000, 1602452154000
101, -225.69, -332.38, -1290.53, -435.17, 0.000, 0.000, 0.000, 16:35:54.000, 1602452154000
102, -191.22, -300.01, -1262.61, -543.81, 0.000, 0.000, 0.000, 16:35:54.000, 1602452154000
103, -176.65, -276.23, -1228.84, -381.06, 0.000, 0.000, 0.000, 16:35:54.001, 1602452154001
104, -217.10, -326.98, -1298.86, -359.62, 0.000, 0.000, 0.000, 16:35:54.001, 1602452154001
105, -213.90, -326.06, -1287.55, -546.46, 0.000, 0.000, 0.000, 16:35:54.002, 1602452154002
106, -185.08, -300.08, -1268.96, -482.17, 0.000, 0.000, 0.000, 16:35:54.002, 1602452154002
107, -173.09, -301.10, -1265.37, -307.82, 0.000, 0.000, 0.000, 16:35:54.029, 1602452154029
108, -214.53, -335.04, -1293.78, -500.39, 0.000, 0.000, 0.000, 16:35:54.029, 1602452154029
109, -177.46, -301.21, -1262.37, -524.47, 0.000, 0.000, 0.000, 16:35:54.030, 1602452154030
110, -172.03, -287.99, -1250.27, -337.68, 0.000, 0.000, 0.000, 16:35:54.030, 1602452154030
111, -213.25, -325.68, -1283.94, -412.23, 0.000, 0.000, 0.000, 16:35:54.044, 1602452154044
112, -164.95, -272.29, -1230.56, -525.91, 0.000, 0.000, 0.000, 16:35:54.044, 1602452154044
113, -161.78, -265.16, -1224.09, -405.26, 0.000, 0.000, 0.000, 16:35:54.044, 1602452154044
114, -199.20, -309.15, -1266.38, -331.23, 0.000, 0.000, 0.000, 16:35:54.044, 1602452154044
115, -197.42, -303.32, -1263.12, -522.41, 0.000, 0.000, 0.000, 16:35:54.057, 1602452154057
116, -172.55, -261.72, -1210.98, -478.77, 0.000, 0.000, 0.000, 16:35:54.057, 1602452154057
117, -185.69, -281.66, -1237.39, -300.41, 0.000, 0.000, 0.000, 16:35:54.089, 1602452154089
118, -221.06, -311.02, -1264.94, -462.64, 0.000, 0.000, 0.000, 16:35:54.089, 1602452154089
119, -171.30, -270.94, -1236.13, -527.91, 0.000, 0.000, 0.000, 16:35:54.091, 1602452154091
120, -165.43, -251.12, -1211.63, -335.98, 0.000, 0.000, 0.000, 16:35:54.091, 1602452154091
121, -240.90, -337.35, -1300.65, -411.05, 0.000, 0.000, 0.000, 16:35:54.092, 1602452154092
122, -203.01, -282.63, -1238.96, -540.32, 0.000, 0.000, 0.000, 16:35:54.092, 1602452154092
123, -172.38, -254.38, -1205.04, -418.55, 0.000, 0.000, 0.000, 16:35:54.092, 1602452154092
124, -194.91, -276.67, -1229.49, -301.91, 0.000, 0.000, 0.000, 16:35:54.092, 1602452154092
125, -231.77, -315.72, -1271.41, -528.41, 0.000, 0.000, 0.000, 16:35:54.102, 1602452154102
126, -194.32, -273.61, -1227.03, -500.77, 0.000, 0.000, 0.000, 16:35:54.102, 1602452154102
127, -184.10, -274.37, -1217.30, -295.09, 0.000, 0.000, 0.000, 16:35:54.117, 1602452154117
128, -230.41, -310.73, -1269.42, -456.52, 0.000, 0.000, 0.000, 16:35:54.117, 1602452154117
129, -209.05, -279.42, -1238.25, -539.04, 0.000, 0.000, 0.000, 16:35:54.133, 1602452154133
130, -189.46, -269.69, -1226.35, -352.01, 0.000, 0.000, 0.000, 16:35:54.133, 1602452154133
131, -210.15, -290.12, -1249.62, -373.52, 0.000, 0.000, 0.000, 16:35:54.133, 1602452154133
132, -222.07, -277.79, -1222.23, -537.77, 0.000, 0.000, 0.000, 16:35:54.133, 1602452154133
133, -170.07, -242.97, -1199.22, -409.45, 0.000, 0.000, 0.000, 16:35:54.149, 1602452154149
134, -203.99, -274.24, -1225.93, -303.02, 0.000, 0.000, 0.000, 16:35:54.149, 1602452154149
135, -210.10, -291.81, -1245.77, -513.22, 0.000, 0.000, 0.000, 16:35:54.163, 1602452154163
136, -193.82, -265.87, -1222.76, -494.96, 0.000, 0.000, 0.000, 16:35:54.163, 1602452154163
137, -195.87, -264.27, -1206.88, -292.04, 0.000, 0.000, 0.000, 16:35:54.164, 1602452154164
138, -241.50, -320.64, -1266.21, -465.67, 0.000, 0.000, 0.000, 16:35:54.164, 1602452154164
139, -217.23, -281.26, -1224.48, -535.95, 0.000, 0.000, 0.000, 16:35:54.194, 1602452154194
140, -202.58, -276.91, -1219.52, -351.40, 0.000, 0.000, 0.000, 16:35:54.194, 1602452154194
141, -237.24, -318.29, -1260.38, -392.61, 0.000, 0.000, 0.000, 16:35:54.194, 1602452154194
142, -221.54, -297.48, -1234.65, -546.03, 0.000, 0.000, 0.000, 16:35:54.194, 1602452154194
143, -194.66, -259.07, -1195.67, -411.59, 0.000, 0.000, 0.000, 16:35:54.195, 1602452154195
144, -235.35, -313.59, -1245.74, -326.37, 0.000, 0.000, 0.000, 16:35:54.195, 1602452154195
145, -269.70, -351.72, -1298.11, -553.95, 0.000, 0.000, 0.000, 16:35:54.207, 1602452154207
146, -224.14, -285.35, -1223.30, -504.72, 0.000, 0.000, 0.000, 16:35:54.207, 1602452154207
147, -227.24, -290.26, -1222.78, -305.06, 0.000, 0.000, 0.000, 16:35:54.223, 1602452154223
148, -240.03, -297.51, -1228.66, -452.29, 0.000, 0.000, 0.000, 16:35:54.223, 1602452154223
149, -233.52, -306.10, -1237.99, -547.84, 0.000, 0.000, 0.000, 16:35:54.224, 1602452154224
150, -226.47, -313.39, -1241.72, -370.86, 0.000, 0.000, 0.000, 16:35:54.224, 1602452154224
151, -267.46, -342.01, -1278.17, -410.33, 0.000, 0.000, 0.000, 16:35:54.255, 1602452154255
152, -250.76, -323.41, -1265.14, -564.86, 0.000, 0.000, 0.000, 16:35:54.255, 1602452154255
153, -228.35, -293.38, -1227.06, -433.20, 0.000, 0.000, 0.000, 16:35:54.257, 1602452154257
154, -250.23, -312.14, -1220.30, -327.27, 0.000, 0.000, 0.000, 16:35:54.257, 1602452154257
155, -271.29, -334.74, -1232.82, -538.50, 0.000, 0.000, 0.000, 16:35:54.257, 1602452154257
156, -248.39, -303.15, -1225.79, -507.75, 0.000, 0.000, 0.000, 16:35:54.257, 1602452154257
157, -235.20, -291.76, -1201.74, -307.08, 0.000, 0.000, 0.000, 16:35:54.268, 1602452154268
158, -275.39, -340.10, -1247.98, -488.99, 0.000, 0.000, 0.000, 16:35:54.268, 1602452154268
159, -234.07, -288.50, -1191.76, -525.38, 0.000, 0.000, 0.000, 16:35:54.284, 1602452154284
160, -242.80, -300.66, -1215.79, -357.81, 0.000, 0.000, 0.000, 16:35:54.284, 1602452154284
161, -276.54, -343.08, -1241.96, -421.31, 0.000, 0.000, 0.000, 16:35:54.286, 1602452154286
162, -255.51, -319.74, -1217.43, -553.59, 0.000, 0.000, 0.000, 16:35:54.286, 1602452154286
163, -229.26, -287.99, -1195.46, -410.02, 0.000, 0.000, 0.000, 16:35:54.298, 1602452154298
164, -266.38, -330.28, -1237.11, -352.79, 0.000, 0.000, 0.000, 16:35:54.298, 1602452154298
165, -265.26, -316.50, -1226.98, -536.42, 0.000, 0.000, 0.000, 16:35:54.313, 1602452154313
166, -234.65, -297.17, -1205.21, -479.71, 0.000, 0.000, 0.000, 16:35:54.313, 1602452154313
167, -241.45, -305.82, -1212.80, -315.59, 0.000, 0.000, 0.000, 16:35:54.314, 1602452154314
168, -268.39, -335.78, -1241.02, -502.50, 0.000, 0.000, 0.000, 16:35:54.314, 1602452154314
169, -249.94, -316.56, -1221.43, -530.04, 0.000, 0.000, 0.000, 16:35:54.328, 1602452154328
170, -235.06, -306.35, -1191.50, -338.39, 0.000, 0.000, 0.000, 16:35:54.328, 1602452154328
171, -275.84, -346.90, -1240.82, -437.82, 0.000, 0.000, 0.000, 16:35:54.343, 1602452154343
172, -263.75, -330.29, -1230.70, -557.85, 0.000, 0.000, 0.000, 16:35:54.343, 1602452154343
173, -221.29, -284.54, -1189.28, -387.93, 0.000, 0.000, 0.000, 16:35:54.344, 1602452154344
174, -253.34, -311.70, -1208.12, -344.40, 0.000, 0.000, 0.000, 16:35:54.344, 1602452154344
175, -263.74, -333.16, -1231.48, -547.57, 0.000, 0.000, 0.000, 16:35:54.391, 1602452154391
176, -235.28, -308.43, -1208.73, -475.50, 0.000, 0.000, 0.000, 16:35:54.391, 1602452154391
177, -239.20, -306.37, -1201.58, -313.19, 0.000, 0.000, 0.000, 16:35:54.391, 1602452154391
178, -252.59, -318.89, -1213.40, -485.44, 0.000, 0.000, 0.000, 16:35:54.391, 1602452154391
179, -247.28, -310.80, -1219.62, -529.96, 0.000, 0.000, 0.000, 16:35:54.392, 1602452154392
180, -235.94, -303.93, -1212.03, -344.75, 0.000, 0.000, 0.000, 16:35:54.392, 1602452154392
181, -264.32, -337.28, -1232.49, -430.18, 0.000, 0.000, 0.000, 16:35:54.393, 1602452154393
182, -250.48, -314.31, -1219.60, -548.74, 0.000, 0.000, 0.000, 16:35:54.393, 1602452154393
183, -217.54, -282.55, -1191.28, -389.68, 0.000, 0.000, 0.000, 16:35:54.403, 1602452154403
184, -241.49, -307.88, -1220.56, -344.00, 0.000, 0.000, 0.000, 16:35:54.403, 1602452154403
185, -258.15, -326.25, -1233.36, -544.80, 0.000, 0.000, 0.000, 16:35:54.432, 1602452154432
186, -223.22, -286.75, -1195.00, -463.80, 0.000, 0.000, 0.000, 16:35:54.432, 1602452154432
187, -205.78, -274.45, -1178.35, -289.46, 0.000, 0.000, 0.000, 16:35:54.450, 1602452154450
188, -235.25, -304.39, -1216.21, -482.11, 0.000, 0.000, 0.000, 16:35:54.450, 1602452154450
189, -238.42, -299.46, -1212.36, -519.60, 0.000, 0.000, 0.000, 16:35:54.450, 1602452154450
190, -222.45, -293.52, -1203.43, -328.50, 0.000, 0.000, 0.000, 16:35:54.450, 1602452154450
191, -257.24, -325.91, -1228.18, -428.87, 0.000, 0.000, 0.000, 16:35:54.451, 1602452154451
192, -227.56, -291.33, -1195.33, -531.41, 0.000, 0.000, 0.000, 16:35:54.451, 1602452154451
193, -193.29, -252.86, -1165.54, -364.51, 0.000, 0.000, 0.000, 16:35:54.452, 1602452154452
194, -244.04, -304.62, -1216.31, -342.22, 0.000, 0.000, 0.000, 16:35:54.452, 1602452154452
195, -247.46, -318.17, -1240.04, -546.16, 0.000, 0.000, 0.000, 16:35:54.463, 1602452154463
196, -204.53, -265.03, -1180.32, -451.04, 0.000, 0.000, 0.000, 16:35:54.463, 1602452154463
197, -217.62, -281.36, -1200.25, -299.28, 0.000, 0.000, 0.000, 16:35:54.465, 1602452154465
198, -257.27, -321.19, -1233.29, -498.80, 0.000, 0.000, 0.000, 16:35:54.465, 1602452154465
199, -210.35, -278.37, -1190.72, -500.82, 0.000, 0.000, 0.000, 16:35:54.478, 1602452154478
200, -211.02, -275.01, -1190.38, -317.99, 0.000, 0.000, 0.000, 16:35:54.478, 1602452154478
0, -235.97, -304.31, -1218.24, -414.34, 0.000, 0.000, 0.000, 16:35:54.493, 1602452154493
1, -238.71, -300.09, -1216.94, -541.24, 0.000, 0.000, 0.000, 16:35:54.493, 1602452154493
2, -208.19, -271.23, -1193.69, -374.65, 0.000, 0.000, 0.000, 16:35:54.493, 1602452154493
3, -226.72, -287.35, -1210.53, -338.32, 0.000, 0.000, 0.000, 16:35:54.508, 1602452154508
4, -216.07, -287.50, -1197.89, -521.98, 0.000, 0.000, 0.000, 16:35:54.508, 1602452154508
5, -203.73, -260.93, -1182.96, -437.24, 0.000, 0.000, 0.000, 16:35:54.508, 1602452154508
6, -228.80, -289.90, -1211.82, -306.51, 0.000, 0.000, 0.000, 16:35:54.508, 1602452154508
7, -247.50, -306.95, -1233.73, -496.86, 0.000, 0.000, 0.000, 16:35:54.522, 1602452154522
8, -217.63, -276.02, -1208.30, -504.81, 0.000, 0.000, 0.000, 16:35:54.522, 1602452154522
9, -196.52, -254.63, -1170.03, -303.35, 0.000, 0.000, 0.000, 16:35:54.538, 1602452154538
10, -230.14, -287.76, -1209.87, -413.79, 0.000, 0.000, 0.000, 16:35:54.538, 1602452154538
11, -222.52, -281.85, -1203.10, -535.35, 0.000, 0.000, 0.000, 16:35:54.538, 1602452154538
12, -196.98, -251.46, -1174.04, -358.37, 0.000, 0.000, 0.000, 16:35:54.538, 1602452154538
13, -236.99, -290.97, -1205.56, -337.97, 0.000, 0.000, 0.000, 16:35:54.553, 1602452154553
14, -245.69, -306.94, -1226.89, -541.74, 0.000, 0.000, 0.000, 16:35:54.553, 1602452154553
15, -213.28, -274.51, -1200.80, -453.99, 0.000, 0.000, 0.000, 16:35:54.569, 1602452154569
16, -217.91, -277.85, -1204.55, -299.21, 0.000, 0.000, 0.000, 16:35:54.569, 1602452154569
17, -237.05, -302.17, -1222.82, -492.58, 0.000, 0.000, 0.000, 16:35:54.569, 1602452154569
18, -226.08, -285.99, -1209.83, -507.11, 0.000, 0.000, 0.000, 16:35:54.569, 1602452154569
19, -210.53, -266.88, -1193.01, -315.03, 0.000, 0.000, 0.000, 16:35:54.582, 1602452154582
20, -244.78, -299.12, -1234.65, -427.32, 0.000, 0.000, 0.000, 16:35:54.582, 1602452154582
21, -244.08, -300.21, -1222.58, -545.34, 0.000, 0.000, 0.000, 16:35:54.598, 1602452154598
22, -211.30, -274.96, -1205.34, -378.59, 0.000, 0.000, 0.000, 16:35:54.598, 1602452154598
23, -221.76, -285.89, -1212.33, -333.88, 0.000, 0.000, 0.000, 16:35:54.600, 1602452154600
24, -236.53, -304.54, -1231.05, -540.50, 0.000, 0.000, 0.000, 16:35:54.600, 1602452154600
25, -192.21, -252.95, -1181.92, -431.98, 0.000, 0.000, 0.000, 16:35:54.612, 1602452154612
26, -215.41, -263.89, -1188.22, -289.12, 0.000, 0.000, 0.000, 16:35:54.612, 1602452154612
27, -235.97, -293.00, -1214.33, -489.31, 0.000, 0.000, 0.000, 16:35:54.645, 1602452154645
28, -224.30, -279.10, -1202.32, -503.72, 0.000, 0.000, 0.000, 16:35:54.645, 1602452154645
29, -189.37, -245.56, -1173.62, -296.76, 0.000, 0.000, 0.000, 16:35:54.647, 1602452154647
30, -233.27, -289.60, -1216.63, -414.75, 0.000, 0.000, 0.000, 16:35:54.647, 1602452154647
31, -211.64, -271.98, -1191.35, -524.30, 0.000, 0.000, 0.000, 16:35:54.648, 1602452154648
32, -194.51, -256.26, -1188.46, -361.10, 0.000, 0.000, 0.000, 16:35:54.648, 1602452154648
33, -235.97, -289.52, -1220.51, -345.09, 0.000, 0.000, 0.000, 16:35:54.649, 1602452154649
34, -235.53, -292.23, -1226.19, -537.23, 0.000, 0.000, 0.000, 16:35:54.649, 1602452154649
35, -200.05, -255.98, -1193.01, -438.23, 0.000, 0.000, 0.000, 16:35:54.658, 1602452154658
36, -193.49, -254.66, -1188.65, -279.63, 0.000, 0.000, 0.000, 16:35:54.658, 1602452154658
37, -234.94, -293.83, -1221.09, -488.07, 0.000, 0.000, 0.000, 16:35:54.673, 1602452154673
38, -225.30, -275.79, -1207.31, -504.63, 0.000, 0.000, 0.000, 16:35:54.673, 1602452154673
39, -204.52, -258.24, -1196.72, -311.62, 0.000, 0.000, 0.000, 16:35:54.689, 1602452154689
40, -234.60, -286.53, -1216.00, -407.77, 0.000, 0.000, 0.000, 16:35:54.689, 1602452154689
41, -224.34, -277.66, -1214.32, -535.41, 0.000, 0.000, 0.000, 16:35:54.720, 1602452154720
42, -185.83, -235.98, -1171.68, -355.98, 0.000, 0.000, 0.000, 16:35:54.720, 1602452154720
43, -217.36, -270.47, -1201.07, -325.34, 0.000, 0.000, 0.000, 16:35:54.721, 1602452154721
44, -212.33, -272.14, -1206.45, -519.33, 0.000, 0.000, 0.000, 16:35:54.721, 1602452154721
45, -210.06, -256.17, -1187.80, -448.45, 0.000, 0.000, 0.000, 16:35:54.721, 1602452154721
46, -197.64, -255.70, -1182.91, -278.62, 0.000, 0.000, 0.000, 16:35:54.721, 1602452154721
47, -231.42, -291.07, -1226.65, -481.52, 0.000, 0.000, 0.000, 16:35:54.722, 1602452154722
48, -217.52, -276.57, -1209.69, -506.88, 0.000, 0.000, 0.000, 16:35:54.722, 1602452154722
49, -184.19, -234.83, -1174.29, -304.44, 0.000, 0.000, 0.000, 16:35:54.749, 1602452154749
50, -229.93, -287.00, -1211.46, -399.98, 0.000, 0.000, 0.000, 16:35:54.749, 1602452154749
51, -217.91, -260.50, -1195.21, -526.59, 0.000, 0.000, 0.000, 16:35:54.750, 1602452154750
52, -186.02, -240.90, -1172.44, -373.58, 0.000, 0.000, 0.000, 16:35:54.750, 1602452154750
53, -218.33, -271.69, -1208.08, -316.24, 0.000, 0.000, 0.000, 16:35:54.751, 1602452154751
54, -221.45, -268.51, -1197.49, -508.57, 0.000, 0.000, 0.000, 16:35:54.751, 1602452154751
55, -202.74, -250.83, -1187.64, -454.46, 0.000, 0.000, 0.000, 16:35:54.763, 1602452154763
56, -219.43, -265.74, -1195.33, -294.64, 0.000, 0.000, 0.000, 16:35:54.763, 1602452154763
57, -230.90, -284.09, -1222.61, -465.35, 0.000, 0.000, 0.000, 16:35:54.779, 1602452154779
58, -200.94, -248.36, -1184.45, -492.96, 0.000, 0.000, 0.000, 16:35:54.779, 1602452154779
59, -191.75, -237.44, -1167.00, -306.58, 0.000, 0.000, 0.000, 16:35:54.780, 1602452154780
60, -235.11, -281.20, -1201.31, -389.83, 0.000, 0.000, 0.000, 16:35:54.780, 1602452154780
61, -210.92, -260.82, -1199.78, -526.26, 0.000, 0.000, 0.000, 16:35:54.807, 1602452154807
62, -195.69, -247.61, -1184.26, -383.73, 0.000, 0.000, 0.000, 16:35:54.807, 1602452154807
63, -222.56, -264.32, -1189.27, -311.28, 0.000, 0.000, 0.000, 16:35:54.824, 1602452154824
64, -229.67, -270.00, -1206.34, -516.51, 0.000, 0.000, 0.000, 16:35:54.824, 1602452154824
65, -173.81, -227.90, -1162.08, -436.74, 0.000, 0.000, 0.000, 16:35:54.825, 1602452154825
66, -210.70, -253.30, -1191.32, -286.13, 0.000, 0.000, 0.000, 16:35:54.825, 1602452154825
67, -223.11, -271.22, -1203.47, -459.24, 0.000, 0.000, 0.000, 16:35:54.825, 1602452154825
68, -191.17, -249.03, -1186.58, -496.18, 0.000, 0.000, 0.000, 16:35:54.825, 1602452154825
69, -161.25, -210.32, -1148.51, -290.53, 0.000, 0.000, 0.000, 16:35:54.826, 1602452154826
70, -200.92, -257.15, -1206.96, -378.11, 0.000, 0.000, 0.000, 16:35:54.826, 1602452154826
71, -206.92, -254.36, -1195.23, -519.00, 0.000, 0.000, 0.000, 16:35:54.837, 1602452154837
72, -197.04, -235.61, -1170.14, -377.08, 0.000, 0.000, 0.000, 16:35:54.837, 1602452154837
73, -208.31, -250.73, -1180.18, -300.39, 0.000, 0.000, 0.000, 16:35:54.852, 1602452154852
74, -217.19, -253.07, -1179.79, -502.66, 0.000, 0.000, 0.000, 16:35:54.852, 1602452154852
75, -155.62, -192.31, -1123.75, -409.80, 0.000, 0.000, 0.000, 16:35:54.868, 1602452154868
76, -212.15, -256.21, -1185.36, -282.55, 0.000, 0.000, 0.000, 16:35:54.868, 1602452154868
77, -242.58, -286.89, -1232.48, -476.08, 0.000, 0.000, 0.000, 16:35:54.869, 1602452154869
78, -232.15, -263.49, -1205.82, -506.46, 0.000, 0.000, 0.000, 16:35:54.869, 1602452154869
79, -182.32, -204.64, -1133.45, -288.92, 0.000, 0.000, 0.000, 16:35:54.883, 1602452154883
80, -186.48, -220.38, -1143.56, -347.83, 0.000, 0.000, 0.000, 16:35:54.883, 1602452154883
81, -199.60, -227.35, -1146.28, -499.79, 0.000, 0.000, 0.000, 16:35:54.899, 1602452154899
82, -175.69, -208.66, -1134.81, -351.66, 0.000, 0.000, 0.000, 16:35:54.899, 1602452154899
83, -211.79, -250.37, -1173.83, -303.80, 0.000, 0.000, 0.000, 16:35:54.901, 1602452154901
84, -214.63, -260.15, -1196.27, -509.53, 0.000, 0.000, 0.000, 16:35:54.901, 1602452154901
85, -187.68, -229.23, -1157.19, -431.78, 0.000, 0.000, 0.000, 16:35:54.913, 1602452154913
86, -198.70, -239.48, -1177.13, -272.56, 0.000, 0.000, 0.000, 16:35:54.913, 1602452154913
87, -210.56, -257.33, -1186.69, -448.54, 0.000, 0.000, 0.000, 16:35:54.929, 1602452154929
88, -233.31, -268.26, -1191.32, -508.55, 0.000, 0.000, 0.000, 16:35:54.929, 1602452154929
89, -179.97, -213.86, -1130.21, -284.47, 0.000, 0.000, 0.000, 16:35:54.930, 1602452154930
90, -223.83, -273.95, -1202.63, -387.40, 0.000, 0.000, 0.000, 16:35:54.930, 1602452154930
91, -230.77, -265.56, -1198.25, -530.11, 0.000, 0.000, 0.000, 16:35:54.942, 1602452154942
92, -203.93, -244.31, -1174.00, -374.32, 0.000, 0.000, 0.000, 16:35:54.942, 1602452154942
93, -212.61, -254.16, -1171.24, -303.95, 0.000, 0.000, 0.000, 16:35:54.958, 1602452154958
94, -220.84, -260.57, -1187.71, -510.93, 0.000, 0.000, 0.000, 16:35:54.958, 1602452154958
95, -199.30, -227.89, -1152.41, -435.07, 0.000, 0.000, 0.000, 16:35:54.959, 1602452154959
96, -196.65, -229.74, -1158.78, -264.57, 0.000, 0.000, 0.000, 16:35:54.959, 1602452154959
97, -214.84, -254.64, -1179.45, -449.57, 0.000, 0.000, 0.000, 16:35:54.974, 1602452154974
98, -195.55, -223.67, -1160.15, -485.71, 0.000, 0.000, 0.000, 16:35:54.974, 1602452154974
99, -179.29, -216.25, -1147.43, -294.18, 0.000, 0.000, 0.000, 16:35:54.988, 1602452154988
100, -233.14, -268.99, -1187.75, -390.89, 0.000, 0.000, 0.000, 16:35:54.988, 1602452154988
101, -222.31, -266.09, -1184.84, -523.41, 0.000, 0.000, 0.000, 16:35:54.989, 1602452154989
102, -210.59, -246.06, -1176.07, -377.07, 0.000, 0.000, 0.000, 16:35:54.989, 1602452154989
103, -229.14, -277.48, -1199.95, -317.45, 0.000, 0.000, 0.000, 16:35:55.003, 1602452155003
104, -235.78, -280.52, -1204.66, -524.53, 0.000, 0.000, 0.000, 16:35:55.003, 1602452155003
105, -211.47, -256.22, -1182.61, -450.76, 0.000, 0.000, 0.000, 16:35:55.019, 1602452155019
106, -198.56, -237.68, -1163.54, -271.25, 0.000, 0.000, 0.000, 16:35:55.019, 1602452155019
107, -247.24, -295.64, -1219.29, -479.86, 0.000, 0.000, 0.000, 16:35:55.033, 1602452155033
108, -206.24, -247.47, -1168.46, -495.85, 0.000, 0.000, 0.000, 16:35:55.033, 1602452155033
109, -205.84, -248.58, -1165.88, -313.90, 0.000, 0.000, 0.000, 16:35:55.034, 1602452155034
110, -255.67, -293.98, -1207.55, -401.91, 0.000, 0.000, 0.000, 16:35:55.034, 1602452155034
111, -253.15, -294.36, -1212.04, -544.60, 0.000, 0.000, 0.000, 16:35:55.048, 1602452155048
112, -207.10, -243.62, -1155.76, -384.73, 0.000, 0.000, 0.000, 16:35:55.048, 1602452155048
113, -212.39, -256.06, -1162.42, -296.10, 0.000, 0.000, 0.000, 16:35:55.049, 1602452155049
114, -220.22, -258.56, -1169.09, -497.92, 0.000, 0.000, 0.000, 16:35:55.049, 1602452155049
115, -194.83, -233.45, -1149.76, -449.29, 0.000, 0.000, 0.000, 16:35:55.063, 1602452155063
116, -194.45, -244.08, -1161.68, -269.39, 0.000, 0.000, 0.000, 16:35:55.063, 1602452155063
117, -229.77, -285.87, -1196.47, -451.79, 0.000, 0.000, 0.000, 16:35:55.078, 1602452155078
118, -185.93, -234.68, -1146.36, -483.48, 0.000, 0.000, 0.000, 16:35:55.078, 1602452155078
119, -188.84, -237.88, -1148.91, -310.16, 0.000, 0.000, 0.000, 16:35:55.079, 1602452155079
120, -241.05, -291.36, -1208.58, -387.32, 0.000, 0.000, 0.000, 16:35:55.079, 1602452155079
121, -211.84, -270.71, -1187.87, -522.92, 0.000, 0.000, 0.000, 16:35:55.094, 1602452155094
122, -200.25, -246.64, -1166.41, -386.64, 0.000, 0.000, 0.000, 16:35:55.094, 1602452155094
123, -194.18, -246.93, -1157.49, -287.48, 0.000, 0.000, 0.000, 16:35:55.108, 1602452155108
124, -244.52, -300.61, -1213.50, -520.00, 0.000, 0.000, 0.000, 16:35:55.108, 1602452155108
125, -214.00, -253.01, -1179.40, -464.95, 0.000, 0.000, 0.000, 16:35:55.109, 1602452155109
126, -213.19, -252.52, -1172.60, -280.91, 0.000, 0.000, 0.000, 16:35:55.109, 1602452155109
127, -250.93, -289.93, -1207.05, -460.41, 0.000, 0.000, 0.000, 16:35:55.123, 1602452155123
128, -215.01, -258.24, -1176.52, -504.91, 0.000, 0.000, 0.000, 16:35:55.123, 1602452155123
129, -190.21, -228.23, -1149.09, -310.39, 0.000, 0.000, 0.000, 16:35:55.140, 1602452155140
130, -231.70, -278.65, -1189.80, -380.36, 0.000, 0.000, 0.000, 16:35:55.140, 1602452155140
131, -223.33, -267.52, -1183.10, -521.89, 0.000, 0.000, 0.000, 16:35:55.141, 1602452155141
132, -202.54, -242.52, -1159.40, -381.69, 0.000, 0.000, 0.000, 16:35:55.141, 1602452155141
133, -189.56, -232.17, -1146.30, -275.11, 0.000, 0.000, 0.000, 16:35:55.153, 1602452155153
134, -231.32, -263.45, -1177.12, -500.63, 0.000, 0.000, 0.000, 16:35:55.153, 1602452155153
135, -192.44, -231.71, -1154.22, -445.24, 0.000, 0.000, 0.000, 16:35:55.168, 1602452155168
136, -208.89, -248.08, -1167.37, -279.38, 0.000, 0.000, 0.000, 16:35:55.168, 1602452155168
137, -253.43, -299.75, -1217.13, -466.94, 0.000, 0.000, 0.000, 16:35:55.170, 1602452155170
138, -207.52, -243.13, -1152.50, -499.29, 0.000, 0.000, 0.000, 16:35:55.170, 1602452155170
139, -203.29, -236.35, -1148.95, -313.65, 0.000, 0.000, 0.000, 16:35:55.182, 1602452155182
140, -228.13, -263.58, -1176.04, -363.08, 0.000, 0.000, 0.000, 16:35:55.182, 1602452155182
141, -222.59, -254.45, -1164.70, -510.99, 0.000, 0.000, 0.000, 16:35:55.198, 1602452155198
142, -197.52, -218.73, -1134.73, -377.23, 0.000, 0.000, 0.000, 16:35:55.198, 1602452155198
143, -233.15, -264.69, -1182.43, -298.07, 0.000, 0.000, 0.000, 16:35:55.198, 1602452155198
144, -255.28, -292.03, -1210.01, -510.78, 0.000, 0.000, 0.000, 16:35:55.198, 1602452155198
145, -213.55, -238.89, -1153.97, -467.16, 0.000, 0.000, 0.000, 16:35:55.212, 1602452155212
146, -216.57, -248.24, -1176.09, -282.26, 0.000, 0.000, 0.000, 16:35:55.212, 1602452155212
147, -241.40, -279.69, -1198.00, -440.94, 0.000, 0.000, 0.000, 16:35:55.229, 1602452155229
148, -230.82, -257.12, -1169.92, -512.84, 0.000, 0.000, 0.000, 16:35:55.229, 1602452155229
149, -213.82, -239.22, -1162.92, -330.06, 0.000, 0.000, 0.000, 16:35:55.231, 1602452155231
150, -237.37, -267.67, -1201.93, -368.81, 0.000, 0.000, 0.000, 16:35:55.231, 1602452155231
