%OpenBCI Raw EEG Data
%Number of channels = 4
%Sample Rate = 200 Hz
%Board = OpenBCI_GUI$BoardGanglionBLE
Sample Index, EXG Channel 0, EXG Channel 1, EXG Channel 2, EXG Channel 3, Accel Channel 0, Accel Channel 1, Accel Channel 2, Other, Other, Other, Other, Other, Timestamp, Other, Timestamp (Formatted)
2.0, 2.861023466102779, -13.830150036141276, 4.558938045985997, 0.8152981903403997, -0.288000013679266, 0.0, 0.0, 0.0, 0.0, 0.0, 0.0, 0.0, 1.6480859448548028E9, 0.0, 2022-03-23 20:39:04.854
2.0, 0.07853789906948805, -10.640015373937786, -4.921708341687918, 0.2505732970312238, -0.288000013679266, 0.0, 0.0, 0.0, 0.0, 0.0, 0.0, 0.0, 1.6480859448548028E9, 0.0, 2022-03-23 20:39:04.854
3.0, -0.06731819920241833, 3.6725817564874887, 5.505132734775543, 1.129449786618352, -0.288000013679266, 0.0, 0.0, 0.0, 0.0, 0.0, 0.0, 0.0, 1.6480859448555455E9, 0.0, 2022-03-23 20:39:04.855
3.0, 7.528418610803783, 8.384855700656772, 8.164201603271067, 11.032704869285226, -0.288000013679266, 0.0, 0.0, 0.0, 0.0, 0.0, 0.0, 0.0, 1.6480859448555455E9, 0.0, 2022-03-23 20:39:04.855
4.0, 8.82242399547249, 8.799984595738351, 1.6193766808137298, 8.8560830950737, -0.288000013679266, 0.0, 0.0, 0.0, 0.0, 0.0, 0.0, 0.0, 1.6480859448562562E9, 0.0, 2022-03-23 20:39:04.856
4.0, 1.1444093864411116, 4.8095113430172205, 5.449034235440195, 7.281585213728249, -0.288000013679266, 0.0, 0.0, 0.0, 0.0, 0.0, 0.0, 0.0, 1.6480859448562562E9, 0.0, 2022-03-23 20:39:04.856
5.0, 5.351796836592257, 10.681154273450375, 10.509118875488639, 11.803124260157347, -0.288000013679266, 0.0, 0.0, 0.0, 0.0, 0.0, 0.0, 0.0, 1.6480859448672285E9, 0.0, 2022-03-23 20:39:04.867
5.0, 16.4518199050799, 6.544824922457337, 2.9507810650393367, 15.535544415935874, -0.288000013679266, 0.0, 0.0, 0.0, 0.0, 0.0, 0.0, 0.0, 1.6480859448672285E9, 0.0, 2022-03-23 20:39:04.867
6.0, -5.385455936193466, 0.06731819920241833, -6.398968824185431, 2.2701192731037736, -0.288000013679266, 0.0, 0.0, 0.0, 0.0, 0.0, 0.0, 0.0, 1.6480859448829083E9, 0.0, 2022-03-23 20:39:04.882
6.0, -11.440353964455426, -4.517799146473408, -3.941854553297162, 1.286525584757328, -0.288000013679266, 0.0, 0.0, 0.0, 0.0, 0.0, 0.0, 0.0, 1.6480859448829083E9, 0.0, 2022-03-23 20:39:04.882
7.0, 18.95755287539214, 2.82362446654588, 6.249372825957835, 18.90519427601248, -0.288000013679266, 0.0, 0.0, 0.0, 0.0, 0.0, 0.0, 0.0, 1.6480859448836465E9, 0.0, 2022-03-23 20:39:04.883
7.0, 10.88310887105763, 5.389195836149156, 18.280630983412266, 11.589949962683022, -0.288000013679266, 0.0, 0.0, 0.0, 0.0, 0.0, 0.0, 0.0, 1.6480859448836465E9, 0.0, 2022-03-23 20:39:04.883
8.0, -0.8676567897200584, 11.717106561176479, 16.347102706320584, 9.6339822858572, -0.288000013679266, 0.0, 0.0, 0.0, 0.0, 0.0, 0.0, 0.0, 1.6480859448972898E9, 0.0, 2022-03-23 20:39:04.897
8.0, 15.819776812568307, 11.68718736153096, 23.72218541894108, 18.246971883811057, -0.288000013679266, 0.0, 0.0, 0.0, 0.0, 0.0, 0.0, 0.0, 1.6480859448972898E9, 0.0, 2022-03-23 20:39:04.897
9.0, 23.980238515883684, 19.503578268922865, 28.651373560540378, 31.4600384272635, -0.288000013679266, 0.0, 0.0, 0.0, 0.0, 0.0, 0.0, 0.0, 1.6480859449129603E9, 0.0, 2022-03-23 20:39:04.912
9.0, 18.5648633800447, 26.90484028123319, 27.282570176757872, 26.635567484423518, -0.288000013679266, 0.0, 0.0, 0.0, 0.0, 0.0, 0.0, 0.0, 1.6480859449129603E9, 0.0, 2022-03-23 20:39:04.912
10.0, 15.961893010884523, 13.867549035698175, 16.49295880459249, 22.656313931569457, -0.288000013679266, 0.0, 0.9600000455975533, 0.0, 0.0, 0.0, 0.0, 0.0, 1.6480859449136724E9, 0.0, 2022-03-23 20:39:04.913
10.0, 18.58356287982315, 22.244924936443567, 16.96044629905373, 23.969018816016614, -0.288000013679266, 0.0, 0.9600000455975533, 0.0, 0.0, 0.0, 0.0, 0.0, 1.6480859449136724E9, 0.0, 2022-03-23 20:39:04.913
11.0, 8.624209297820926, 14.611789126880467, 19.537237368524075, 22.783470530062914, -0.288000013679266, 0.0800000037997961, 0.9600000455975533, 0.0, 0.0, 0.0, 0.0, 0.0, 1.6480859449273326E9, 0.0, 2022-03-23 20:39:04.927
11.0, 9.772358584217727, 4.01665255241096, 22.13646783772856, 21.078076150268316, -0.288000013679266, 0.0800000037997961, 0.9600000455975533, 0.0, 0.0, 0.0, 0.0, 0.0, 1.6480859449273326E9, 0.0, 2022-03-23 20:39:04.927
12.0, 6.484986523166299, 9.794797983951867, 26.19425928965211, 24.07747591473162, -0.288000013679266, 0.0800000037997961, 0.9600000455975533, 0.0, 0.0, 0.0, 0.0, 0.0, 1.6480859449428632E9, 0.0, 2022-03-23 20:39:04.942
12.0, 16.193766808137298, 5.718307032249868, 22.52167753316462, 20.96587915159762, -0.288000013679266, 0.0800000037997961, 0.9600000455975533, 0.0, 0.0, 0.0, 0.0, 0.0, 1.6480859449428632E9, 0.0, 2022-03-23 20:39:04.942
13.0, 6.294251625426114, -1.0733512872830033, 13.130788744427264, 16.399461305700243, -0.288000013679266, 0.0800000037997961, 0.9600000455975533, 0.0, 0.0, 0.0, 0.0, 0.0, 1.6480859449437606E9, 0.0, 2022-03-23 20:39:04.943
13.0, 9.559184286743402, 8.755105796270072, 14.604309326969087, 19.937406663782895, -0.288000013679266, 0.0800000037997961, 0.9600000455975533, 0.0, 0.0, 0.0, 0.0, 0.0, 1.6480859449437606E9, 0.0, 2022-03-23 20:39:04.943
14.0, 6.649542121216655, 5.060084640048444, 13.781531336717308, 20.292697159573436, -0.288000013679266, 0.0800000037997961, 0.9600000455975533, 0.0, 0.0, 0.0, 0.0, 0.0, 1.6480859449572408E9, 0.0, 2022-03-23 20:39:04.957
14.0, 20.771404353901744, 15.71879951376468, 32.353874516673386, 25.225625201128423, -0.288000013679266, 0.0800000037997961, 0.9600000455975533, 0.0, 0.0, 0.0, 0.0, 0.0, 1.6480859449572408E9, 0.0, 2022-03-23 20:39:04.957
15.0, 15.70757981389761, 17.947779887355864, 41.658745606429875, 28.9767448566854, -0.288000013679266, 0.0800000037997961, 0.9600000455975533, 0.0, 0.0, 0.0, 0.0, 0.0, 1.648085944972942E9, 0.0, 2022-03-23 20:39:04.972
15.0, 22.779730630107224, 6.309211225248873, 34.50805689115077, 32.742824112065136, -0.288000013679266, 0.0800000037997961, 0.9600000455975533, 0.0, 0.0, 0.0, 0.0, 0.0, 1.648085944972942E9, 0.0, 2022-03-23 20:39:04.972
16.0, 17.3045170949772, 16.810850300826132, 20.229118860326707, 28.673812960274518, -0.288000013679266, 0.0800000037997961, 0.9600000455975533, 0.0, 0.0, 0.0, 0.0, 0.0, 1.6480859449736664E9, 0.0, 2022-03-23 20:39:04.973
16.0, 18.17965368460864, 17.958999587222934, 23.819422817789018, 22.241185036487877, -0.288000013679266, 0.0800000037997961, 0.9600000455975533, 0.0, 0.0, 0.0, 0.0, 0.0, 1.6480859449736664E9, 0.0, 2022-03-23 20:39:04.973
17.0, 15.31489031855017, 9.443247388117015, 7.031011916697025, 19.540977268479764, -0.288000013679266, 0.0800000037997961, 0.9600000455975533, 0.0, 0.0, 0.0, 0.0, 0.0, 1.648085944987284E9, 0.0, 2022-03-23 20:39:04.987
17.0, 26.392473987303674, 25.633274296298623, 23.636167719960213, 27.290049976669252, -0.288000013679266, 0.0800000037997961, 0.9600000455975533, 0.0, 0.0, 0.0, 0.0, 0.0, 1.648085944987284E9, 0.0, 2022-03-23 20:39:04.987
18.0, 19.548457068391144, 19.114628673531115, 21.855975341051817, 26.758984182961285, -0.288000013679266, 0.0800000037997961, 0.9600000455975533, 0.0, 0.0, 0.0, 0.0, 0.0, 1.6480859450030675E9, 0.0, 2022-03-23 20:39:05.003
18.0, 16.664994202554226, 2.2439399734139442, 10.266025378368795, 20.93222005199641, -0.288000013679266, 0.0800000037997961, 0.9600000455975533, 0.0, 0.0, 0.0, 0.0, 0.0, 1.6480859450030675E9, 0.0, 2022-03-23 20:39:05.003
19.0, 7.771512107923627, 14.716506325639784, 10.916767970658839, 18.94259327556938, -0.288000013679266, 0.0800000037997961, 0.9600000455975533, 0.0, 0.0, 0.0, 0.0, 0.0, 1.648085945003646E9, 0.0, 2022-03-23 20:39:05.003
19.0, 15.202693319879472, 34.07048859633505, 15.617822214961052, 28.079168867319822, -0.288000013679266, 0.0800000037997961, 0.9600000455975533, 0.0, 0.0, 0.0, 0.0, 0.0, 1.648085945003646E9, 0.0, 2022-03-23 20:39:05.003
20.0, 24.90399380493909, 25.094728702679276, 19.982285463251173, 27.450865674763918, -0.288000013679266, 0.0800000037997961, 0.9600000455975533, 0.0, 0.0, 0.0, 0.0, 0.0, 1.6480859450335968E9, 0.0, 2022-03-23 20:39:05.033
20.0, 14.813743724487722, 15.606602515093982, -1.8961292775347829, 29.863101146183908, -0.288000013679266, 0.0800000037997961, 0.9600000455975533, 0.0, 0.0, 0.0, 0.0, 0.0, 1.6480859450335968E9, 0.0, 2022-03-23 20:39:05.033
21.0, 6.211973826400936, 4.712273944169283, -7.038491716608405, 15.606602515093982, -0.288000013679266, 0.09600000455975533, 0.9600000455975533, 0.0, 0.0, 0.0, 0.0, 0.0, 1.6480859450342772E9, 0.0, 2022-03-23 20:39:05.034
21.0, 3.3621700601652265, 18.935113475658, 2.894682565703988, 15.782377813011408, -0.288000013679266, 0.09600000455975533, 0.9600000455975533, 0.0, 0.0, 0.0, 0.0, 0.0, 1.6480859450342772E9, 0.0, 2022-03-23 20:39:05.034
22.0, 11.597429762594402, 12.03873795736581, 7.842570207081735, 24.1223547141999, -0.288000013679266, 0.09600000455975533, 0.9600000455975533, 0.0, 0.0, 0.0, 0.0, 0.0, 1.6480859450351696E9, 0.0, 2022-03-23 20:39:05.035
22.0, 11.451573664322495, 18.87527507636696, 1.9671873766928911, 24.851635205559433, -0.288000013679266, 0.09600000455975533, 0.9600000455975533, 0.0, 0.0, 0.0, 0.0, 0.0, 1.6480859450351696E9, 0.0, 2022-03-23 20:39:05.035
23.0, 12.85029624775052, 24.735698306933045, 19.092189273796976, 23.980238515883684, -0.288000013679266, 0.09600000455975533, 0.9600000455975533, 0.0, 0.0, 0.0, 0.0, 0.0, 1.648085945047186E9, 0.0, 2022-03-23 20:39:05.047
23.0, 20.12440166156739, 27.933312769047916, 25.79408999439329, 29.863101146183908, -0.288000013679266, 0.09600000455975533, 0.9600000455975533, 0.0, 0.0, 0.0, 0.0, 0.0, 1.648085945047186E9, 0.0, 2022-03-23 20:39:05.047
24.0, 14.604309326969087, 0.9013158893212676, 25.39392069913447, 27.503224274143577, -0.288000013679266, 0.09600000455975533, 0.9600000455975533, 0.0, 0.0, 0.0, 0.0, 0.0, 1.6480859450629225E9, 0.0, 2022-03-23 20:39:05.062
24.0, 13.403801441192627, 11.402954964898527, 17.607448991388083, 26.355074987746775, -0.288000013679266, 0.09600000455975533, 0.9600000455975533, 0.0, 0.0, 0.0, 0.0, 0.0, 1.6480859450629225E9, 0.0, 2022-03-23 20:39:05.062
25.0, 19.26048477180302, 30.457745239138603, 21.975652139633894, 37.50745665561408, -0.288000013679266, 0.09600000455975533, 0.9600000455975533, 0.0, 0.0, 0.0, 0.0, 0.0, 1.6480859450636795E9, 0.0, 2022-03-23 20:39:05.063
25.0, 19.67935356684029, 18.837876076810062, 20.606848755851388, 38.25169674679637, -0.288000013679266, 0.09600000455975533, 0.9600000455975533, 0.0, 0.0, 0.0, 0.0, 0.0, 1.6480859450636795E9, 0.0, 2022-03-23 20:39:05.063
26.0, 13.987225834280252, 5.478953435085714, 25.962385492399335, 24.660900307819247, -0.288000013679266, 0.09600000455975533, 0.9600000455975533, 0.0, 0.0, 0.0, 0.0, 0.0, 1.6480859450771813E9, 0.0, 2022-03-23 20:39:05.077
26.0, 7.191827614791691, 17.70842629019171, 25.35652169957757, 31.654513224959373, -0.288000013679266, 0.09600000455975533, 0.9600000455975533, 0.0, 0.0, 0.0, 0.0, 0.0, 1.6480859450771813E9, 0.0, 2022-03-23 20:39:05.077
27.0, 9.768618684262037, 10.187487479299307, 7.614436309784651, 26.321415888145566, -0.288000013679266, 0.09600000455975533, 0.9600000455975533, 0.0, 0.0, 0.0, 0.0, 0.0, 1.6480859450929763E9, 0.0, 2022-03-23 20:39:05.092
27.0, 12.614682550542057, 8.407295100390911, 3.2237937618047, 23.183639825321734, -0.288000013679266, 0.09600000455975533, 0.9600000455975533, 0.0, 0.0, 0.0, 0.0, 0.0, 1.6480859450929763E9, 0.0, 2022-03-23 20:39:05.092
28.0, 13.171927643939853, 3.145255862735212, 16.53035780414939, 26.91232008114457, -0.288000013679266, 0.09600000455975533, 0.9600000455975533, 0.0, 0.0, 0.0, 0.0, 0.0, 1.6480859450937266E9, 0.0, 2022-03-23 20:39:05.093
28.0, 17.618668691255152, 20.453512857668102, 23.74462481867522, 23.479091921821237, -0.288000013679266, 0.09600000455975533, 0.9600000455975533, 0.0, 0.0, 0.0, 0.0, 0.0, 1.6480859450937266E9, 0.0, 2022-03-23 20:39:05.093
29.0, 24.5300038093701, 26.14938049018383, 27.525663673877716, 41.281015710905194, -0.288000013679266, 0.09600000455975533, 0.9600000455975533, 0.0, 0.0, 0.0, 0.0, 0.0, 1.6480859451071813E9, 0.0, 2022-03-23 20:39:05.107
29.0, 13.979746034368873, 31.142146931029856, 15.32237011846155, 29.451712151058018, -0.288000013679266, 0.09600000455975533, 0.9600000455975533, 0.0, 0.0, 0.0, 0.0, 0.0, 1.6480859451071813E9, 0.0, 2022-03-23 20:39:05.107
30.0, 15.25879181921482, 30.682139236479998, 8.03704500477761, 29.32455555256456, -0.288000013679266, 0.09600000455975533, 0.9760000463575125, 0.0, 0.0, 0.0, 0.0, 0.0, 1.6480859451230297E9, 0.0, 2022-03-23 20:39:05.123
30.0, 40.2039245236665, 29.496590950526297, 33.43470560386777, 45.37994606234133, -0.288000013679266, 0.09600000455975533, 0.9760000463575125, 0.0, 0.0, 0.0, 0.0, 0.0, 1.6480859451230297E9, 0.0, 2022-03-23 20:39:05.123
31.0, 18.991211974993348, 20.318876459263265, 29.511550550349057, 39.30260863434523, -0.288000013679266, 0.09600000455975533, 0.9760000463575125, 0.0, 0.0, 0.0, 0.0, 0.0, 1.6480859451237054E9, 0.0, 2022-03-23 20:39:05.123
31.0, 8.089403604157269, 30.465225039049983, 6.04741822835058, 31.198245430365205, -0.288000013679266, 0.09600000455975533, 0.9760000463575125, 0.0, 0.0, 0.0, 0.0, 0.0, 1.6480859451237054E9, 0.0, 2022-03-23 20:39:05.123
32.0, 23.471612121909857, 22.49923813343048, -3.7585994554683566, 30.99629083275795, -0.288000013679266, 0.09600000455975533, 0.9760000463575125, 0.0, 0.0, 0.0, 0.0, 0.0, 1.648085945137196E9, 0.0, 2022-03-23 20:39:05.137
32.0, 15.329849918372929, 14.305117330513895, 19.817729865200818, 36.17231237143278, -0.288000013679266, 0.09600000455975533, 0.9760000463575125, 0.0, 0.0, 0.0, 0.0, 0.0, 1.648085945137196E9, 0.0, 2022-03-23 20:39:05.137
33.0, 13.362662541680038, 10.45302037615329, 37.664532453753054, 41.662485506385565, -0.288000013679266, 0.09600000455975533, 0.9760000463575125, 0.0, 0.0, 0.0, 0.0, 0.0, 1.6480859451529524E9, 0.0, 2022-03-23 20:39:05.152
33.0, 22.297283535823226, 27.993151168338954, 41.90557900350541, 46.468256949447095, -0.288000013679266, 0.09600000455975533, 0.9760000463575125, 0.0, 0.0, 0.0, 0.0, 0.0, 1.6480859451529524E9, 0.0, 2022-03-23 20:39:05.152
34.0, 27.682739472016692, 18.224532484076917, 60.2871872857213, 57.20924962218851, -0.288000013679266, 0.09600000455975533, 0.9760000463575125, 0.0, 0.0, 0.0, 0.0, 0.0, 1.6480859451536725E9, 0.0, 2022-03-23 20:39:05.153
34.0, 12.394028453156352, 6.099776827730238, 71.39843005407602, 49.13854551780969, -0.288000013679266, 0.09600000455975533, 0.9760000463575125, 0.0, 0.0, 0.0, 0.0, 0.0, 1.6480859451536725E9, 0.0, 2022-03-23 20:39:05.153
35.0, 13.871288935653865, -5.097483639605343, 78.86327036563307, 51.24036929290742, -0.288000013679266, 0.09600000455975533, 0.9760000463575125, 0.0, 0.0, 0.0, 0.0, 0.0, 1.648085945167276E9, 0.0, 2022-03-23 20:39:05.167
35.0, 14.017145033925772, -26.235398189164698, 61.15110417548567, 48.64113882370293, -0.288000013679266, 0.09600000455975533, 0.9760000463575125, 0.0, 0.0, 0.0, 0.0, 0.0, 1.648085945167276E9, 0.0, 2022-03-23 20:39:05.167
36.0, 18.90145437605679, -6.185794526711106, 85.20240079052746, 54.31456705648452, -0.288000013679266, 0.09600000455975533, 0.9760000463575125, 0.0, 0.0, 0.0, 0.0, 0.0, 1.648085945182943E9, 0.0, 2022-03-23 20:39:05.182
36.0, 22.256144636310637, -3.579084257595241, 88.30651775375009, 54.0639937594533, -0.288000013679266, 0.09600000455975533, 0.9760000463575125, 0.0, 0.0, 0.0, 0.0, 0.0, 1.648085945182943E9, 0.0, 2022-03-23 20:39:05.182
37.0, 33.49454400315881, -10.06033088080585, 94.37263548187912, 68.30927269067615, -0.288000013679266, 0.09600000455975533, 0.9760000463575125, 0.0, 0.0, 0.0, 0.0, 0.0, 1.6480859451837375E9, 0.0, 2022-03-23 20:39:05.183
37.0, 29.84066174644977, -0.2692727968096733, 98.24343193601817, 65.48190832417458, -0.288000013679266, 0.09600000455975533, 0.9760000463575125, 0.0, 0.0, 0.0, 0.0, 0.0, 1.6480859451837375E9, 0.0, 2022-03-23 20:39:05.183
38.0, 21.455806045792997, -13.852589435875416, 91.55649081524462, 57.56080021802336, -0.288000013679266, 0.09600000455975533, 0.9760000463575125, 0.0, 0.0, 0.0, 0.0, 0.0, 1.648085945197203E9, 0.0, 2022-03-23 20:39:05.197
38.0, 19.234305472113192, -20.262777959927917, 80.88655624166131, 59.61026539374143, -0.288000013679266, 0.09600000455975533, 0.9760000463575125, 0.0, 0.0, 0.0, 0.0, 0.0, 1.648085945197203E9, 0.0, 2022-03-23 20:39:05.197
39.0, 34.65765288937837, -13.153228144161403, 78.54537886939943, 64.05326654110104, -0.288000013679266, 0.09600000455975533, 0.9760000463575125, 0.0, 0.0, 0.0, 0.0, 0.0, 1.6480859452129607E9, 0.0, 2022-03-23 20:39:05.212
39.0, 10.243585978634655, -18.647141179069877, 78.94554816465825, 52.31746048014611, -0.288000013679266, 0.09600000455975533, 0.9760000463575125, 0.0, 0.0, 0.0, 0.0, 0.0, 1.6480859452129607E9, 0.0, 2022-03-23 20:39:05.212
40.0, 13.228026143275201, -25.902547093108296, 70.52703336440027, 58.604232305660844, -0.288000013679266, 0.09600000455975533, 0.9760000463575125, 0.0, 0.0, 0.0, 0.0, 0.0, 1.648085945213668E9, 0.0, 2022-03-23 20:39:05.213
40.0, 26.755244283005595, -35.970357773825526, 67.25088100321591, 65.92695641890168, -0.288000013679266, 0.09600000455975533, 0.9760000463575125, 0.0, 0.0, 0.0, 0.0, 0.0, 1.648085945213668E9, 0.0, 2022-03-23 20:39:05.213
41.0, 12.700700249522924, -23.262177724391222, 45.14433236513287, 57.51592141855508, -0.288000013679266, 0.09600000455975533, 0.9760000463575125, 0.0, 0.0, 0.0, 0.0, 0.0, 1.6480859452273014E9, 0.0, 2022-03-23 20:39:05.227
41.0, 12.177114255726337, -16.739792201668024, 46.25508265197277, 48.940330820158124, -0.288000013679266, 0.09600000455975533, 0.9760000463575125, 0.0, 0.0, 0.0, 0.0, 0.0, 1.6480859452273014E9, 0.0, 2022-03-23 20:39:05.227
42.0, 30.091235043480992, -26.291496688500047, 69.65189677476883, 58.27138120960444, -0.27200001291930676, 0.09600000455975533, 0.9760000463575125, 0.0, 0.0, 0.0, 0.0, 0.0, 1.6480859452429593E9, 0.0, 2022-03-23 20:39:05.242
42.0, 12.349149653688073, -35.90303957462311, 62.00754126533866, 50.33905340358615, -0.27200001291930676, 0.09600000455975533, 0.9760000463575125, 0.0, 0.0, 0.0, 0.0, 0.0, 1.6480859452429593E9, 0.0, 2022-03-23 20:39:05.242
43.0, 9.753659084439278, -27.121754478663206, 66.35330501385033, 56.506148430518806, -0.27200001291930676, 0.09600000455975533, 0.9760000463575125, 0.0, 0.0, 0.0, 0.0, 0.0, 1.6480859452436492E9, 0.0, 2022-03-23 20:39:05.243
43.0, 16.15262790862471, -24.417806810699403, 48.64113882370293, 49.08618691843003, -0.27200001291930676, 0.09600000455975533, 0.9760000463575125, 0.0, 0.0, 0.0, 0.0, 0.0, 1.6480859452436492E9, 0.0, 2022-03-23 20:39:05.243
44.0, 5.366756436415017, -37.9076259508729, 51.51338198967278, 48.899191920645535, -0.27200001291930676, 0.09600000455975533, 0.9760000463575125, 0.0, 0.0, 0.0, 0.0, 0.0, 1.6480859452572043E9, 0.0, 2022-03-23 20:39:05.257
44.0, -5.075044239871204, -35.68986527714878, 58.09186601173133, 46.29996145144105, -0.27200001291930676, 0.09600000455975533, 0.9760000463575125, 0.0, 0.0, 0.0, 0.0, 0.0, 1.6480859452572043E9, 0.0, 2022-03-23 20:39:05.257
45.0, 20.790103853680193, -25.831488993950188, 57.41868401970714, 58.01332811266184, -0.27200001291930676, 0.09600000455975533, 0.9760000463575125, 0.0, 0.0, 0.0, 0.0, 0.0, 1.648085945272951E9, 0.0, 2022-03-23 20:39:05.272
45.0, 30.689619036391377, -16.294744106940925, 50.2829549042508, 62.25811456236988, -0.27200001291930676, 0.09600000455975533, 0.9760000463575125, 0.0, 0.0, 0.0, 0.0, 0.0, 1.648085945272951E9, 0.0, 2022-03-23 20:39:05.272
46.0, 8.930881094187498, -30.412866439670324, 48.31202762760222, 49.288141516037285, -0.27200001291930676, 0.09600000455975533, 0.9760000463575125, 0.0, 0.0, 0.0, 0.0, 0.0, 1.6480859452735815E9, 0.0, 2022-03-23 20:39:05.273
46.0, 9.562924186699092, -28.711211959831417, 39.14927273616195, 44.119599777273834, -0.27200001291930676, 0.09600000455975533, 0.9760000463575125, 0.0, 0.0, 0.0, 0.0, 0.0, 1.6480859452735815E9, 0.0, 2022-03-23 20:39:05.273
47.0, 27.492004574276507, -18.778037677519023, 45.49588296096772, 61.20720267482102, -0.27200001291930676, 0.09600000455975533, 0.9760000463575125, 0.0, 0.0, 0.0, 0.0, 0.0, 1.6480859452872677E9, 0.0, 2022-03-23 20:39:05.287
47.0, 9.016898793168366, -20.46847245749086, 47.08534044213593, 56.091019535437226, -0.27200001291930676, 0.09600000455975533, 0.9760000463575125, 0.0, 0.0, 0.0, 0.0, 0.0, 1.6480859452872677E9, 0.0, 2022-03-23 20:39:05.287
48.0, 7.296544813551009, -16.07782990951091, 51.88737198524177, 57.96470941323787, -0.27200001291930676, 0.09600000455975533, 0.9760000463575125, 0.0, 0.0, 0.0, 0.0, 0.0, 1.6480859453030305E9, 0.0, 2022-03-23 20:39:05.303
48.0, 17.783224289305508, -5.348056936636567, 48.095113430172205, 57.19802992232144, -0.27200001291930676, 0.09600000455975533, 0.9760000463575125, 0.0, 0.0, 0.0, 0.0, 0.0, 1.6480859453030305E9, 0.0, 2022-03-23 20:39:05.303
49.0, 21.32490954734385, -9.783578284084797, 58.211542810313404, 62.190796363167465, -0.27200001291930676, 0.09600000455975533, 0.9760000463575125, 0.0, 0.0, 0.0, 0.0, 0.0, 1.648085945303678E9, 0.0, 2022-03-23 20:39:05.303
49.0, 7.401262012310326, -6.331650624983013, 60.84069247916341, 62.983655153773725, -0.27200001291930676, 0.09600000455975533, 0.9760000463575125, 0.0, 0.0, 0.0, 0.0, 0.0, 1.648085945303678E9, 0.0, 2022-03-23 20:39:05.303
50.0, 22.349642135202885, 0.13837629836052656, 57.82259321492165, 67.15738350432366, -0.27200001291930676, 0.09600000455975533, 0.9760000463575125, 0.0, 0.0, 0.0, 0.0, 0.0, 1.648085945317224E9, 0.0, 2022-03-23 20:39:05.317
50.0, 29.305856052786112, -11.474013064056635, 63.92237004265189, 69.62197757512331, -0.27200001291930676, 0.09600000455975533, 0.9760000463575125, 0.0, 0.0, 0.0, 0.0, 0.0, 1.648085945317224E9, 0.0, 2022-03-23 20:39:05.317
51.0, 20.93222005199641, -1.1518891863524914, 59.782300791703165, 59.13155819941312, -0.27200001291930676, 0.09600000455975533, 0.9760000463575125, 0.0, 0.0, 0.0, 0.0, 0.0, 1.6480859453329244E9, 0.0, 2022-03-23 20:39:05.332
51.0, 19.066009974107146, -14.06950363330543, 38.54340894334018, 53.59650626499206, -0.27200001291930676, 0.09600000455975533, 0.9760000463575125, 0.0, 0.0, 0.0, 0.0, 0.0, 1.6480859453329244E9, 0.0, 2022-03-23 20:39:05.332
52.0, 23.060223126783967, -12.431427452713251, 38.37511344533414, 64.56189293507487, -0.288000013679266, 0.09600000455975533, 0.9760000463575125, 0.0, 0.0, 0.0, 0.0, 0.0, 1.648085945333652E9, 0.0, 2022-03-23 20:39:05.333
52.0, 6.0548980282619596, -25.69685259554535, 23.01160442736, 49.59107341244817, -0.288000013679266, 0.09600000455975533, 0.9760000463575125, 0.0, 0.0, 0.0, 0.0, 0.0, 1.648085945333652E9, 0.0, 2022-03-23 20:39:05.333
53.0, 16.691173502244055, -2.056944975629449, 36.052635572850704, 52.6166524766013, -0.288000013679266, 0.09600000455975533, 0.9760000463575125, 0.0, 0.0, 0.0, 0.0, 0.0, 1.64808594534725E9, 0.0, 2022-03-23 20:39:05.347
53.0, 21.29125044774264, -6.918814918026328, 38.4985301438719, 65.89329731930047, -0.288000013679266, 0.09600000455975533, 0.9760000463575125, 0.0, 0.0, 0.0, 0.0, 0.0, 1.64808594534725E9, 0.0, 2022-03-23 20:39:05.347
54.0, 34.044309296645224, -0.5123662939295173, 57.57949971780181, 72.97292793542147, -0.288000013679266, 0.09600000455975533, 0.9760000463575125, 0.0, 0.0, 0.0, 0.0, 0.0, 1.6480859453628483E9, 0.0, 2022-03-23 20:39:05.362
54.0, 10.991565969772637, -2.1541823744773865, 60.960369277745485, 61.87664476688951, -0.288000013679266, 0.09600000455975533, 0.9760000463575125, 0.0, 0.0, 0.0, 0.0, 0.0, 1.6480859453628483E9, 0.0, 2022-03-23 20:39:05.362
55.0, 5.434074635617435, -24.451465910300612, 43.319261186756194, 58.78748740348965, -0.288000013679266, 0.09600000455975533, 0.9760000463575125, 0.0, 0.0, 0.0, 0.0, 0.0, 1.6480859453636339E9, 0.0, 2022-03-23 20:39:05.363
55.0, 24.19341281335801, -14.293897630646825, 34.018129996955395, 74.06123882252723, -0.288000013679266, 0.09600000455975533, 0.9760000463575125, 0.0, 0.0, 0.0, 0.0, 0.0, 1.6480859453636339E9, 0.0, 2022-03-23 20:39:05.363
56.0, 11.709626761265099, -6.716860320419073, 32.009803720749915, 61.356798673048615, -0.288000013679266, 0.09600000455975533, 0.9760000463575125, 0.0, 0.0, 0.0, 0.0, 0.0, 1.6480859453772197E9, 0.0, 2022-03-23 20:39:05.377
56.0, 2.8311042664572597, -10.755952272564173, 32.99339740909636, 60.934189978055656, -0.288000013679266, 0.09600000455975533, 0.9760000463575125, 0.0, 0.0, 0.0, 0.0, 0.0, 1.6480859453772197E9, 0.0, 2022-03-23 20:39:05.377
57.0, 20.015944562852383, -8.388595600612462, 53.40951126720756, 77.61788368038833, -0.288000013679266, 0.09600000455975533, 0.9760000463575125, 0.0, 0.0, 0.0, 0.0, 0.0, 1.6480859453929608E9, 0.0, 2022-03-23 20:39:05.392
57.0, 32.16687951888889, -0.4338283948600292, 66.65249701030552, 82.2254404257983, -0.288000013679266, 0.09600000455975533, 0.9760000463575125, 0.0, 0.0, 0.0, 0.0, 0.0, 1.6480859453929608E9, 0.0, 2022-03-23 20:39:05.392
58.0, 20.453512857668102, -9.787318184040487, 69.09091178141534, 75.61329730413854, -0.288000013679266, 0.09600000455975533, 0.9760000463575125, 0.0, 0.0, 0.0, 0.0, 0.0, 1.6480859453937163E9, 0.0, 2022-03-23 20:39:05.393
58.0, 31.953705221414566, 3.3621700601652265, 72.93552893586457, 78.03301257546991, -0.288000013679266, 0.09600000455975533, 0.9760000463575125, 0.0, 0.0, 0.0, 0.0, 0.0, 1.6480859453937163E9, 0.0, 2022-03-23 20:39:05.393
59.0, 38.19933814741671, 17.225979195907712, 70.07450546976179, 88.8226239476353, -0.288000013679266, 0.09600000455975533, 0.9760000463575125, 0.0, 0.0, 0.0, 0.0, 0.0, 1.6480859454072647E9, 0.0, 2022-03-23 20:39:05.407
59.0, 20.685386654920876, 0.7330203913152218, 38.56958824303001, 78.26488637272269, -0.288000013679266, 0.09600000455975533, 0.9760000463575125, 0.0, 0.0, 0.0, 0.0, 0.0, 1.6480859454072647E9, 0.0, 2022-03-23 20:39:05.407
60.0, 6.84775681886822, 2.1055636750534177, 42.59746049530804, 68.75806068535894, -0.288000013679266, 0.09600000455975533, 0.9600000455975533, 0.0, 0.0, 0.0, 0.0, 0.0, 1.6480859454229157E9, 0.0, 2022-03-23 20:39:05.422
60.0, 44.108380077406764, 23.452912622131407, 56.68940352834761, 93.69197368994355, -0.288000013679266, 0.09600000455975533, 0.9600000455975533, 0.0, 0.0, 0.0, 0.0, 0.0, 1.6480859454229157E9, 0.0, 2022-03-23 20:39:05.422
61.0, 38.76406304072589, 31.250604029744864, 60.930450078099966, 91.2647786187008, -0.288000013679266, 0.09600000455975533, 0.9600000455975533, 0.0, 0.0, 0.0, 0.0, 0.0, 1.6480859454235947E9, 0.0, 2022-03-23 20:39:05.423
61.0, 26.15686029009521, 19.615775267593563, 55.85166593827307, 84.34970360063016, -0.288000013679266, 0.09600000455975533, 0.9600000455975533, 0.0, 0.0, 0.0, 0.0, 0.0, 1.6480859454235947E9, 0.0, 2022-03-23 20:39:05.423
62.0, 41.7971219047904, 16.418160805478692, 67.48649470042437, 93.37408219370991, -0.288000013679266, 0.09600000455975533, 0.9600000455975533, 0.0, 0.0, 0.0, 0.0, 0.0, 1.6480859454371707E9, 0.0, 2022-03-23 20:39:05.437
62.0, 21.025717550888658, -0.7180607914924622, 56.30045393295586, 78.04049237538129, -0.288000013679266, 0.09600000455975533, 0.9600000455975533, 0.0, 0.0, 0.0, 0.0, 0.0, 1.6480859454371707E9, 0.0, 2022-03-23 20:39:05.437
63.0, 24.866594805382192, -6.290511725470424, 58.06942661199719, 74.07993832230568, -0.288000013679266, 0.09600000455975533, 0.9600000455975533, 0.0, 0.0, 0.0, 0.0, 0.0, 1.6480859454529445E9, 0.0, 2022-03-23 20:39:05.452
63.0, 31.75175062380731, 3.414528659544885, 55.84792603831738, 82.64056932087988, -0.288000013679266, 0.09600000455975533, 0.9600000455975533, 0.0, 0.0, 0.0, 0.0, 0.0, 1.6480859454529445E9, 0.0, 2022-03-23 20:39:05.452
64.0, 21.137914549559355, -4.278445549309254, 47.62762593571097, 79.35693715978414, -0.288000013679266, 0.09600000455975533, 0.9600000455975533, 0.0, 0.0, 0.0, 0.0, 0.0, 1.6480859454536784E9, 0.0, 2022-03-23 20:39:05.453
64.0, 9.215113490819931, 3.373389760032296, 33.39356670435518, 69.53969977609813, -0.288000013679266, 0.09600000455975533, 0.9600000455975533, 0.0, 0.0, 0.0, 0.0, 0.0, 1.6480859454536784E9, 0.0, 2022-03-23 20:39:05.453
65.0, 16.238645607605577, 6.02497882861644, 23.202339325100183, 67.01526730600744, -0.288000013679266, 0.09600000455975533, 0.9600000455975533, 0.0, 0.0, 0.0, 0.0, 0.0, 1.648085945467176E9, 0.0, 2022-03-23 20:39:05.467
65.0, 25.39392069913447, 13.949826834723353, 27.256390877068043, 84.15896870288998, -0.288000013679266, 0.09600000455975533, 0.9600000455975533, 0.0, 0.0, 0.0, 0.0, 0.0, 1.648085945467176E9, 0.0, 2022-03-23 20:39:05.467
66.0, 28.868287757970393, 17.024024598300457, 57.732835615985096, 90.31858392991126, -0.288000013679266, 0.09600000455975533, 0.9600000455975533, 0.0, 0.0, 0.0, 0.0, 0.0, 1.6480859454993415E9, 0.0, 2022-03-23 20:39:05.499
66.0, 21.474505545571446, 8.676567897200584, 48.23722962848842, 78.58277786895633, -0.288000013679266, 0.09600000455975533, 0.9600000455975533, 0.0, 0.0, 0.0, 0.0, 0.0, 1.6480859454993415E9, 0.0, 2022-03-23 20:39:05.499
67.0, 26.261577488854527, -3.092897263355553, 39.16423233598471, 78.261146472767, -0.288000013679266, 0.09600000455975533, 0.9600000455975533, 0.0, 0.0, 0.0, 0.0, 0.0, 1.6480859455000005E9, 0.0, 2022-03-23 20:39:05.500
67.0, 20.042123862542212, 6.918814918026328, 50.885078797116876, 79.02408606372774, -0.288000013679266, 0.09600000455975533, 0.9600000455975533, 0.0, 0.0, 0.0, 0.0, 0.0, 1.6480859455000005E9, 0.0, 2022-03-23 20:39:05.500
68.0, 7.25166601408273, -1.3875028835609555, 28.20258556585759, 70.97582135908306, -0.288000013679266, 0.09600000455975533, 0.9600000455975533, 0.0, 0.0, 0.0, 0.0, 0.0, 1.648085945500778E9, 0.0, 2022-03-23 20:39:05.500
68.0, 13.68055403791368, -7.461100411601365, 30.293189641088247, 73.0701653342694, -0.288000013679266, 0.09600000455975533, 0.9600000455975533, 0.0, 0.0, 0.0, 0.0, 0.0, 1.648085945500778E9, 0.0, 2022-03-23 20:39:05.500
69.0, 24.746918006800115, -0.0523585993796587, 46.524355448782444, 84.31978440098464, -0.288000013679266, 0.09600000455975533, 0.9600000455975533, 0.0, 0.0, 0.0, 0.0, 0.0, 1.6480859455014849E9, 0.0, 2022-03-23 20:39:05.501
69.0, 7.857529806904495, -10.44180067628622, 38.27039624657482, 68.41024998947978, -0.288000013679266, 0.09600000455975533, 0.9600000455975533, 0.0, 0.0, 0.0, 0.0, 0.0, 1.6480859455014849E9, 0.0, 2022-03-23 20:39:05.501
70.0, 2.1093035750091076, -5.793105031363666, 29.287156553007662, 77.12047698628157, -0.288000013679266, 0.09600000455975533, 0.9600000455975533, 0.0, 0.0, 0.0, 0.0, 0.0, 1.6480859455122569E9, 0.0, 2022-03-23 20:39:05.512
70.0, 34.18642549496144, 14.974559422582388, 28.99918425641954, 96.91202755179256, -0.288000013679266, 0.09600000455975533, 0.9600000455975533, 0.0, 0.0, 0.0, 0.0, 0.0, 1.6480859455122569E9, 0.0, 2022-03-23 20:39:05.512
71.0, 33.69649860076606, 30.734497835859656, 60.39564438443631, 98.92035382799804, -0.288000013679266, 0.09600000455975533, 0.9600000455975533, 0.0, 0.0, 0.0, 0.0, 0.0, 1.6480859455272124E9, 0.0, 2022-03-23 20:39:05.527
71.0, 26.18677948974073, 17.831842988729477, 54.28090795688331, 94.79150427691638, -0.288000013679266, 0.09600000455975533, 0.9600000455975533, 0.0, 0.0, 0.0, 0.0, 0.0, 1.6480859455272124E9, 0.0, 2022-03-23 20:39:05.527
72.0, 39.57936123106629, 7.3451635129749775, 46.083047254011035, 92.23715260718018, -0.288000013679266, 0.09600000455975533, 0.9600000455975533, 0.0, 0.0, 0.0, 0.0, 0.0, 1.6480859455593913E9, 0.0, 2022-03-23 20:39:05.559
72.0, 17.581269691698253, -8.564370898529887, 32.757783711887896, 78.82213146612048, -0.288000013679266, 0.09600000455975533, 0.9600000455975533, 0.0, 0.0, 0.0, 0.0, 0.0, 1.6480859455593913E9, 0.0, 2022-03-23 20:39:05.559
73.0, 5.284478637389839, 7.087110416032374, 36.35556746926159, 79.54393215756863, -0.288000013679266, 0.09600000455975533, 0.9600000455975533, 0.0, 0.0, 0.0, 0.0, 0.0, 1.6480859455599627E9, 0.0, 2022-03-23 20:39:05.559
73.0, 19.540977268479764, 7.173128115013242, 26.56076948530972, 91.76966511271894, -0.288000013679266, 0.09600000455975533, 0.9600000455975533, 0.0, 0.0, 0.0, 0.0, 0.0, 1.6480859455599627E9, 0.0, 2022-03-23 20:39:05.559
74.0, 26.411173487082124, 13.878768735565245, 31.605894525535405, 93.54237769171596, -0.288000013679266, 0.09600000455975533, 0.9600000455975533, 0.0, 0.0, 0.0, 0.0, 0.0, 1.6480859455606973E9, 0.0, 2022-03-23 20:39:05.560
74.0, 13.497298940084875, 7.397522112354636, 31.228164630010724, 75.56467860471457, -0.288000013679266, 0.09600000455975533, 0.9600000455975533, 0.0, 0.0, 0.0, 0.0, 0.0, 1.6480859455606973E9, 0.0, 2022-03-23 20:39:05.560
75.0, 7.535898410715163, 7.599476709961891, 28.707472059875727, 78.16390907391906, -0.288000013679266, 0.09600000455975533, 0.9600000455975533, 0.0, 0.0, 0.0, 0.0, 0.0, 1.6480859455615127E9, 0.0, 2022-03-23 20:39:05.561
75.0, 19.881308164447546, 9.544224686920643, 22.54411693289876, 83.67278170865029, -0.288000013679266, 0.09600000455975533, 0.9600000455975533, 0.0, 0.0, 0.0, 0.0, 0.0, 1.6480859455615127E9, 0.0, 2022-03-23 20:39:05.561
76.0, 7.165648315101862, 5.018945740535855, 15.546764115802944, 81.2605462372303, -0.288000013679266, 0.09600000455975533, 0.9600000455975533, 0.0, 0.0, 0.0, 0.0, 0.0, 1.6480859455722404E9, 0.0, 2022-03-23 20:39:05.572
76.0, 3.0442785639315844, -7.734113108366728, 21.444586345925927, 75.00369361136109, -0.288000013679266, 0.09600000455975533, 0.9600000455975533, 0.0, 0.0, 0.0, 0.0, 0.0, 1.6480859455722404E9, 0.0, 2022-03-23 20:39:05.572
77.0, 17.31199689488858, -2.1429626746103168, 21.033197350800037, 87.28552506584674, -0.288000013679266, 0.09600000455975533, 0.9600000455975533, 0.0, 0.0, 0.0, 0.0, 0.0, 1.6480859455873072E9, 0.0, 2022-03-23 20:39:05.587
77.0, 19.76911116577685, 7.722893408499658, 35.72726427670568, 92.46154660452157, -0.288000013679266, 0.09600000455975533, 0.9600000455975533, 0.0, 0.0, 0.0, 0.0, 0.0, 1.6480859455873072E9, 0.0, 2022-03-23 20:39:05.587
78.0, 4.491619846783578, -4.211127350106835, 28.430719463154674, 80.87533654179424, -0.288000013679266, 0.09600000455975533, 0.9600000455975533, 0.0, 0.0, 0.0, 0.0, 0.0, 1.6480859456029775E9, 0.0, 2022-03-23 20:39:05.602
78.0, 19.032350874505937, 7.289065013639629, 29.80700264684856, 88.71790674887598, -0.288000013679266, 0.09600000455975533, 0.9600000455975533, 0.0, 0.0, 0.0, 0.0, 0.0, 1.6480859456029775E9, 0.0, 2022-03-23 20:39:05.602
79.0, 5.078784139826894, -13.112089244648814, 19.73919196613133, 84.02807220444083, -0.288000013679266, 0.09600000455975533, 0.9600000455975533, 0.0, 0.0, 0.0, 0.0, 0.0, 1.648085945603648E9, 0.0, 2022-03-23 20:39:05.603
79.0, 0.5348056936636567, -0.643262792378664, 21.7138591427356, 79.4803538583219, -0.288000013679266, 0.09600000455975533, 0.9600000455975533, 0.0, 0.0, 0.0, 0.0, 0.0, 1.648085945603648E9, 0.0, 2022-03-23 20:39:05.603
80.0, 11.975159658119082, 0.6582223922014236, 31.575975325889885, 89.2265331428498, -0.288000013679266, 0.09600000455975533, 0.9600000455975533, 0.0, 0.0, 0.0, 0.0, 0.0, 1.6480859456171603E9, 0.0, 2022-03-23 20:39:05.617
80.0, 15.939453611150384, -3.657622156664729, 2.5543516697362065, 87.57349736243486, -0.288000013679266, 0.09600000455975533, 0.9600000455975533, 0.0, 0.0, 0.0, 0.0, 0.0, 1.6480859456171603E9, 0.0, 2022-03-23 20:39:05.617
81.0, -12.360369353555143, -11.204740267246962, 4.0428318521007895, 74.667102615349, -0.288000013679266, 0.09600000455975533, 0.9600000455975533, 0.0, 0.0, 0.0, 0.0, 0.0, 1.64808594563296E9, 0.0, 2022-03-23 20:39:05.632
81.0, -5.306918037123978, -3.6912812562659383, 12.655821450054646, 78.39204297121614, -0.288000013679266, 0.09600000455975533, 0.9600000455975533, 0.0, 0.0, 0.0, 0.0, 0.0, 1.64808594563296E9, 0.0, 2022-03-23 20:39:05.632
82.0, 13.142008444294333, -15.834736412391067, 11.503932263702154, 89.78751813620329, -0.288000013679266, 0.09600000455975533, 0.9600000455975533, 0.0, 0.0, 0.0, 0.0, 0.0, 1.6480859456337023E9, 0.0, 2022-03-23 20:39:05.633
82.0, 7.913628306239843, -6.398968824185431, 6.563524422235787, 85.12760279141366, -0.288000013679266, 0.09600000455975533, 0.9600000455975533, 0.0, 0.0, 0.0, 0.0, 0.0, 1.6480859456337023E9, 0.0, 2022-03-23 20:39:05.633
83.0, -1.2715659849345684, 4.199907650239766, 16.231165807694197, 80.16475555021316, -0.288000013679266, 0.09600000455975533, 0.9600000455975533, 0.0, 0.0, 0.0, 0.0, 0.0, 1.6480859456473331E9, 0.0, 2022-03-23 20:39:05.647
83.0, 8.83738359529525, 0.16829549800604582, 25.259284300729632, 87.03121186885983, -0.288000013679266, 0.09600000455975533, 0.9600000455975533, 0.0, 0.0, 0.0, 0.0, 0.0, 1.6480859456473331E9, 0.0, 2022-03-23 20:39:05.647
84.0, 6.470026923343539, -4.095190451480448, 4.641215845011175, 89.12555584404618, -0.288000013679266, 0.09600000455975533, 0.9600000455975533, 0.0, 0.0, 0.0, 0.0, 0.0, 1.648085945662942E9, 0.0, 2022-03-23 20:39:05.662
84.0, 3.5117660583928227, 1.7876721788197756, 12.573543651029468, 89.68280093744397, -0.288000013679266, 0.09600000455975533, 0.9600000455975533, 0.0, 0.0, 0.0, 0.0, 0.0, 1.648085945662942E9, 0.0, 2022-03-23 20:39:05.662
85.0, -1.1780684860423207, -2.7525663673877716, 13.418761041015387, 83.5568448100239, -0.288000013679266, 0.09600000455975533, 0.9600000455975533, 0.0, 0.0, 0.0, 0.0, 0.0, 1.648085945663688E9, 0.0, 2022-03-23 20:39:05.663
85.0, 6.918814918026328, -13.721692937426269, -8.231519802473485, 84.13278940320015, -0.288000013679266, 0.09600000455975533, 0.9600000455975533, 0.0, 0.0, 0.0, 0.0, 0.0, 1.648085945663688E9, 0.0, 2022-03-23 20:39:05.663
86.0, -4.947887641377747, -23.224778724834323, -6.735559820197523, 74.87279711291194, -0.288000013679266, 0.09600000455975533, 0.9600000455975533, 0.0, 0.0, 0.0, 0.0, 0.0, 1.6480859456772952E9, 0.0, 2022-03-23 20:39:05.677
86.0, -9.65642168559134, -25.36026159953326, 1.8288110783323646, 80.20215454977006, -0.288000013679266, 0.09600000455975533, 0.9600000455975533, 0.0, 0.0, 0.0, 0.0, 0.0, 1.6480859456772952E9, 0.0, 2022-03-23 20:39:05.677
87.0, 6.511165822856128, -12.805417448282242, 0.28797229658812284, 89.2639321424067, -0.288000013679266, 0.09600000455975533, 0.9600000455975533, 0.0, 0.0, 0.0, 0.0, 0.0, 1.6480859457247145E9, 0.0, 2022-03-23 20:39:05.724
87.0, -1.488480182364583, -1.7988918786868453, -5.755706031806767, 83.66156200878322, -0.288000013679266, 0.09600000455975533, 0.9600000455975533, 0.0, 0.0, 0.0, 0.0, 0.0, 1.6480859457247145E9, 0.0, 2022-03-23 20:39:05.724
88.0, 12.674520949833095, 13.987225834280252, 22.753551330417395, 93.77051158901304, -0.288000013679266, 0.09600000455975533, 0.9600000455975533, 0.0, 0.0, 0.0, 0.0, 0.0, 1.6480859457253919E9, 0.0, 2022-03-23 20:39:05.725
88.0, 27.185332777909935, 12.8577760476619, 29.174959554336965, 100.26671781204641, -0.288000013679266, 0.09600000455975533, 0.9600000455975533, 0.0, 0.0, 0.0, 0.0, 0.0, 1.6480859457253919E9, 0.0, 2022-03-23 20:39:05.725
89.0, 23.35567522328347, 11.799384360201657, 40.51059632003307, 104.83687555789948, -0.288000013679266, 0.09600000455975533, 0.9600000455975533, 0.0, 0.0, 0.0, 0.0, 0.0, 1.6480859457262003E9, 0.0, 2022-03-23 20:39:05.726
89.0, 14.035844533704221, 20.636767955496907, 30.345548240467906, 97.83578284084797, -0.288000013679266, 0.09600000455975533, 0.9600000455975533, 0.0, 0.0, 0.0, 0.0, 0.0, 1.6480859457262003E9, 0.0, 2022-03-23 20:39:05.726
90.0, 16.182547108270228, 12.723139649257064, 16.807110400870442, 99.55239692050964, -0.288000013679266, 0.09600000455975533, 0.9760000463575125, 0.0, 0.0, 0.0, 0.0, 0.0, 1.6480859457269156E9, 0.0, 2022-03-23 20:39:05.726
90.0, 14.338776430115104, -9.136575591750443, 8.553151198662817, 93.63213529065251, -0.288000013679266, 0.09600000455975533, 0.9760000463575125, 0.0, 0.0, 0.0, 0.0, 0.0, 1.6480859457269156E9, 0.0, 2022-03-23 20:39:05.726
91.0, -2.453374370932579, -7.087110416032374, 3.8782762540504336, 85.67736808490008, -0.288000013679266, 0.09600000455975533, 0.9760000463575125, 0.0, 0.0, 0.0, 0.0, 0.0, 1.648085945754271E9, 0.0, 2022-03-23 20:39:05.754
91.0, 13.994705634191632, 24.851635205559433, 29.881800645962358, 99.30182362347841, -0.288000013679266, 0.09600000455975533, 0.9760000463575125, 0.0, 0.0, 0.0, 0.0, 0.0, 1.648085945754271E9, 0.0, 2022-03-23 20:39:05.754
92.0, 34.59033469017595, 23.019084227271378, 32.402493216097355, 110.64120028913021, -0.288000013679266, 0.09600000455975533, 0.9760000463575125, 0.0, 0.0, 0.0, 0.0, 0.0, 1.6480859457549562E9, 0.0, 2022-03-23 20:39:05.754
92.0, 21.867195040918887, 18.400307781994343, 11.144901867955923, 98.3406693348661, -0.288000013679266, 0.09600000455975533, 0.9760000463575125, 0.0, 0.0, 0.0, 0.0, 0.0, 1.6480859457549562E9, 0.0, 2022-03-23 20:39:05.754
93.0, 13.407541341148317, 9.27495189011097, 9.319830689579248, 90.44200062844902, -0.288000013679266, 0.09600000455975533, 0.9760000463575125, 0.0, 0.0, 0.0, 0.0, 0.0, 1.6480859457557352E9, 0.0, 2022-03-23 20:39:05.755
93.0, 11.152381667867303, -7.1843478148803115, 10.411881476640701, 87.67447466123849, -0.288000013679266, 0.09600000455975533, 0.9760000463575125, 0.0, 0.0, 0.0, 0.0, 0.0, 1.6480859457557352E9, 0.0, 2022-03-23 20:39:05.755
94.0, 12.812897248193622, 0.2094343975186348, 12.528664851561189, 94.65686787851155, -0.288000013679266, 0.09600000455975533, 0.9760000463575125, 0.0, 0.0, 0.0, 0.0, 0.0, 1.648085945756458E9, 0.0, 2022-03-23 20:39:05.756
94.0, 9.375929188914597, 11.608649462461472, 13.867549035698175, 95.10565587319434, -0.288000013679266, 0.09600000455975533, 0.9760000463575125, 0.0, 0.0, 0.0, 0.0, 0.0, 1.648085945756458E9, 0.0, 2022-03-23 20:39:05.756
95.0, 7.775252007879317, 13.067210445180535, 8.751365896314383, 91.38071551732719, -0.288000013679266, 0.09600000455975533, 0.9760000463575125, 0.0, 0.0, 0.0, 0.0, 0.0, 1.648085945784268E9, 0.0, 2022-03-23 20:39:05.784
95.0, 17.484032292850316, 11.373035765253007, 3.1489957626909018, 103.4942514738068, -0.288000013679266, 0.09600000455975533, 0.9760000463575125, 0.0, 0.0, 0.0, 0.0, 0.0, 1.648085945784268E9, 0.0, 2022-03-23 20:39:05.784
96.0, 4.2036475501954556, 9.080477092415094, 20.90604075230658, 97.75724494177848, -0.288000013679266, 0.09600000455975533, 0.9760000463575125, 0.0, 0.0, 0.0, 0.0, 0.0, 1.64808594578503E9, 0.0, 2022-03-23 20:39:05.785
96.0, 7.591996910050511, 5.3742362363263965, 19.963585963472724, 97.70114644244313, -0.288000013679266, 0.09600000455975533, 0.9760000463575125, 0.0, 0.0, 0.0, 0.0, 0.0, 1.64808594578503E9, 0.0, 2022-03-23 20:39:05.785
97.0, 18.826656376942992, 13.329003442078829, 11.066363968886435, 103.22871857695282, -0.288000013679266, 0.09600000455975533, 0.9760000463575125, 0.0, 0.0, 0.0, 0.0, 0.0, 1.6480859457858596E9, 0.0, 2022-03-23 20:39:05.785
97.0, 14.331296630203724, 5.404155435971916, 9.701300485059619, 99.61223531980067, -0.288000013679266, 0.09600000455975533, 0.9760000463575125, 0.0, 0.0, 0.0, 0.0, 0.0, 1.6480859457858596E9, 0.0, 2022-03-23 20:39:05.785
98.0, 13.205586743541062, 15.034397821873426, 4.297145049087703, 94.29783748276532, -0.288000013679266, 0.09600000455975533, 0.9760000463575125, 0.0, 0.0, 0.0, 0.0, 0.0, 1.64808594581333E9, 0.0, 2022-03-23 20:39:05.813
98.0, 27.37232777569443, 21.975652139633894, 6.9001154182478786, 103.02676397934556, -0.288000013679266, 0.09600000455975533, 0.9760000463575125, 0.0, 0.0, 0.0, 0.0, 0.0, 1.64808594581333E9, 0.0, 2022-03-23 20:39:05.813
99.0, 13.860069235786796, 8.612989597953856, 20.737745254300535, 99.20084632467479, -0.288000013679266, 0.09600000455975533, 0.9760000463575125, 0.0, 0.0, 0.0, 0.0, 0.0, 1.648085945814148E9, 0.0, 2022-03-23 20:39:05.814
99.0, 24.316829511895776, 23.172420125454664, 43.74934968166053, 107.33138882834464, -0.288000013679266, 0.09600000455975533, 0.9760000463575125, 0.0, 0.0, 0.0, 0.0, 0.0, 1.648085945814148E9, 0.0, 2022-03-23 20:39:05.814
100.0, 24.462685610167682, 35.188718683086336, 34.003170397132635, 109.85208139847964, -0.288000013679266, 0.09600000455975533, 0.9760000463575125, 0.0, 0.0, 0.0, 0.0, 0.0, 1.6480859458285823E9, 0.0, 2022-03-23 20:39:05.828
100.0, 13.538437839597464, 11.29075796622783, 3.9642939530313015, 91.94170051068068, -0.288000013679266, 0.09600000455975533, 0.9760000463575125, 0.0, 0.0, 0.0, 0.0, 0.0, 1.6480859458285823E9, 0.0, 2022-03-23 20:39:05.828
0.0, 898.1949428082444, 556.2932888590731, 1640.1705245673656, 991.3371512047015, -0.288000013679266, 0.09600000455975533, 0.9760000463575125, 0.0, 0.0, 0.0, 0.0, 0.0, 1.64808594582931E9, 0.0, 2022-03-23 20:39:05.829
1.0, 911.2397138536908, 571.1967901824974, 1663.2307476941496, 1007.6356352115981, -0.288000013679266, 0.09600000455975533, 0.9760000463575125, 0.0, 0.0, 0.0, 0.0, 0.0, 1.6480859458300862E9, 0.0, 2022-03-23 20:39:05.830
1.0, 910.0354660679586, 543.7421846077777, 1641.771201748401, 1002.4184747734107, -0.288000013679266, 0.09600000455975533, 0.9760000463575125, 0.0, 0.0, 0.0, 0.0, 0.0, 1.6480859458300862E9, 0.0, 2022-03-23 20:39:05.830
2.0, 915.2563664061017, 554.9693642747588, 1647.2426753835753, 1009.9880322837271, -0.288000013679266, 0.09600000455975533, 0.9760000463575125, 0.0, 0.0, 0.0, 0.0, 0.0, 1.6480859458422084E9, 0.0, 2022-03-23 20:39:05.842
2.0, 907.3726572995074, 577.2853473103605, 1653.263914312236, 1010.1114489822648, -0.288000013679266, 0.09600000455975533, 0.9760000463575125, 0.0, 0.0, 0.0, 0.0, 0.0, 1.6480859458422084E9, 0.0, 2022-03-23 20:39:05.842
3.0, 926.4910258729942, 576.133458124008, 1667.857003939338, 1023.5825686226599, -0.288000013679266, 0.09600000455975533, 0.9760000463575125, 0.0, 0.0, 0.0, 0.0, 0.0, 1.6480859458579173E9, 0.0, 2022-03-23 20:39:05.857
3.0, 924.0301717021503, 567.3035543286242, 1650.1298781493679, 1016.8731881021522, -0.288000013679266, 0.09600000455975533, 0.9760000463575125, 0.0, 0.0, 0.0, 0.0, 0.0, 1.6480859458579173E9, 0.0, 2022-03-23 20:39:05.857
4.0, 918.7082940652035, 565.3064477522857, 1651.5211209328845, 1018.178413186688, -0.288000013679266, 0.09600000455975533, 0.9760000463575125, 0.0, 0.0, 0.0, 0.0, 0.0, 1.6480859458586092E9, 0.0, 2022-03-23 20:39:05.858
4.0, 907.3576976996846, 557.946324639488, 1637.0851071039215, 1005.1486017410643, -0.288000013679266, 0.09600000455975533, 0.9760000463575125, 0.0, 0.0, 0.0, 0.0, 0.0, 1.6480859458586092E9, 0.0, 2022-03-23 20:39:05.858
5.0, 913.7529266239144, 566.6303723366, 1635.4245915235952, 1008.8922415967099, -0.288000013679266, 0.09600000455975533, 0.9760000463575125, 0.0, 0.0, 0.0, 0.0, 0.0, 1.6480859458722806E9, 0.0, 2022-03-23 20:39:05.872
5.0, 917.3282709815539, 564.120899466332, 1653.1853764131665, 1005.3131573391147, -0.288000013679266, 0.09600000455975533, 0.9760000463575125, 0.0, 0.0, 0.0, 0.0, 0.0, 1.6480859458722806E9, 0.0, 2022-03-23 20:39:05.872
6.0, 904.8257854296826, 560.1042469139211, 1645.1071925088763, 1001.8799291797914, -0.288000013679266, 0.09600000455975533, 0.9760000463575125, 0.0, 0.0, 0.0, 0.0, 0.0, 1.6480859458879051E9, 0.0, 2022-03-23 20:39:05.887
6.0, 913.9062625220977, 544.6584600969218, 1644.3928716173396, 1007.878728708718, -0.288000013679266, 0.09600000455975533, 0.9760000463575125, 0.0, 0.0, 0.0, 0.0, 0.0, 1.6480859458879051E9, 0.0, 2022-03-23 20:39:05.887
7.0, 898.8419455005787, 542.5865555214696, 1638.8129408834502, 996.7039076411165, -0.288000013679266, 0.09600000455975533, 0.9760000463575125, 0.0, 0.0, 0.0, 0.0, 0.0, 1.6480859458886597E9, 0.0, 2022-03-23 20:39:05.888
7.0, 899.7021224903874, 541.6590603324585, 1631.8903860654682, 995.226647158619, -0.288000013679266, 0.09600000455975533, 0.9760000463575125, 0.0, 0.0, 0.0, 0.0, 0.0, 1.6480859458886597E9, 0.0, 2022-03-23 20:39:05.888
8.0, 887.2557354378514, 535.4321269062348, 1622.836088272743, 990.4545348151587, -0.288000013679266, 0.09600000455975533, 0.9760000463575125, 0.0, 0.0, 0.0, 0.0, 0.0, 1.648085945902192E9, 0.0, 2022-03-23 20:39:05.902
8.0, 898.2211221079342, 540.8886409415863, 1621.3737873900682, 1000.8776359916665, -0.288000013679266, 0.09600000455975533, 0.9760000463575125, 0.0, 0.0, 0.0, 0.0, 0.0, 1.648085945902192E9, 0.0, 2022-03-23 20:39:05.902
9.0, 902.5556661565788, 547.6429002615623, 1620.2929563028738, 993.4988133790903, -0.288000013679266, 0.09600000455975533, 0.9760000463575125, 0.0, 0.0, 0.0, 0.0, 0.0, 1.6480859459178903E9, 0.0, 2022-03-23 20:39:05.917
9.0, 899.2720339954831, 554.4943969803862, 1630.360766983591, 998.8057314162143, -0.288000013679266, 0.09600000455975533, 0.9760000463575125, 0.0, 0.0, 0.0, 0.0, 0.0, 1.6480859459178903E9, 0.0, 2022-03-23 20:39:05.917
10.0, 901.8974437643774, 547.3399683651514, 1615.659220257774, 1005.477712937165, -0.288000013679266, 0.09600000455975533, 0.9760000463575125, 0.0, 0.0, 0.0, 0.0, 0.0, 1.6480859459186275E9, 0.0, 2022-03-23 20:39:05.918
10.0, 894.4737423523329, 552.9086793991737, 1618.1462537283078, 995.709094252903, -0.288000013679266, 0.09600000455975533, 0.9760000463575125, 0.0, 0.0, 0.0, 0.0, 0.0, 1.6480859459186275E9, 0.0, 2022-03-23 20:39:05.918
11.0, 892.386878177058, 539.7479714551009, 1639.4749031756073, 994.1196367717348, -0.288000013679266, 0.09600000455975533, 0.9760000463575125, 0.0, 0.0, 0.0, 0.0, 0.0, 1.6480859459322252E9, 0.0, 2022-03-23 20:39:05.932
11.0, 910.8881632578559, 544.6547201969661, 1639.29912787769, 1000.5784439952113, -0.288000013679266, 0.09600000455975533, 0.9760000463575125, 0.0, 0.0, 0.0, 0.0, 0.0, 1.6480859459322252E9, 0.0, 2022-03-23 20:39:05.932
12.0, 903.1166511499323, 534.9309803121723, 1642.481782739982, 1002.3922954737209, -0.288000013679266, 0.09600000455975533, 0.9760000463575125, 0.0, 0.0, 0.0, 0.0, 0.0, 1.6480859459479005E9, 0.0, 2022-03-23 20:39:05.947
12.0, 891.9119108826853, 545.4849779871292, 1645.8850916996598, 999.2956583104096, -0.288000013679266, 0.09600000455975533, 0.9760000463575125, 0.0, 0.0, 0.0, 0.0, 0.0, 1.6480859459479005E9, 0.0, 2022-03-23 20:39:05.947
13.0, 908.8199985823594, 560.6876713070087, 1637.3730794005096, 1007.5271781128831, -0.288000013679266, 0.09600000455975533, 0.9760000463575125, 0.0, 0.0, 0.0, 0.0, 0.0, 1.6480859459486513E9, 0.0, 2022-03-23 20:39:05.948
13.0, 898.2585211074911, 559.935951415915, 1634.5008362345397, 1000.3241307982244, -0.288000013679266, 0.09600000455975533, 0.9760000463575125, 0.0, 0.0, 0.0, 0.0, 0.0, 1.6480859459486513E9, 0.0, 2022-03-23 20:39:05.948
14.0, 896.8934576236643, 546.1357205794193, 1625.2371040442958, 991.2997522051446, -0.288000013679266, 0.09600000455975533, 0.9760000463575125, 0.0, 0.0, 0.0, 0.0, 0.0, 1.6480859459622903E9, 0.0, 2022-03-23 20:39:05.962
14.0, 898.0004680105485, 529.833496672567, 1635.2488162256777, 994.9199753622524, -0.288000013679266, 0.09600000455975533, 0.9760000463575125, 0.0, 0.0, 0.0, 0.0, 0.0, 1.6480859459622903E9, 0.0, 2022-03-23 20:39:05.962
15.0, 904.7098485310562, 540.1631003501825, 1613.6621136814356, 996.5730111426674, -0.288000013679266, 0.09600000455975533, 0.9760000463575125, 0.0, 0.0, 0.0, 0.0, 0.0, 1.6480859459779036E9, 0.0, 2022-03-23 20:39:05.977
15.0, 891.2275091907941, 541.483285034541, 1614.0211440771818, 988.0684786434285, -0.288000013679266, 0.09600000455975533, 0.9760000463575125, 0.0, 0.0, 0.0, 0.0, 0.0, 1.6480859459779036E9, 0.0, 2022-03-23 20:39:05.977
16.0, 891.1414914918132, 541.2476713373326, 1625.091247946024, 991.35585070448, -0.288000013679266, 0.09600000455975533, 0.9760000463575125, 0.0, 0.0, 0.0, 0.0, 0.0, 1.6480859459786413E9, 0.0, 2022-03-23 20:39:05.978
16.0, 911.1873552543111, 537.8630618774332, 1633.8089547427371, 1008.6154889999889, -0.288000013679266, 0.09600000455975533, 0.9760000463575125, 0.0, 0.0, 0.0, 0.0, 0.0, 1.6480859459786413E9, 0.0, 2022-03-23 20:39:05.978
17.0, 891.313526889775, 531.1761207566597, 1605.3146569803357, 983.7788133942522, -0.288000013679266, 0.09600000455975533, 0.9760000463575125, 0.0, 0.0, 0.0, 0.0, 0.0, 1.6480859459922752E9, 0.0, 2022-03-23 20:39:05.992
17.0, 882.7080170917325, 533.5135582289658, 1608.8226831387728, 978.9767818511464, -0.288000013679266, 0.09600000455975533, 0.9760000463575125, 0.0, 0.0, 0.0, 0.0, 0.0, 1.6480859459922752E9, 0.0, 2022-03-23 20:39:05.992
18.0, 893.8603987595998, 543.1138814152218, 1602.7977043101564, 988.4050696394406, -0.288000013679266, 0.09600000455975533, 0.9760000463575125, 0.0, 0.0, 0.0, 0.0, 0.0, 1.648085946007944E9, 0.0, 2022-03-23 20:39:06.007
18.0, 896.5082479282282, 547.3025693655945, 1609.9857920249924, 989.8224917226471, -0.288000013679266, 0.09600000455975533, 0.9760000463575125, 0.0, 0.0, 0.0, 0.0, 0.0, 1.648085946007944E9, 0.0, 2022-03-23 20:39:06.007
19.0, 883.9010451775976, 539.0560899632983, 1600.0002591433004, 986.5538191613741, -0.288000013679266, 0.09600000455975533, 0.9760000463575125, 0.0, 0.0, 0.0, 0.0, 0.0, 1.6480859460086243E9, 0.0, 2022-03-23 20:39:06.008
19.0, 889.6156123098917, 564.640745560173, 1606.806877062656, 994.3328110692091, -0.288000013679266, 0.09600000455975533, 0.9760000463575125, 0.0, 0.0, 0.0, 0.0, 0.0, 1.6480859460086243E9, 0.0, 2022-03-23 20:39:06.008
20.0, 906.6919955075718, 559.984570115339, 1597.9620136674494, 996.4234151444398, -0.288000013679266, 0.09600000455975533, 0.9760000463575125, 0.0, 0.0, 0.0, 0.0, 0.0, 1.648085946022246E9, 0.0, 2022-03-23 20:39:06.022
20.0, 898.8344657006674, 553.6678790901788, 1598.2574657639489, 995.9185286504216, -0.288000013679266, 0.09600000455975533, 0.9760000463575125, 0.0, 0.0, 0.0, 0.0, 0.0, 1.648085946022246E9, 0.0, 2022-03-23 20:39:06.022
21.0, 891.0816530925222, 542.2237852257676, 1598.5379582606256, 985.349571375642, -0.288000013679266, 0.09600000455975533, 0.9760000463575125, 0.0, 0.0, 0.0, 0.0, 0.0, 1.6480859460540166E9, 0.0, 2022-03-23 20:39:06.054
21.0, 889.237882414367, 525.0838237288408, 1579.1914557898417, 980.308186235372, -0.288000013679266, 0.09600000455975533, 0.9760000463575125, 0.0, 0.0, 0.0, 0.0, 0.0, 1.6480859460540166E9, 0.0, 2022-03-23 20:39:06.054
22.0, 898.2585211074911, 541.5880022333004, 1591.7649994408712, 983.4085632986389, -0.288000013679266, 0.09600000455975533, 0.9760000463575125, 0.0, 0.0, 0.0, 0.0, 0.0, 1.648085946054708E9, 0.0, 2022-03-23 20:39:06.054
22.0, 889.1705642151646, 546.139460479375, 1592.2998051345348, 989.7701331232674, -0.288000013679266, 0.09600000455975533, 0.9760000463575125, 0.0, 0.0, 0.0, 0.0, 0.0, 1.648085946054708E9, 0.0, 2022-03-23 20:39:06.054
23.0, 899.6909027905203, 540.4548125467263, 1593.2572195231915, 992.8368510869332, -0.288000013679266, 0.09600000455975533, 0.9760000463575125, 0.0, 0.0, 0.0, 0.0, 0.0, 1.6480859460685787E9, 0.0, 2022-03-23 20:39:06.068
23.0, 891.2836076901294, 543.2260784138925, 1587.9540413860232, 988.8912566336803, -0.288000013679266, 0.09600000455975533, 0.9760000463575125, 0.0, 0.0, 0.0, 0.0, 0.0, 1.6480859460685787E9, 0.0, 2022-03-23 20:39:06.068
24.0, 896.1679170322604, 552.2803762066178, 1599.315857451409, 985.7759199705906, -0.288000013679266, 0.09600000455975533, 0.9760000463575125, 0.0, 0.0, 0.0, 0.0, 0.0, 1.6480859460694425E9, 0.0, 2022-03-23 20:39:06.069
24.0, 895.0197677458636, 547.5307032628916, 1607.0312710599974, 996.6852081413381, -0.288000013679266, 0.09600000455975533, 0.9760000463575125, 0.0, 0.0, 0.0, 0.0, 0.0, 1.6480859460694425E9, 0.0, 2022-03-23 20:39:06.069
25.0, 904.3246388356201, 555.7323038657196, 1614.6419674698263, 1005.9526802315377, -0.288000013679266, 0.09600000455975533, 0.9760000463575125, 0.0, 0.0, 0.0, 0.0, 0.0, 1.6480859460699942E9, 0.0, 2022-03-23 20:39:06.069
25.0, 906.0786519148387, 566.3536197398789, 1630.2261305851862, 1006.8539961208589, -0.288000013679266, 0.09600000455975533, 0.9760000463575125, 0.0, 0.0, 0.0, 0.0, 0.0, 1.6480859460699942E9, 0.0, 2022-03-23 20:39:06.069
26.0, 908.9396753809415, 577.4050241089426, 1624.5302629526705, 1013.619475140702, -0.288000013679266, 0.09600000455975533, 0.9760000463575125, 0.0, 0.0, 0.0, 0.0, 0.0, 1.6480859460822978E9, 0.0, 2022-03-23 20:39:06.082
26.0, 918.0351120731793, 571.5670402781107, 1624.3769270544872, 1017.056443199981, -0.288000013679266, 0.09600000455975533, 0.9760000463575125, 0.0, 0.0, 0.0, 0.0, 0.0, 1.6480859460822978E9, 0.0, 2022-03-23 20:39:06.082
27.0, 891.9306103824638, 555.5116497683339, 1618.8942337194458, 996.4346348443069, -0.288000013679266, 0.09600000455975533, 0.9760000463575125, 0.0, 0.0, 0.0, 0.0, 0.0, 1.648085946097937E9, 0.0, 2022-03-23 20:39:06.097
27.0, 887.2931344374083, 544.475204999093, 1607.0424907598644, 994.1607756712474, -0.288000013679266, 0.09600000455975533, 0.9760000463575125, 0.0, 0.0, 0.0, 0.0, 0.0, 1.648085946097937E9, 0.0, 2022-03-23 20:39:06.097
28.0, 898.9242232996039, 550.4777444279753, 1618.9952110182494, 1005.0962431416847, -0.288000013679266, 0.09600000455975533, 0.9760000463575125, 0.0, 0.0, 0.0, 0.0, 0.0, 1.648085946098597E9, 0.0, 2022-03-23 20:39:06.098
28.0, 908.4011297873221, 560.1379060135223, 1617.3496550377458, 1012.7405986511149, -0.288000013679266, 0.09600000455975533, 0.9760000463575125, 0.0, 0.0, 0.0, 0.0, 0.0, 1.648085946098597E9, 0.0, 2022-03-23 20:39:06.098
29.0, 897.439483017195, 550.4889641278423, 1609.8287162268534, 995.3126648575999, -0.288000013679266, 0.09600000455975533, 0.9760000463575125, 0.0, 0.0, 0.0, 0.0, 0.0, 1.648085946112281E9, 0.0, 2022-03-23 20:39:06.112
29.0, 896.1305180327035, 549.6811457374133, 1620.9586584949866, 1001.2703254870139, -0.288000013679266, 0.09600000455975533, 0.9760000463575125, 0.0, 0.0, 0.0, 0.0, 0.0, 1.648085946112281E9, 0.0, 2022-03-23 20:39:06.112
30.0, 909.4146426753141, 544.957652093377, 1626.5685084285215, 1006.0274782306515, -0.288000013679266, 0.09600000455975533, 0.9760000463575125, 0.0, 0.0, 0.0, 0.0, 0.0, 1.6480859461442635E9, 0.0, 2022-03-23 20:39:06.144
30.0, 899.2271551960148, 547.2876097657718, 1617.3272156380117, 998.8580900155939, -0.288000013679266, 0.09600000455975533, 0.9760000463575125, 0.0, 0.0, 0.0, 0.0, 0.0, 1.6480859461442635E9, 0.0, 2022-03-23 20:39:06.144
31.0, 887.5586673342623, 546.1656397790648, 1624.548962452449, 1001.449840684887, -0.288000013679266, 0.09600000455975533, 0.9760000463575125, 0.0, 0.0, 0.0, 0.0, 0.0, 1.6480859461450171E9, 0.0, 2022-03-23 20:39:06.145
31.0, 904.7771667302586, 552.4000530051999, 1627.4399051181972, 1011.4091942668892, -0.288000013679266, 0.09600000455975533, 0.9760000463575125, 0.0, 0.0, 0.0, 0.0, 0.0, 1.6480859461450171E9, 0.0, 2022-03-23 20:39:06.145
32.0, 899.8965972880833, 554.0568286855705, 1612.4092471962795, 1006.5061854249798, -0.288000013679266, 0.09600000455975533, 0.9760000463575125, 0.0, 0.0, 0.0, 0.0, 0.0, 1.6480859461458275E9, 0.0, 2022-03-23 20:39:06.145
32.0, 896.46336912876, 556.7308571538888, 1613.8191894795746, 1002.474573272746, -0.288000013679266, 0.09600000455975533, 0.9760000463575125, 0.0, 0.0, 0.0, 0.0, 0.0, 1.6480859461458275E9, 0.0, 2022-03-23 20:39:06.145
33.0, 899.3281324948184, 555.534089168068, 1624.4442452536896, 1010.290964180138, -0.288000013679266, 0.09600000455975533, 0.9760000463575125, 0.0, 0.0, 0.0, 0.0, 0.0, 1.6480859461465106E9, 0.0, 2022-03-23 20:39:06.146
33.0, 894.9748889463954, 545.716851784382, 1627.2641298202798, 1012.9163739490323, -0.288000013679266, 0.09600000455975533, 0.9760000463575125, 0.0, 0.0, 0.0, 0.0, 0.0, 1.6480859461465106E9, 0.0, 2022-03-23 20:39:06.146
34.0, 904.1264241379686, 562.3893257868476, 1635.4320713235065, 1020.7215451565571, -0.288000013679266, 0.09600000455975533, 0.9760000463575125, 0.0, 0.0, 0.0, 0.0, 0.0, 1.6480859461572244E9, 0.0, 2022-03-23 20:39:06.157
34.0, 893.9838154581375, 535.7537583024241, 1635.1889778263867, 999.1423224122263, -0.288000013679266, 0.09600000455975533, 0.9760000463575125, 0.0, 0.0, 0.0, 0.0, 0.0, 1.6480859461572244E9, 0.0, 2022-03-23 20:39:06.157
35.0, 901.5945118679665, 523.5392450471409, 1619.6122945109382, 1004.8905486441217, -0.288000013679266, 0.09600000455975533, 0.9760000463575125, 0.0, 0.0, 0.0, 0.0, 0.0, 1.6480859461721704E9, 0.0, 2022-03-23 20:39:06.172
35.0, 897.6376977148466, 538.9064939650707, 1628.7862691022456, 1008.2863778038882, -0.288000013679266, 0.09600000455975533, 0.9760000463575125, 0.0, 0.0, 0.0, 0.0, 0.0, 1.6480859461721704E9, 0.0, 2022-03-23 20:39:06.172
36.0, 882.8576130899601, 545.657013385091, 1618.445445724763, 1003.6975205582567, -0.288000013679266, 0.09600000455975533, 0.9760000463575125, 0.0, 0.0, 0.0, 0.0, 0.0, 1.6480859461879363E9, 0.0, 2022-03-23 20:39:06.187
36.0, 893.4864087640308, 538.1996528734453, 1612.1661536991596, 1001.7116336817853, -0.288000013679266, 0.09600000455975533, 0.9760000463575125, 0.0, 0.0, 0.0, 0.0, 0.0, 1.6480859461879363E9, 0.0, 2022-03-23 20:39:06.187
37.0, 885.2661086614244, 530.847009560559, 1609.6342414291576, 996.2663393463008, -0.288000013679266, 0.09600000455975533, 0.9760000463575125, 0.0, 0.0, 0.0, 0.0, 0.0, 1.648085946188626E9, 0.0, 2022-03-23 20:39:06.188
37.0, 884.7836615671404, 538.035097275395, 1620.012463806197, 992.5638383901678, -0.288000013679266, 0.09600000455975533, 0.9760000463575125, 0.0, 0.0, 0.0, 0.0, 0.0, 1.648085946188626E9, 0.0, 2022-03-23 20:39:06.188
38.0, 902.3163125594147, 531.0302646583878, 1615.285230262205, 1001.341383586172, -0.288000013679266, 0.09600000455975533, 0.9760000463575125, 0.0, 0.0, 0.0, 0.0, 0.0, 1.648085946202155E9, 0.0, 2022-03-23 20:39:06.202
38.0, 885.5727804577909, 544.1460938029923, 1600.7444992344826, 998.2110873232596, -0.288000013679266, 0.09600000455975533, 0.9760000463575125, 0.0, 0.0, 0.0, 0.0, 0.0, 1.648085946202155E9, 0.0, 2022-03-23 20:39:06.202
39.0, 874.2408835920505, 537.8144431780092, 1591.4097089450806, 987.6907487479039, -0.288000013679266, 0.09600000455975533, 0.9760000463575125, 0.0, 0.0, 0.0, 0.0, 0.0, 1.6480859462179456E9, 0.0, 2022-03-23 20:39:06.217
39.0, 878.2463164445944, 506.87051094463095, 1597.5768039720133, 984.6801292835735, -0.288000013679266, 0.09600000455975533, 0.9760000463575125, 0.0, 0.0, 0.0, 0.0, 0.0, 1.6480859462179456E9, 0.0, 2022-03-23 20:39:06.217
40.0, 893.7220224612392, 527.1856475039385, 1601.3354034274817, 992.6199368895032, -0.288000013679266, 0.09600000455975533, 0.9760000463575125, 0.0, 0.0, 0.0, 0.0, 0.0, 1.6480859462186704E9, 0.0, 2022-03-23 20:39:06.218
40.0, 884.1142194750719, 532.8777752364986, 1603.8261767979711, 994.7516798642464, -0.288000013679266, 0.09600000455975533, 0.9760000463575125, 0.0, 0.0, 0.0, 0.0, 0.0, 1.6480859462186704E9, 0.0, 2022-03-23 20:39:06.218
41.0, 877.5544349527918, 528.8050241847523, 1590.0259459614754, 986.9913874561898, -0.288000013679266, 0.09600000455975533, 0.9760000463575125, 0.0, 0.0, 0.0, 0.0, 0.0, 1.64808594623221E9, 0.0, 2022-03-23 20:39:06.232
41.0, 898.1425842088647, 525.4353743246756, 1596.6380890831351, 1000.0810373011045, -0.288000013679266, 0.09600000455975533, 0.9760000463575125, 0.0, 0.0, 0.0, 0.0, 0.0, 1.64808594623221E9, 0.0, 2022-03-23 20:39:06.232
42.0, 887.6671244329773, 532.6272019394673, 1604.4096011910588, 997.4444078323431, -0.27200001291930676, 0.09600000455975533, 0.9760000463575125, 0.0, 0.0, 0.0, 0.0, 0.0, 1.6480859462643328E9, 0.0, 2022-03-23 20:39:06.264
42.0, 875.8340809731744, 529.6091026752256, 1597.7899782694876, 992.9490480856039, -0.27200001291930676, 0.09600000455975533, 0.9760000463575125, 0.0, 0.0, 0.0, 0.0, 0.0, 1.6480859462643328E9, 0.0, 2022-03-23 20:39:06.264
43.0, 875.2394368802197, 516.7438468276523, 1579.1428370904177, 982.6531035075895, -0.27200001291930676, 0.09600000455975533, 0.9760000463575125, 0.0, 0.0, 0.0, 0.0, 0.0, 1.6480859462650044E9, 0.0, 2022-03-23 20:39:06.265
43.0, 872.1390598169528, 509.94096880825236, 1585.3660306166857, 980.4016837342642, -0.27200001291930676, 0.09600000455975533, 0.9760000463575125, 0.0, 0.0, 0.0, 0.0, 0.0, 1.6480859462650044E9, 0.0, 2022-03-23 20:39:06.265
44.0, 881.6758047039621, 519.6834081928246, 1590.5644915550947, 987.8141654464416, -0.27200001291930676, 0.09600000455975533, 0.9760000463575125, 0.0, 0.0, 0.0, 0.0, 0.0, 1.6480859462657475E9, 0.0, 2022-03-23 20:39:06.265
44.0, 875.0113029829226, 516.9944201246835, 1595.1159498011693, 984.3472781875171, -0.27200001291930676, 0.09600000455975533, 0.9760000463575125, 0.0, 0.0, 0.0, 0.0, 0.0, 1.6480859462657475E9, 0.0, 2022-03-23 20:39:06.265
45.0, 884.4882094706409, 513.213381269481, 1594.203414211981, 975.3640384939499, -0.27200001291930676, 0.09600000455975533, 0.9760000463575125, 0.0, 0.0, 0.0, 0.0, 0.0, 1.6480859462664726E9, 0.0, 2022-03-23 20:39:06.266
45.0, 872.004423418548, 505.0716190659441, 1588.6945415772498, 972.903184323106, -0.27200001291930676, 0.09600000455975533, 0.9760000463575125, 0.0, 0.0, 0.0, 0.0, 0.0, 1.6480859462664726E9, 0.0, 2022-03-23 20:39:06.266
46.0, 857.6581671885215, 500.3369057220407, 1575.6235912321135, 969.791587559972, -0.27200001291930676, 0.09600000455975533, 0.9760000463575125, 0.0, 0.0, 0.0, 0.0, 0.0, 1.6480859462772374E9, 0.0, 2022-03-23 20:39:06.277
46.0, 864.7527574044652, 484.49468950973824, 1554.0518482876942, 957.0572282108478, -0.27200001291930676, 0.09600000455975533, 0.9760000463575125, 0.0, 0.0, 0.0, 0.0, 0.0, 1.6480859462772374E9, 0.0, 2022-03-23 20:39:06.277
47.0, 873.3844465021975, 510.16910270554945, 1583.1856689425185, 977.9183901636861, -0.27200001291930676, 0.09600000455975533, 0.9760000463575125, 0.0, 0.0, 0.0, 0.0, 0.0, 1.6480859462922907E9, 0.0, 2022-03-23 20:39:06.292
47.0, 867.8381748679094, 518.6848549046554, 1593.2123407237232, 985.6973820715211, -0.27200001291930676, 0.09600000455975533, 0.9760000463575125, 0.0, 0.0, 0.0, 0.0, 0.0, 1.6480859462922907E9, 0.0, 2022-03-23 20:39:06.292
48.0, 872.9393984074704, 523.3111111498438, 1584.9135027220473, 979.2049157484435, -0.27200001291930676, 0.09600000455975533, 0.9760000463575125, 0.0, 0.0, 0.0, 0.0, 0.0, 1.6480859463082051E9, 0.0, 2022-03-23 20:39:06.308
48.0, 876.8662933609448, 527.3913420015015, 1578.6416904963553, 981.8901639166288, -0.27200001291930676, 0.09600000455975533, 0.9760000463575125, 0.0, 0.0, 0.0, 0.0, 0.0, 1.6480859463082051E9, 0.0, 2022-03-23 20:39:06.308
49.0, 875.7106642746367, 519.268279297743, 1593.9640606148168, 977.2526879715733, -0.27200001291930676, 0.09600000455975533, 0.9760000463575125, 0.0, 0.0, 0.0, 0.0, 0.0, 1.6480859463228457E9, 0.0, 2022-03-23 20:39:06.322
49.0, 877.7302102507092, 505.4530888614245, 1595.1720483005047, 978.8945040521212, -0.27200001291930676, 0.09600000455975533, 0.9760000463575125, 0.0, 0.0, 0.0, 0.0, 0.0, 1.6480859463228457E9, 0.0, 2022-03-23 20:39:06.322
50.0, 878.5305488412268, 497.34872565744445, 1593.03282552585, 978.5167741565965, -0.27200001291930676, 0.09600000455975533, 0.9760000463575125, 0.0, 0.0, 0.0, 0.0, 0.0, 1.648085946323588E9, 0.0, 2022-03-23 20:39:06.323
50.0, 870.400006337557, 497.37864485708997, 1595.0561114018783, 975.9960815864615, -0.27200001291930676, 0.09600000455975533, 0.9760000463575125, 0.0, 0.0, 0.0, 0.0, 0.0, 1.648085946323588E9, 0.0, 2022-03-23 20:39:06.323
51.0, 867.3407681738026, 497.42726355651394, 1592.2212672354653, 973.3145733182319, -0.27200001291930676, 0.09600000455975533, 0.9760000463575125, 0.0, 0.0, 0.0, 0.0, 0.0, 1.648085946337916E9, 0.0, 2022-03-23 20:39:06.337
51.0, 868.8255084562115, 495.7704878761433, 1585.2014750186354, 980.9664086275734, -0.27200001291930676, 0.09600000455975533, 0.9760000463575125, 0.0, 0.0, 0.0, 0.0, 0.0, 1.648085946337916E9, 0.0, 2022-03-23 20:39:06.337
52.0, 857.2168589937501, 483.00994922732934, 1566.2327024433762, 967.6523647853173, -0.288000013679266, 0.09600000455975533, 0.9760000463575125, 0.0, 0.0, 0.0, 0.0, 0.0, 1.648085946338647E9, 0.0, 2022-03-23 20:39:06.338
52.0, 852.7327189468779, 495.7667479761876, 1586.364583904855, 970.8237999477424, -0.288000013679266, 0.09600000455975533, 0.9760000463575125, 0.0, 0.0, 0.0, 0.0, 0.0, 1.648085946338647E9, 0.0, 2022-03-23 20:39:06.338
53.0, 876.7353968624957, 514.9935736483894, 1591.839797439985, 983.539459797088, -0.288000013679266, 0.09600000455975533, 0.9760000463575125, 0.0, 0.0, 0.0, 0.0, 0.0, 1.6480859463522468E9, 0.0, 2022-03-23 20:39:06.352
53.0, 888.8489328189753, 506.43294264981523, 1584.6330102253705, 987.073665255215, -0.288000013679266, 0.09600000455975533, 0.9760000463575125, 0.0, 0.0, 0.0, 0.0, 0.0, 1.6480859463522468E9, 0.0, 2022-03-23 20:39:06.352
54.0, 864.7340579046868, 502.8201992926188, 1593.3133180225268, 973.8157199122943, -0.288000013679266, 0.09600000455975533, 0.9760000463575125, 0.0, 0.0, 0.0, 0.0, 0.0, 1.6480859463679712E9, 0.0, 2022-03-23 20:39:06.367
54.0, 872.8945196080022, 493.5527272024192, 1595.1944877002388, 974.1336114085279, -0.288000013679266, 0.09600000455975533, 0.9760000463575125, 0.0, 0.0, 0.0, 0.0, 0.0, 1.6480859463679712E9, 0.0, 2022-03-23 20:39:06.367
55.0, 899.4515491933562, 513.9987602601759, 1605.2099397815764, 987.7805063468404, -0.288000013679266, 0.09600000455975533, 0.9760000463575125, 0.0, 0.0, 0.0, 0.0, 0.0, 1.648085946368578E9, 0.0, 2022-03-23 20:39:06.368
55.0, 878.818521137815, 516.0183062362485, 1585.3174119172618, 978.4419761574827, -0.288000013679266, 0.09600000455975533, 0.9760000463575125, 0.0, 0.0, 0.0, 0.0, 0.0, 1.648085946368578E9, 0.0, 2022-03-23 20:39:06.368
56.0, 870.7665165332146, 523.718760245014, 1574.1164115499705, 977.0245540742762, -0.288000013679266, 0.09600000455975533, 0.9760000463575125, 0.0, 0.0, 0.0, 0.0, 0.0, 1.6480859463822443E9, 0.0, 2022-03-23 20:39:06.382
56.0, 879.57772082882, 517.9181754137389, 1578.645430396311, 977.847332064528, -0.288000013679266, 0.09600000455975533, 0.9760000463575125, 0.0, 0.0, 0.0, 0.0, 0.0, 1.6480859463822443E9, 0.0, 2022-03-23 20:39:06.382
57.0, 878.7960817380808, 514.6644624522887, 1584.651709725149, 971.3735652412288, -0.288000013679266, 0.09600000455975533, 0.9760000463575125, 0.0, 0.0, 0.0, 0.0, 0.0, 1.6480859463979232E9, 0.0, 2022-03-23 20:39:06.397
57.0, 877.8872860488482, 510.4196760025807, 1592.176388435997, 972.1514644320123, -0.288000013679266, 0.09600000455975533, 0.9760000463575125, 0.0, 0.0, 0.0, 0.0, 0.0, 1.6480859463979232E9, 0.0, 2022-03-23 20:39:06.397
58.0, 880.4715569182299, 506.8144124452956, 1598.8147108573467, 974.1560508082621, -0.288000013679266, 0.09600000455975533, 0.9760000463575125, 0.0, 0.0, 0.0, 0.0, 0.0, 1.6480859463986351E9, 0.0, 2022-03-23 20:39:06.398
58.0, 885.8794522541575, 527.5409379997291, 1586.6450764015317, 980.102491737809, -0.288000013679266, 0.09600000455975533, 0.9760000463575125, 0.0, 0.0, 0.0, 0.0, 0.0, 1.6480859463986351E9, 0.0, 2022-03-23 20:39:06.398
59.0, 878.5567281409167, 529.725039573852, 1597.0569578781724, 973.6287249145098, -0.288000013679266, 0.09600000455975533, 0.9760000463575125, 0.0, 0.0, 0.0, 0.0, 0.0, 1.6480859464122272E9, 0.0, 2022-03-23 20:39:06.412
59.0, 889.1743041151203, 535.2339122085832, 1622.473317977041, 988.1507564424537, -0.288000013679266, 0.09600000455975533, 0.9760000463575125, 0.0, 0.0, 0.0, 0.0, 0.0, 1.6480859464122272E9, 0.0, 2022-03-23 20:39:06.412
60.0, 885.0155353643931, 523.5654243468307, 1614.1333410758525, 984.9194828807376, -0.288000013679266, 0.09600000455975533, 0.9760000463575125, 0.0, 0.0, 0.0, 0.0, 0.0, 1.648085946427988E9, 0.0, 2022-03-23 20:39:06.427
60.0, 880.3406604197808, 517.6676021167077, 1616.1117481524125, 977.3948041698895, -0.288000013679266, 0.09600000455975533, 0.9760000463575125, 0.0, 0.0, 0.0, 0.0, 0.0, 1.648085946427988E9, 0.0, 2022-03-23 20:39:06.427
61.0, 896.7176823257469, 538.6634004679509, 1627.585761216469, 989.8935498218052, -0.288000013679266, 0.0800000037997961, 0.9760000463575125, 0.0, 0.0, 0.0, 0.0, 0.0, 1.6480859464285977E9, 0.0, 2022-03-23 20:39:06.428
61.0, 906.76305360673, 542.7174520199187, 1633.4200051473454, 996.7001677411608, -0.288000013679266, 0.0800000037997961, 0.9760000463575125, 0.0, 0.0, 0.0, 0.0, 0.0, 1.6480859464285977E9, 0.0, 2022-03-23 20:39:06.428
62.0, 903.2737269480713, 540.5744893453084, 1630.6188200805336, 992.3544039926492, -0.27200001291930676, 0.0800000037997961, 0.9760000463575125, 0.0, 0.0, 0.0, 0.0, 0.0, 1.6480859464422345E9, 0.0, 2022-03-23 20:39:06.442
62.0, 892.1475245798938, 535.5480638048612, 1617.3646146375686, 977.9183901636861, -0.27200001291930676, 0.0800000037997961, 0.9760000463575125, 0.0, 0.0, 0.0, 0.0, 0.0, 1.6480859464422345E9, 0.0, 2022-03-23 20:39:06.442
63.0, 892.9964818698354, 536.7298721908592, 1620.554749299772, 980.7943732296117, -0.27200001291930676, 0.0800000037997961, 0.9760000463575125, 0.0, 0.0, 0.0, 0.0, 0.0, 1.6480859464578884E9, 0.0, 2022-03-23 20:39:06.457
63.0, 896.8635384240188, 544.8903338941745, 1621.9085930837318, 978.4307564576156, -0.27200001291930676, 0.0800000037997961, 0.9760000463575125, 0.0, 0.0, 0.0, 0.0, 0.0, 1.6480859464578884E9, 0.0, 2022-03-23 20:39:06.457
64.0, 882.098413398955, 553.6940583898686, 1625.4353187419474, 968.2881477777846, -0.27200001291930676, 0.0800000037997961, 0.9760000463575125, 0.0, 0.0, 0.0, 0.0, 0.0, 1.6480859464586265E9, 0.0, 2022-03-23 20:39:06.458
64.0, 887.1659778389148, 586.6463168994524, 1673.1489623766392, 981.1197445257567, -0.27200001291930676, 0.0800000037997961, 0.9760000463575125, 0.0, 0.0, 0.0, 0.0, 0.0, 1.6480859464586265E9, 0.0, 2022-03-23 20:39:06.458
65.0, 915.7201140006073, 611.6625077030621, 1703.157919621095, 998.7309334171005, -0.27200001291930676, 0.0800000037997961, 0.9760000463575125, 0.0, 0.0, 0.0, 0.0, 0.0, 1.648085946472199E9, 0.0, 2022-03-23 20:39:06.472
65.0, 912.6870551365428, 622.6727731726132, 1713.711917296052, 1000.1782746999525, -0.27200001291930676, 0.0800000037997961, 0.9760000463575125, 0.0, 0.0, 0.0, 0.0, 0.0, 1.648085946472199E9, 0.0, 2022-03-23 20:39:06.472
66.0, 917.6312028779648, 639.3489870750345, 1731.0762727903202, 1009.3410295913927, -0.27200001291930676, 0.0800000037997961, 0.9760000463575125, 0.0, 0.0, 0.0, 0.0, 0.0, 1.6480859464879198E9, 0.0, 2022-03-23 20:39:06.487
66.0, 944.1919723632745, 648.5828000656329, 1771.3101165136322, 1027.4234458771534, -0.27200001291930676, 0.0800000037997961, 0.9760000463575125, 0.0, 0.0, 0.0, 0.0, 0.0, 1.6480859464879198E9, 0.0, 2022-03-23 20:39:06.487
67.0, 955.6697253272869, 669.5860782167874, 1800.3803588692099, 1046.9943423452787, -0.27200001291930676, 0.0800000037997961, 0.9760000463575125, 0.0, 0.0, 0.0, 0.0, 0.0, 1.6480859464885936E9, 0.0, 2022-03-23 20:39:06.488
67.0, 961.1860777619295, 689.2205529841594, 1799.9764496739954, 1056.2244154359214, -0.27200001291930676, 0.0800000037997961, 0.9760000463575125, 0.0, 0.0, 0.0, 0.0, 0.0, 1.6480859464885936E9, 0.0, 2022-03-23 20:39:06.488
68.0, 975.8764047878794, 691.023184762802, 1822.0455993125215, 1067.9078628974967, -0.27200001291930676, 0.0800000037997961, 0.9760000463575125, 0.0, 0.0, 0.0, 0.0, 0.0, 1.648085946502217E9, 0.0, 2022-03-23 20:39:06.502
68.0, 965.9282709057443, 667.4468554421328, 1840.2850913964212, 1074.6471626176499, -0.27200001291930676, 0.0800000037997961, 0.9760000463575125, 0.0, 0.0, 0.0, 0.0, 0.0, 1.648085946502217E9, 0.0, 2022-03-23 20:39:06.502
69.0, 992.5713181900792, 673.1165437749587, 1817.1089313710108, 1085.391895190347, -0.27200001291930676, 0.0800000037997961, 0.9760000463575125, 0.0, 0.0, 0.0, 0.0, 0.0, 1.6480859465178823E9, 0.0, 2022-03-23 20:39:06.517
69.0, 1005.3281169389375, 698.4094871752895, 1816.0168805839494, 1091.1363815222867, -0.27200001291930676, 0.0800000037997961, 0.9760000463575125, 0.0, 0.0, 0.0, 0.0, 0.0, 1.6480859465178823E9, 0.0, 2022-03-23 20:39:06.517
70.0, 1012.063676759135, 699.5950354612432, 1833.8562033725902, 1100.1981591149233, -0.27200001291930676, 0.0800000037997961, 0.9760000463575125, 0.0, 0.0, 0.0, 0.0, 0.0, 1.648085946518607E9, 0.0, 2022-03-23 20:39:06.518
70.0, 994.3552504689433, 691.6028692559339, 1833.643029075116, 1087.478759365622, -0.27200001291930676, 0.0800000037997961, 0.9760000463575125, 0.0, 0.0, 0.0, 0.0, 0.0, 1.648085946518607E9, 0.0, 2022-03-23 20:39:06.518
71.0, 994.2804524698295, 687.1972671081312, 1822.4831676073372, 1091.1737805218436, -0.27200001291930676, 0.04800000227987766, 0.9760000463575125, 0.0, 0.0, 0.0, 0.0, 0.0, 1.648085946532234E9, 0.0, 2022-03-23 20:39:06.532
71.0, 990.5031535145827, 685.3946353294887, 1802.3587659457698, 1083.5256851124577, -0.27200001291930676, 0.04800000227987766, 0.9760000463575125, 0.0, 0.0, 0.0, 0.0, 0.0, 1.648085946532234E9, 0.0, 2022-03-23 20:39:06.532
72.0, 974.8965509994887, 670.9212225009687, 1824.6298701819032, 1066.0902715190314, -0.3040000144392252, 0.04800000227987766, 0.9760000463575125, 0.0, 0.0, 0.0, 0.0, 0.0, 1.6480859465479429E9, 0.0, 2022-03-23 20:39:06.547
72.0, 959.2488095848821, 687.8442698004656, 1826.9299086546525, 1049.765608212445, -0.3040000144392252, 0.04800000227987766, 0.9760000463575125, 0.0, 0.0, 0.0, 0.0, 0.0, 1.6480859465479429E9, 0.0, 2022-03-23 20:39:06.547
73.0, 960.9355044648983, 687.705893502105, 1807.2430752879009, 1040.9506640168838, -0.3040000144392252, 0.04800000227987766, 0.9760000463575125, 0.0, 0.0, 0.0, 0.0, 0.0, 1.6480859465485878E9, 0.0, 2022-03-23 20:39:06.548
73.0, 953.1565125570633, 661.8332656086423, 1786.931678628549, 1037.3715797592886, -0.3040000144392252, 0.04800000227987766, 0.9760000463575125, 0.0, 0.0, 0.0, 0.0, 0.0, 1.6480859465485878E9, 0.0, 2022-03-23 20:39:06.548
74.0, 943.9301793663763, 655.3034002860077, 1771.9346798062325, 1028.7772896611132, -0.3040000144392252, 0.04800000227987766, 0.9760000463575125, 0.0, 0.0, 0.0, 0.0, 0.0, 1.648085946562303E9, 0.0, 2022-03-23 20:39:06.562
74.0, 941.5553428945132, 643.1150663304143, 1750.2170807635412, 1029.8917798479088, -0.3040000144392252, 0.04800000227987766, 0.9760000463575125, 0.0, 0.0, 0.0, 0.0, 0.0, 1.648085946562303E9, 0.0, 2022-03-23 20:39:06.562
75.0, 955.6136268279515, 631.0202298737131, 1727.5271077323705, 1043.033788292203, -0.3040000144392252, 0.04800000227987766, 0.9760000463575125, 0.0, 0.0, 0.0, 0.0, 0.0, 1.6480859465778847E9, 0.0, 2022-03-23 20:39:06.577
75.0, 957.453657606151, 626.6445469255559, 1718.6822443371639, 1035.5053696813993, -0.3040000144392252, 0.04800000227987766, 0.9760000463575125, 0.0, 0.0, 0.0, 0.0, 0.0, 1.6480859465778847E9, 0.0, 2022-03-23 20:39:06.577
76.0, 961.97519665258, 624.3819074523635, 1695.7229985091835, 1035.7335035786964, -0.3040000144392252, 0.04800000227987766, 0.9760000463575125, 0.0, 0.0, 0.0, 0.0, 0.0, 1.6480859465786288E9, 0.0, 2022-03-23 20:39:06.578
76.0, 980.5961585319601, 623.8994603580795, 1694.8216826198623, 1054.9079706515186, -0.3040000144392252, 0.04800000227987766, 0.9760000463575125, 0.0, 0.0, 0.0, 0.0, 0.0, 1.6480859465786288E9, 0.0, 2022-03-23 20:39:06.578
77.0, 972.6152120265178, 618.1213149265386, 1687.442860007286, 1050.7005832013674, -0.3040000144392252, 0.04800000227987766, 0.9760000463575125, 0.0, 0.0, 0.0, 0.0, 0.0, 1.6480859465922594E9, 0.0, 2022-03-23 20:39:06.592
77.0, 957.1769050094299, 601.2506262264214, 1664.999720373191, 1037.6595520558767, -0.3040000144392252, 0.04800000227987766, 0.9760000463575125, 0.0, 0.0, 0.0, 0.0, 0.0, 1.6480859465922594E9, 0.0, 2022-03-23 20:39:06.592
78.0, 961.1299792625941, 591.3398913438432, 1662.393010104075, 1035.2286170846783, -0.3040000144392252, 0.04800000227987766, 0.9760000463575125, 0.0, 0.0, 0.0, 0.0, 0.0, 1.6480859466079066E9, 0.0, 2022-03-23 20:39:06.607
78.0, 955.6996445269324, 604.2425461909734, 1659.318812340498, 1035.5951272803359, -0.3040000144392252, 0.04800000227987766, 0.9760000463575125, 0.0, 0.0, 0.0, 0.0, 0.0, 1.6480859466079066E9, 0.0, 2022-03-23 20:39:06.607
79.0, 956.5860008164309, 595.7828924912028, 1659.7563806353137, 1029.285916055087, -0.3040000144392252, 0.04800000227987766, 0.9760000463575125, 0.0, 0.0, 0.0, 0.0, 0.0, 1.6480859466086583E9, 0.0, 2022-03-23 20:39:06.608
79.0, 950.1496329926886, 588.6658628755249, 1644.2582352189347, 1026.0583823933266, -0.3040000144392252, 0.04800000227987766, 0.9760000463575125, 0.0, 0.0, 0.0, 0.0, 0.0, 1.6480859466086583E9, 0.0, 2022-03-23 20:39:06.608
80.0, 957.0123494113795, 603.8311571958475, 1645.0922329090536, 1022.8682477311231, -0.3040000144392252, 0.04800000227987766, 0.9920000471174717, 0.0, 0.0, 0.0, 0.0, 0.0, 1.6480859466222277E9, 0.0, 2022-03-23 20:39:06.622
80.0, 940.9532190016471, 604.777351884637, 1637.9789431933314, 1017.9652388892137, -0.3040000144392252, 0.04800000227987766, 0.9920000471174717, 0.0, 0.0, 0.0, 0.0, 0.0, 1.6480859466222277E9, 0.0, 2022-03-23 20:39:06.622
81.0, 922.489332920406, 578.0557667012326, 1628.9321252005175, 997.2574128345586, -0.3040000144392252, 0.03200000151991844, 0.9920000471174717, 0.0, 0.0, 0.0, 0.0, 0.0, 1.6480859466385872E9, 0.0, 2022-03-23 20:39:06.638
81.0, 931.3005372160114, 566.8136274344288, 1633.6481390446424, 996.3336575455032, -0.3040000144392252, 0.03200000151991844, 0.9920000471174717, 0.0, 0.0, 0.0, 0.0, 0.0, 1.6480859466385872E9, 0.0, 2022-03-23 20:39:06.638
82.0, 916.3895560926758, 579.3235927862115, 1631.579974369146, 998.6075167185627, -0.3200000151991844, 0.03200000151991844, 0.9920000471174717, 0.0, 0.0, 0.0, 0.0, 0.0, 1.6480859466393147E9, 0.0, 2022-03-23 20:39:06.639
82.0, 930.702153223101, 589.1557897697203, 1637.3356804009527, 1006.2593520279042, -0.3200000151991844, 0.03200000151991844, 0.9920000471174717, 0.0, 0.0, 0.0, 0.0, 0.0, 1.6480859466393147E9, 0.0, 2022-03-23 20:39:06.639
83.0, 948.7658700090833, 601.5946970223449, 1647.0070616863668, 1013.9523262367584, -0.3200000151991844, 0.03200000151991844, 0.9920000471174717, 0.0, 0.0, 0.0, 0.0, 0.0, 1.6480859466685996E9, 0.0, 2022-03-23 20:39:06.668
83.0, 955.9651774237864, 600.2969517377205, 1659.4609285388142, 1022.2436844385229, -0.3200000151991844, 0.03200000151991844, 0.9920000471174717, 0.0, 0.0, 0.0, 0.0, 0.0, 1.6480859466685996E9, 0.0, 2022-03-23 20:39:06.668
84.0, 952.412272465881, 592.1103107347153, 1634.8673464301974, 1019.8987671663053, -0.3200000151991844, 0.03200000151991844, 0.9920000471174717, 0.0, 0.0, 0.0, 0.0, 0.0, 1.6480859466693795E9, 0.0, 2022-03-23 20:39:06.669
84.0, 943.78806316806, 568.9752896088175, 1621.4074464896694, 1010.8145501739345, -0.3200000151991844, 0.03200000151991844, 0.9920000471174717, 0.0, 0.0, 0.0, 0.0, 0.0, 1.6480859466693795E9, 0.0, 2022-03-23 20:39:06.669
85.0, 955.6585056274198, 564.8838390572928, 1615.2590509625152, 1020.1007217639126, -0.3200000151991844, 0.03200000151991844, 0.9920000471174717, 0.0, 0.0, 0.0, 0.0, 0.0, 1.64808594667018E9, 0.0, 2022-03-23 20:39:06.670
85.0, 957.464877306018, 584.8287255209871, 1636.2024907143787, 1022.845808331389, -0.3200000151991844, 0.03200000151991844, 0.9920000471174717, 0.0, 0.0, 0.0, 0.0, 0.0, 1.64808594667018E9, 0.0, 2022-03-23 20:39:06.670
86.0, 931.5436307131313, 564.1395989661105, 1620.375234101899, 1000.6495020943694, -0.3200000151991844, 0.03200000151991844, 0.9920000471174717, 0.0, 0.0, 0.0, 0.0, 0.0, 1.6480859466993132E9, 0.0, 2022-03-23 20:39:06.699
86.0, 946.7837230325677, 567.0118421320803, 1612.3120097974315, 1003.7984978570603, -0.3200000151991844, 0.03200000151991844, 0.9920000471174717, 0.0, 0.0, 0.0, 0.0, 0.0, 1.6480859466993132E9, 0.0, 2022-03-23 20:39:06.699
87.0, 926.9959123670124, 584.4509956254624, 1628.842367601581, 995.0022531612776, -0.3200000151991844, 0.03200000151991844, 0.9920000471174717, 0.0, 0.0, 0.0, 0.0, 0.0, 1.6480859467000008E9, 0.0, 2022-03-23 20:39:06.700
87.0, 916.0791443963535, 566.3124808403663, 1625.3119020434096, 981.1683632251807, -0.3200000151991844, 0.03200000151991844, 0.9920000471174717, 0.0, 0.0, 0.0, 0.0, 0.0, 1.6480859467000008E9, 0.0, 2022-03-23 20:39:06.700
88.0, 908.0495791914873, 537.0664631868713, 1613.2021059868857, 970.6293251500465, -0.3200000151991844, 0.03200000151991844, 0.9920000471174717, 0.0, 0.0, 0.0, 0.0, 0.0, 1.648085946700807E9, 0.0, 2022-03-23 20:39:06.700
88.0, 908.6217838847078, 565.4635235504247, 1614.0697627766058, 974.6534575023688, -0.3200000151991844, 0.03200000151991844, 0.9920000471174717, 0.0, 0.0, 0.0, 0.0, 0.0, 1.648085946700807E9, 0.0, 2022-03-23 20:39:06.700
89.0, 927.8934883563779, 580.0042545781471, 1631.8342875661328, 991.0491789081134, -0.3200000151991844, 0.03200000151991844, 0.9920000471174717, 0.0, 0.0, 0.0, 0.0, 0.0, 1.6480859467122512E9, 0.0, 2022-03-23 20:39:06.712
89.0, 919.4936730558984, 574.1064323480241, 1621.5271232882515, 982.8924571047537, -0.3200000151991844, 0.03200000151991844, 0.9920000471174717, 0.0, 0.0, 0.0, 0.0, 0.0, 1.6480859467122512E9, 0.0, 2022-03-23 20:39:06.712
90.0, 917.27965228213, 558.2903954354115, 1614.4736719718203, 978.221322060097, -0.3200000151991844, 0.03200000151991844, 1.008000047877431, 0.0, 0.0, 0.0, 0.0, 0.0, 1.648085946727948E9, 0.0, 2022-03-23 20:39:06.727
90.0, 908.2590135890059, 564.9399375566281, 1608.1121021471918, 967.0801600920968, -0.3200000151991844, 0.03200000151991844, 1.008000047877431, 0.0, 0.0, 0.0, 0.0, 0.0, 1.648085946727948E9, 0.0, 2022-03-23 20:39:06.727
91.0, 902.578105556313, 569.9850625968538, 1621.5794818876311, 958.0894405986182, -0.3200000151991844, 0.04800000227987766, 1.008000047877431, 0.0, 0.0, 0.0, 0.0, 0.0, 1.6480859467286243E9, 0.0, 2022-03-23 20:39:06.728
91.0, 896.3960509295575, 556.8505339524709, 1612.1511940993369, 952.2402370679192, -0.3200000151991844, 0.04800000227987766, 1.008000047877431, 0.0, 0.0, 0.0, 0.0, 0.0, 1.6480859467286243E9, 0.0, 2022-03-23 20:39:06.728
92.0, 882.9286711891182, 564.7080637593754, 1605.804583874531, 942.7109719808213, -0.3200000151991844, 0.04800000227987766, 1.008000047877431, 0.0, 0.0, 0.0, 0.0, 0.0, 1.6480859467422323E9, 0.0, 2022-03-23 20:39:06.742
92.0, 871.1143272290938, 549.7896028361283, 1609.5033449307084, 936.0352505599149, -0.3200000151991844, 0.04800000227987766, 1.008000047877431, 0.0, 0.0, 0.0, 0.0, 0.0, 1.6480859467422323E9, 0.0, 2022-03-23 20:39:06.742
93.0, 887.6409451332875, 563.2794219763018, 1625.3717404427007, 943.6571666696109, -0.3200000151991844, 0.04800000227987766, 1.008000047877431, 0.0, 0.0, 0.0, 0.0, 0.0, 1.6480859467579424E9, 0.0, 2022-03-23 20:39:06.757
93.0, 901.889963964466, 571.4211841798387, 1627.3314480194822, 957.2554429084994, -0.3200000151991844, 0.04800000227987766, 1.008000047877431, 0.0, 0.0, 0.0, 0.0, 0.0, 1.6480859467579424E9, 0.0, 2022-03-23 20:39:06.757
94.0, 905.4877477218397, 581.0028078663163, 1633.8687931420282, 966.4555967994966, -0.3200000151991844, 0.04800000227987766, 1.008000047877431, 0.0, 0.0, 0.0, 0.0, 0.0, 1.6480859467586415E9, 0.0, 2022-03-23 20:39:06.758
94.0, 919.1870012595318, 580.9616689668037, 1635.0618212278932, 977.1629303726368, -0.3200000151991844, 0.04800000227987766, 1.008000047877431, 0.0, 0.0, 0.0, 0.0, 0.0, 1.6480859467586415E9, 0.0, 2022-03-23 20:39:06.758
95.0, 922.5529112196527, 570.5423076902516, 1626.9013595245779, 983.5245001972653, -0.3200000151991844, 0.04800000227987766, 1.008000047877431, 0.0, 0.0, 0.0, 0.0, 0.0, 1.64808594678859E9, 0.0, 2022-03-23 20:39:06.788
95.0, 913.2742194295861, 565.4261245508678, 1627.7727562142536, 980.4951812331565, -0.3200000151991844, 0.04800000227987766, 1.008000047877431, 0.0, 0.0, 0.0, 0.0, 0.0, 1.64808594678859E9, 0.0, 2022-03-23 20:39:06.788
96.0, 912.2307873419486, 574.7422153404914, 1621.437365689315, 978.3709180583246, -0.3200000151991844, 0.04800000227987766, 1.008000047877431, 0.0, 0.0, 0.0, 0.0, 0.0, 1.6480859467893407E9, 0.0, 2022-03-23 20:39:06.789
96.0, 915.2114876066335, 560.7288102065213, 1602.0983430184424, 972.4431766285561, -0.3200000151991844, 0.04800000227987766, 1.008000047877431, 0.0, 0.0, 0.0, 0.0, 0.0, 1.6480859467893407E9, 0.0, 2022-03-23 20:39:06.789
97.0, 921.5655776313506, 553.0358359976672, 1609.2826908333227, 972.420737228822, -0.3200000151991844, 0.04800000227987766, 1.008000047877431, 0.0, 0.0, 0.0, 0.0, 0.0, 1.648085946790167E9, 0.0, 2022-03-23 20:39:06.790
97.0, 904.4966742335819, 546.8313419711776, 1604.4619597904384, 961.9864163524471, -0.3200000151991844, 0.04800000227987766, 1.008000047877431, 0.0, 0.0, 0.0, 0.0, 0.0, 1.648085946790167E9, 0.0, 2022-03-23 20:39:06.790
98.0, 912.395342939999, 552.7815228006802, 1604.757411886938, 972.9331035227515, -0.3200000151991844, 0.04800000227987766, 1.008000047877431, 0.0, 0.0, 0.0, 0.0, 0.0, 1.648085946819373E9, 0.0, 2022-03-23 20:39:06.819
98.0, 923.936674203258, 566.6341122365557, 1634.291401837021, 983.2066087010317, -0.3200000151991844, 0.04800000227987766, 1.008000047877431, 0.0, 0.0, 0.0, 0.0, 0.0, 1.648085946819373E9, 0.0, 2022-03-23 20:39:06.819
99.0, 923.7496792054735, 560.2725424119271, 1631.8268077662215, 990.1029842193238, -0.3200000151991844, 0.04800000227987766, 1.008000047877431, 0.0, 0.0, 0.0, 0.0, 0.0, 1.6480859468201044E9, 0.0, 2022-03-23 20:39:06.820
99.0, 920.1331959483214, 551.8241084120236, 1613.7443914804608, 983.2776668001898, -0.3200000151991844, 0.04800000227987766, 1.008000047877431, 0.0, 0.0, 0.0, 0.0, 0.0, 1.6480859468201044E9, 0.0, 2022-03-23 20:39:06.820
100.0, 921.415981633123, 555.5864477674477, 1605.7410055752844, 984.4071165868081, -0.3200000151991844, 0.04800000227987766, 1.008000047877431, 0.0, 0.0, 0.0, 0.0, 0.0, 1.64808594682076E9, 0.0, 2022-03-23 20:39:06.820
100.0, 914.3550505167805, 555.4592911689542, 1614.09220217634, 971.5381208392791, -0.3200000151991844, 0.04800000227987766, 1.008000047877431, 0.0, 0.0, 0.0, 0.0, 0.0, 1.64808594682076E9, 0.0, 2022-03-23 20:39:06.820
0.0, 912.8123417850584, 560.900845604483, 1599.5159420990385, 966.2480323519558, -0.3200000151991844, 0.04800000227987766, 1.008000047877431, 0.0, 0.0, 0.0, 0.0, 0.0, 1.6480859468215277E9, 0.0, 2022-03-23 20:39:06.821
1.0, 911.0097100064158, 567.0604608315043, 1605.6942568258382, 966.4574667494744, -0.3200000151991844, 0.04800000227987766, 1.008000047877431, 0.0, 0.0, 0.0, 0.0, 0.0, 1.6480859468323185E9, 0.0, 2022-03-23 20:39:06.832
1.0, 908.1786057399586, 560.8858860046603, 1624.2179813063703, 960.8401370160282, -0.3200000151991844, 0.04800000227987766, 1.008000047877431, 0.0, 0.0, 0.0, 0.0, 0.0, 1.6480859468323185E9, 0.0, 2022-03-23 20:39:06.832
2.0, 896.3680016798899, 544.0077175046317, 1615.3506785114296, 953.1583825070411, -0.20800000987946987, 0.04800000227987766, 1.008000047877431, 0.0, 0.0, 0.0, 0.0, 0.0, 1.6480859468473327E9, 0.0, 2022-03-23 20:39:06.847
2.0, 891.5734499366954, 541.3037698366679, 1616.8578581935726, 955.0395521847531, -0.20800000987946987, 0.04800000227987766, 1.008000047877431, 0.0, 0.0, 0.0, 0.0, 0.0, 1.6480859468473327E9, 0.0, 2022-03-23 20:39:06.847
3.0, 899.128047847189, 546.1656397790648, 1619.3149724644609, 955.2602062821388, -0.20800000987946987, 0.04800000227987766, 1.008000047877431, 0.0, 0.0, 0.0, 0.0, 0.0, 1.6480859468628533E9, 0.0, 2022-03-23 20:39:06.862
3.0, 915.9688173476607, 561.2037775008939, 1614.4269232223742, 970.4255006024614, -0.20800000987946987, 0.04800000227987766, 1.008000047877431, 0.0, 0.0, 0.0, 0.0, 0.0, 1.6480859468628533E9, 0.0, 2022-03-23 20:39:06.862
4.0, 923.9535037530586, 562.4267247864045, 1624.1581429070793, 985.9498253185302, -0.20800000987946987, 0.04800000227987766, 1.008000047877431, 0.0, 0.0, 0.0, 0.0, 0.0, 1.6480859468636813E9, 0.0, 2022-03-23 20:39:06.863
4.0, 930.2402755785733, 563.5038159736432, 1615.6423907079734, 988.1301869926974, -0.20800000987946987, 0.04800000227987766, 1.008000047877431, 0.0, 0.0, 0.0, 0.0, 0.0, 1.6480859468636813E9, 0.0, 2022-03-23 20:39:06.863
5.0, 900.9231998259202, 550.9938506218605, 1586.231817456428, 969.1726341173053, -0.20800000987946987, 0.04800000227987766, 1.008000047877431, 0.0, 0.0, 0.0, 0.0, 0.0, 1.64808594687723E9, 0.0, 2022-03-23 20:39:06.877
5.0, 901.8880940144882, 561.7161437948234, 1586.254256856162, 968.3872551266104, -0.20800000987946987, 0.04800000227987766, 1.008000047877431, 0.0, 0.0, 0.0, 0.0, 0.0, 1.64808594687723E9, 0.0, 2022-03-23 20:39:06.877
6.0, 909.8727804198861, 560.9756436035968, 1612.934703140054, 986.566908811219, -0.20800000987946987, 0.04800000227987766, 1.008000047877431, 0.0, 0.0, 0.0, 0.0, 0.0, 1.6480859468928833E9, 0.0, 2022-03-23 20:39:06.892
6.0, 903.3653544969857, 550.9489718223922, 1624.1693626069464, 988.3620607899502, -0.20800000987946987, 0.04800000227987766, 1.008000047877431, 0.0, 0.0, 0.0, 0.0, 0.0, 1.6480859468928833E9, 0.0, 2022-03-23 20:39:06.892
7.0, 898.4174668556079, 555.2461168714799, 1622.0600590319373, 990.4526648651809, -0.20800000987946987, 0.04800000227987766, 1.008000047877431, 0.0, 0.0, 0.0, 0.0, 0.0, 1.648085946893607E9, 0.0, 2022-03-23 20:39:06.893
7.0, 902.3593214089051, 546.89866017038, 1612.8524253410287, 990.8827533600852, -0.20800000987946987, 0.04800000227987766, 1.008000047877431, 0.0, 0.0, 0.0, 0.0, 0.0, 1.648085946893607E9, 0.0, 2022-03-23 20:39:06.893
8.0, 913.6538192750886, 550.8405147236772, 1608.349585794378, 1001.4479707349092, -0.20800000987946987, 0.04800000227987766, 1.008000047877431, 0.0, 0.0, 0.0, 0.0, 0.0, 1.6480859469072804E9, 0.0, 2022-03-23 20:39:06.907
8.0, 896.4876784784719, 542.2088256259449, 1602.7958343601786, 1002.4801831226796, -0.20800000987946987, 0.04800000227987766, 1.008000047877431, 0.0, 0.0, 0.0, 0.0, 0.0, 1.6480859469072804E9, 0.0, 2022-03-23 20:39:06.907
9.0, 903.4962509954348, 552.2018383075483, 1614.6961960191838, 1005.6927571846172, -0.20800000987946987, 0.04800000227987766, 1.008000047877431, 0.0, 0.0, 0.0, 0.0, 0.0, 1.6480859469229565E9, 0.0, 2022-03-23 20:39:06.922
9.0, 899.18788624648, 543.1176213151775, 1603.790647748392, 1006.8147271713242, -0.20800000987946987, 0.04800000227987766, 1.008000047877431, 0.0, 0.0, 0.0, 0.0, 0.0, 1.6480859469229565E9, 0.0, 2022-03-23 20:39:06.922
10.0, 892.3176900278777, 548.8209687476046, 1606.1019059210084, 1006.5865932740271, -0.20800000987946987, 0.04800000227987766, 1.0240000486373901, 0.0, 0.0, 0.0, 0.0, 0.0, 1.6480859469236963E9, 0.0, 2022-03-23 20:39:06.923
10.0, 881.3373437579721, 543.3756744121201, 1592.7392433793284, 997.7043308792636, -0.20800000987946987, 0.04800000227987766, 1.0240000486373901, 0.0, 0.0, 0.0, 0.0, 0.0, 1.6480859469236963E9, 0.0, 2022-03-23 20:39:06.923
11.0, 886.139375301078, 536.4007609947585, 1602.4218443646096, 1009.3915182407945, -0.20800000987946987, 0.03200000151991844, 1.0240000486373901, 0.0, 0.0, 0.0, 0.0, 0.0, 1.648085946937203E9, 0.0, 2022-03-23 20:39:06.937
11.0, 875.9518878217787, 519.2495797979645, 1588.5505554289557, 999.0731342630461, -0.20800000987946987, 0.03200000151991844, 1.0240000486373901, 0.0, 0.0, 0.0, 0.0, 0.0, 1.648085946937203E9, 0.0, 2022-03-23 20:39:06.937
12.0, 888.8956815684214, 555.4779906687327, 1601.5579274748452, 1018.8684247285128, -0.19200000911951065, 0.03200000151991844, 1.0240000486373901, 0.0, 0.0, 0.0, 0.0, 0.0, 1.6480859469528792E9, 0.0, 2022-03-23 20:39:06.952
12.0, 897.8564818622544, 556.6710187545978, 1605.0996127328835, 1030.3499175924808, -0.19200000911951065, 0.03200000151991844, 1.0240000486373901, 0.0, 0.0, 0.0, 0.0, 0.0, 1.6480859469528792E9, 0.0, 2022-03-23 20:39:06.952
13.0, 897.3702948680148, 543.3756744121201, 1590.0502553111874, 1035.8737498270348, -0.19200000911951065, 0.03200000151991844, 1.0240000486373901, 0.0, 0.0, 0.0, 0.0, 0.0, 1.6480859469535968E9, 0.0, 2022-03-23 20:39:06.953
13.0, 878.2182671949267, 539.433819858823, 1585.6932718628086, 1033.050125360489, -0.19200000911951065, 0.03200000151991844, 1.0240000486373901, 0.0, 0.0, 0.0, 0.0, 0.0, 1.6480859469535968E9, 0.0, 2022-03-23 20:39:06.953
14.0, 882.7360663414001, 544.2545509017073, 1597.2121637263335, 1045.5451311124489, -0.19200000911951065, 0.03200000151991844, 1.0240000486373901, 0.0, 0.0, 0.0, 0.0, 0.0, 1.6480859469672308E9, 0.0, 2022-03-23 20:39:06.967
14.0, 898.2940501570702, 528.1580214924179, 1614.3035065238364, 1053.6756736161187, -0.19200000911951065, 0.03200000151991844, 1.0240000486373901, 0.0, 0.0, 0.0, 0.0, 0.0, 1.6480859469672308E9, 0.0, 2022-03-23 20:39:06.967
15.0, 891.4911721376702, 536.6214150921442, 1612.246561548207, 1048.4959121774882, -0.19200000911951065, 0.03200000151991844, 1.0240000486373901, 0.0, 0.0, 0.0, 0.0, 0.0, 1.648085946982917E9, 0.0, 2022-03-23 20:39:06.982
15.0, 888.3496561748907, 540.7988833426498, 1590.8730333014391, 1056.349702084437, -0.19200000911951065, 0.03200000151991844, 1.0240000486373901, 0.0, 0.0, 0.0, 0.0, 0.0, 1.648085946982917E9, 0.0, 2022-03-23 20:39:06.982
16.0, 878.4651005920023, 519.3617767966352, 1583.022983294446, 1056.2562045855448, -0.19200000911951065, 0.03200000151991844, 1.0240000486373901, 0.0, 0.0, 0.0, 0.0, 0.0, 1.6480859469836392E9, 0.0, 2022-03-23 20:39:06.983
16.0, 880.7501794649288, 532.3242700430565, 1572.1772734229453, 1064.9701714823022, -0.19200000911951065, 0.03200000151991844, 1.0240000486373901, 0.0, 0.0, 0.0, 0.0, 0.0, 1.6480859469836392E9, 0.0, 2022-03-23 20:39:06.983
17.0, 877.1112568080425, 510.90960289677605, 1563.1491549299099, 1066.6232072627172, -0.19200000911951065, 0.03200000151991844, 1.0240000486373901, 0.0, 0.0, 0.0, 0.0, 0.0, 1.6480859469972544E9, 0.0, 2022-03-23 20:39:06.997
17.0, 893.8622687095776, 522.5668710586615, 1569.866015250329, 1080.277582000941, -0.19200000911951065, 0.03200000151991844, 1.0240000486373901, 0.0, 0.0, 0.0, 0.0, 0.0, 1.6480859469972544E9, 0.0, 2022-03-23 20:39:06.997
18.0, 893.0544503191486, 545.1521268910728, 1583.808362285141, 1094.2760275350884, -0.19200000911951065, 0.03200000151991844, 1.0240000486373901, 0.0, 0.0, 0.0, 0.0, 0.0, 1.6480859470129108E9, 0.0, 2022-03-23 20:39:07.012
18.0, 892.6655007237568, 541.4384062350728, 1614.1464307256974, 1100.6188978599384, -0.19200000911951065, 0.03200000151991844, 1.0240000486373901, 0.0, 0.0, 0.0, 0.0, 0.0, 1.6480859470129108E9, 0.0, 2022-03-23 20:39:07.012
19.0, 887.1603679889813, 537.1674404856749, 1618.1107246787287, 1103.7080552233383, -0.19200000911951065, 0.03200000151991844, 1.0240000486373901, 0.0, 0.0, 0.0, 0.0, 0.0, 1.648085947013619E9, 0.0, 2022-03-23 20:39:07.013
19.0, 893.7500717109069, 535.2077329088934, 1617.130870890338, 1113.6187901059166, -0.19200000911951065, 0.03200000151991844, 1.0240000486373901, 0.0, 0.0, 0.0, 0.0, 0.0, 1.648085947013619E9, 0.0, 2022-03-23 20:39:07.013
20.0, 889.576343360357, 530.0541507699527, 1604.8340798360296, 1110.3837766442448, -0.19200000911951065, 0.03200000151991844, 1.008000047877431, 0.0, 0.0, 0.0, 0.0, 0.0, 1.6480859470272107E9, 0.0, 2022-03-23 20:39:07.027
20.0, 873.9734807452187, 535.3760284068994, 1604.7966808364727, 1119.7821452328935, -0.19200000911951065, 0.03200000151991844, 1.008000047877431, 0.0, 0.0, 0.0, 0.0, 0.0, 1.6480859470272107E9, 0.0, 2022-03-23 20:39:07.027
21.0, 883.3793291337788, 533.5621769283898, 1590.2559498087503, 1121.6595750106499, -0.19200000911951065, 0.01600000075995922, 1.008000047877431, 0.0, 0.0, 0.0, 0.0, 0.0, 1.6480859470428696E9, 0.0, 2022-03-23 20:39:07.042
21.0, 894.5952891008928, 545.4064400880598, 1593.7377966674976, 1137.023084028624, -0.19200000911951065, 0.01600000075995922, 1.008000047877431, 0.0, 0.0, 0.0, 0.0, 0.0, 1.6480859470428696E9, 0.0, 2022-03-23 20:39:07.042
22.0, 886.8649158924818, 534.2877175197937, 1596.4043453359045, 1130.1080090105534, -0.2400000113993883, 0.01600000075995922, 1.008000047877431, 0.0, 0.0, 0.0, 0.0, 0.0, 1.6480859470437293E9, 0.0, 2022-03-23 20:39:07.043
22.0, 903.5112105952576, 534.3849549186416, 1605.0622137333266, 1138.4666854115203, -0.2400000113993883, 0.01600000075995922, 1.008000047877431, 0.0, 0.0, 0.0, 0.0, 0.0, 1.6480859470437293E9, 0.0, 2022-03-23 20:39:07.043
23.0, 898.4698254549876, 539.9200068530627, 1599.6692779972218, 1147.2479705074802, -0.2400000113993883, 0.01600000075995922, 1.008000047877431, 0.0, 0.0, 0.0, 0.0, 0.0, 1.648085947057207E9, 0.0, 2022-03-23 20:39:07.057
23.0, 875.5778978262097, 531.3294566548429, 1581.7140183099546, 1123.3761890903115, -0.2400000113993883, 0.01600000075995922, 1.008000047877431, 0.0, 0.0, 0.0, 0.0, 0.0, 1.648085947057207E9, 0.0, 2022-03-23 20:39:07.057
24.0, 878.902668886818, 528.1468017925508, 1587.4285854422487, 1128.3128570318222, -0.2400000113993883, 0.01600000075995922, 1.008000047877431, 0.0, 0.0, 0.0, 0.0, 0.0, 1.648085947072935E9, 0.0, 2022-03-23 20:39:07.072
24.0, 892.84501592163, 530.7348125618882, 1615.7471079067327, 1134.068563063629, -0.2400000113993883, 0.01600000075995922, 1.008000047877431, 0.0, 0.0, 0.0, 0.0, 0.0, 1.648085947072935E9, 0.0, 2022-03-23 20:39:07.072
25.0, 888.8395830690861, 546.7602838720195, 1624.801405699458, 1140.3291555894539, -0.2400000113993883, 0.01600000075995922, 1.008000047877431, 0.0, 0.0, 0.0, 0.0, 0.0, 1.6480859470736215E9, 0.0, 2022-03-23 20:39:07.073
25.0, 916.7990751378238, 574.1774904471822, 1640.890455308836, 1161.3660928402096, -0.2400000113993883, 0.01600000075995922, 1.008000047877431, 0.0, 0.0, 0.0, 0.0, 0.0, 1.6480859470736215E9, 0.0, 2022-03-23 20:39:07.073
26.0, 918.6652852157131, 561.9405377921648, 1624.9622213975526, 1163.4342575157061, -0.2400000113993883, 0.01600000075995922, 1.008000047877431, 0.0, 0.0, 0.0, 0.0, 0.0, 1.6480859470872178E9, 0.0, 2022-03-23 20:39:07.087
26.0, 909.1434999285266, 539.8040699544363, 1611.1507708611898, 1158.7780820708722, -0.2400000113993883, 0.01600000075995922, 1.008000047877431, 0.0, 0.0, 0.0, 0.0, 0.0, 1.6480859470872178E9, 0.0, 2022-03-23 20:39:07.087
27.0, 911.514596500434, 546.4910110752098, 1613.1366577376612, 1158.841660370119, -0.2400000113993883, 0.01600000075995922, 1.008000047877431, 0.0, 0.0, 0.0, 0.0, 0.0, 1.6480859471028461E9, 0.0, 2022-03-23 20:39:07.102
27.0, 908.9004064314067, 537.7172057791613, 1626.1776888831519, 1158.744422971271, -0.2400000113993883, 0.01600000075995922, 1.008000047877431, 0.0, 0.0, 0.0, 0.0, 0.0, 1.6480859471028461E9, 0.0, 2022-03-23 20:39:07.102
28.0, 920.535235193558, 532.1858937446959, 1612.4896550453268, 1159.5859004613012, -0.2400000113993883, 0.01600000075995922, 1.008000047877431, 0.0, 0.0, 0.0, 0.0, 0.0, 1.6480859471036217E9, 0.0, 2022-03-23 20:39:07.103
28.0, 894.1390213062987, 531.2359591559507, 1613.8285392294638, 1144.3271086420864, -0.2400000113993883, 0.01600000075995922, 1.008000047877431, 0.0, 0.0, 0.0, 0.0, 0.0, 1.6480859471036217E9, 0.0, 2022-03-23 20:39:07.103
29.0, 901.4654853194952, 534.9309803121723, 1610.0325407744385, 1143.403353353031, -0.2400000113993883, 0.01600000075995922, 1.008000047877431, 0.0, 0.0, 0.0, 0.0, 0.0, 1.6480859471172283E9, 0.0, 2022-03-23 20:39:07.117
29.0, 910.7366973096505, 539.8751280535944, 1599.0970733040012, 1142.0607292689383, -0.2400000113993883, 0.01600000075995922, 1.008000047877431, 0.0, 0.0, 0.0, 0.0, 0.0, 1.6480859471172283E9, 0.0, 2022-03-23 20:39:07.117
30.0, 897.3216761685908, 521.2803454739042, 1630.916142127011, 1134.5846692575142, -0.2400000113993883, 0.01600000075995922, 1.008000047877431, 0.0, 0.0, 0.0, 0.0, 0.0, 1.6480859471330187E9, 0.0, 2022-03-23 20:39:07.133
30.0, 900.8110028272495, 539.0186909637414, 1634.4877465846948, 1127.97626603581, -0.2400000113993883, 0.01600000075995922, 1.008000047877431, 0.0, 0.0, 0.0, 0.0, 0.0, 1.6480859471330187E9, 0.0, 2022-03-23 20:39:07.133
31.0, 893.3536423156038, 542.231265025679, 1621.7833064352162, 1119.5914103351533, -0.2400000113993883, 0.06400000303983688, 1.008000047877431, 0.0, 0.0, 0.0, 0.0, 0.0, 1.6480859471337163E9, 0.0, 2022-03-23 20:39:07.133
31.0, 879.7740655764937, 532.2719114436768, 1610.3504322706722, 1104.2877397164702, -0.2400000113993883, 0.06400000303983688, 1.008000047877431, 0.0, 0.0, 0.0, 0.0, 0.0, 1.6480859471337163E9, 0.0, 2022-03-23 20:39:07.133
32.0, 875.0730113321915, 540.0172442519106, 1600.3349801893346, 1094.4181437334046, -0.3040000144392252, 0.06400000303983688, 1.008000047877431, 0.0, 0.0, 0.0, 0.0, 0.0, 1.6480859471472878E9, 0.0, 2022-03-23 20:39:07.147
32.0, 894.4157739030197, 545.6719729849137, 1612.6093318439089, 1118.9593672426417, -0.3040000144392252, 0.06400000303983688, 1.008000047877431, 0.0, 0.0, 0.0, 0.0, 0.0, 1.6480859471472878E9, 0.0, 2022-03-23 20:39:07.147
33.0, 906.5704487590119, 534.0558437225409, 1618.8138258703984, 1120.6124030230567, -0.3040000144392252, 0.06400000303983688, 1.008000047877431, 0.0, 0.0, 0.0, 0.0, 0.0, 1.6480859471629572E9, 0.0, 2022-03-23 20:39:07.162
33.0, 895.9416530849412, 531.1125424574129, 1615.6910094073974, 1110.4436150435358, -0.3040000144392252, 0.06400000303983688, 1.008000047877431, 0.0, 0.0, 0.0, 0.0, 0.0, 1.6480859471629572E9, 0.0, 2022-03-23 20:39:07.162
34.0, 891.5734499366954, 531.6623077508993, 1605.4885623282753, 1100.562799360603, -0.3040000144392252, 0.06400000303983688, 1.008000047877431, 0.0, 0.0, 0.0, 0.0, 0.0, 1.6480859471637223E9, 0.0, 2022-03-23 20:39:07.163
34.0, 910.8900332078338, 541.6254012328573, 1618.1705630780198, 1109.501160254702, -0.3040000144392252, 0.06400000303983688, 1.008000047877431, 0.0, 0.0, 0.0, 0.0, 0.0, 1.6480859471637223E9, 0.0, 2022-03-23 20:39:07.163
35.0, 895.0141578959301, 552.0746817090549, 1611.027354162652, 1096.475088709034, -0.3040000144392252, 0.06400000303983688, 1.008000047877431, 0.0, 0.0, 0.0, 0.0, 0.0, 1.6480859471771877E9, 0.0, 2022-03-23 20:39:07.177
35.0, 903.7543040923774, 536.4942584936507, 1623.9898474090733, 1085.535881338641, -0.3040000144392252, 0.06400000303983688, 1.008000047877431, 0.0, 0.0, 0.0, 0.0, 0.0, 1.6480859471771877E9, 0.0, 2022-03-23 20:39:07.177
36.0, 902.1611067112535, 540.0658629513346, 1620.0218135560863, 1083.3368201646954, -0.3040000144392252, 0.06400000303983688, 1.008000047877431, 0.0, 0.0, 0.0, 0.0, 0.0, 1.648085947193051E9, 0.0, 2022-03-23 20:39:07.193
36.0, 898.6231613531709, 532.2120730443858, 1632.868369903881, 1078.0037228278816, -0.3040000144392252, 0.06400000303983688, 1.008000047877431, 0.0, 0.0, 0.0, 0.0, 0.0, 1.648085947193051E9, 0.0, 2022-03-23 20:39:07.193
37.0, 877.5712645025924, 524.2086871392094, 1619.7787200589664, 1051.6636074399576, -0.3040000144392252, 0.06400000303983688, 1.008000047877431, 0.0, 0.0, 0.0, 0.0, 0.0, 1.6480859471936681E9, 0.0, 2022-03-23 20:39:07.193
37.0, 884.220806623809, 524.6013766345568, 1598.857719706837, 1043.9818529309705, -0.3040000144392252, 0.06400000303983688, 1.008000047877431, 0.0, 0.0, 0.0, 0.0, 0.0, 1.6480859471936681E9, 0.0, 2022-03-23 20:39:07.193
38.0, 899.9770051371306, 535.6191219040193, 1613.9631756278686, 1048.5931495763361, -0.3040000144392252, 0.06400000303983688, 1.008000047877431, 0.0, 0.0, 0.0, 0.0, 0.0, 1.648085947207181E9, 0.0, 2022-03-23 20:39:07.207
38.0, 891.6407681358978, 532.3280099430121, 1622.1759959305637, 1039.2695789868012, -0.3040000144392252, 0.06400000303983688, 1.008000047877431, 0.0, 0.0, 0.0, 0.0, 0.0, 1.648085947207181E9, 0.0, 2022-03-23 20:39:07.207
39.0, 897.9873783607036, 539.0934889628552, 1619.2551340651698, 1048.342576279305, -0.3040000144392252, 0.06400000303983688, 1.008000047877431, 0.0, 0.0, 0.0, 0.0, 0.0, 1.6480859472229457E9, 0.0, 2022-03-23 20:39:07.222
39.0, 907.378267149441, 542.9568056170829, 1619.9507554569282, 1049.1541345696896, -0.3040000144392252, 0.06400000303983688, 1.008000047877431, 0.0, 0.0, 0.0, 0.0, 0.0, 1.6480859472229457E9, 0.0, 2022-03-23 20:39:07.222
40.0, 903.0325034009293, 542.7249318198301, 1616.9476157925092, 1039.501452784054, -0.3040000144392252, 0.06400000303983688, 0.9920000471174717, 0.0, 0.0, 0.0, 0.0, 0.0, 1.6480859472236311E9, 0.0, 2022-03-23 20:39:07.223
40.0, 906.1179208643734, 540.8213227423839, 1615.48905480979, 1035.3950426327065, -0.3040000144392252, 0.06400000303983688, 0.9920000471174717, 0.0, 0.0, 0.0, 0.0, 0.0, 1.6480859472236311E9, 0.0, 2022-03-23 20:39:07.223
41.0, 918.8634999133646, 535.3760284068994, 1630.7328870291822, 1040.1746347760782, -0.3040000144392252, 0.11200000531971455, 0.9920000471174717, 0.0, 0.0, 0.0, 0.0, 0.0, 1.6480859472372265E9, 0.0, 2022-03-23 20:39:07.237
41.0, 903.5822686944157, 534.923500512261, 1618.4847146742977, 1030.5481322901323, -0.3040000144392252, 0.11200000531971455, 0.9920000471174717, 0.0, 0.0, 0.0, 0.0, 0.0, 1.6480859472372265E9, 0.0, 2022-03-23 20:39:07.237
42.0, 891.8090636339039, 519.7245470923372, 1597.5749340220354, 1016.2317952597514, -0.35200001671910286, 0.11200000531971455, 0.9920000471174717, 0.0, 0.0, 0.0, 0.0, 0.0, 1.6480859472530615E9, 0.0, 2022-03-23 20:39:07.253
42.0, 902.3593214089051, 519.1411226992495, 1633.5004129963927, 1024.9869010560215, -0.35200001671910286, 0.11200000531971455, 0.9920000471174717, 0.0, 0.0, 0.0, 0.0, 0.0, 1.6480859472530615E9, 0.0, 2022-03-23 20:39:07.253
43.0, 904.6369204819202, 515.4049626435153, 1636.3651763624512, 1029.672995700501, -0.35200001671910286, 0.11200000531971455, 0.9920000471174717, 0.0, 0.0, 0.0, 0.0, 0.0, 1.648085947253704E9, 0.0, 2022-03-23 20:39:07.253
43.0, 891.1583210416138, 482.6247395318933, 1618.6829293719493, 1006.0779668800533, -0.35200001671910286, 0.11200000531971455, 0.9920000471174717, 0.0, 0.0, 0.0, 0.0, 0.0, 1.648085947253704E9, 0.0, 2022-03-23 20:39:07.253
44.0, 898.7129189521074, 518.4230619077571, 1627.6287700659595, 1008.5575205506757, -0.35200001671910286, 0.11200000531971455, 0.9920000471174717, 0.0, 0.0, 0.0, 0.0, 0.0, 1.6480859472833548E9, 0.0, 2022-03-23 20:39:07.283
44.0, 922.2331497734413, 545.440099187661, 1635.7331332699396, 1023.3899637749419, -0.35200001671910286, 0.11200000531971455, 0.9920000471174717, 0.0, 0.0, 0.0, 0.0, 0.0, 1.6480859472833548E9, 0.0, 2022-03-23 20:39:07.283
45.0, 904.3713875850663, 534.1979599208571, 1646.7059997399338, 1019.7959199175239, -0.35200001671910286, 0.11200000531971455, 0.9920000471174717, 0.0, 0.0, 0.0, 0.0, 0.0, 1.6480859472840576E9, 0.0, 2022-03-23 20:39:07.284
45.0, 921.2121570855379, 533.7865709257312, 1650.404760796111, 1020.4017837103456, -0.35200001671910286, 0.11200000531971455, 0.9920000471174717, 0.0, 0.0, 0.0, 0.0, 0.0, 1.6480859472840576E9, 0.0, 2022-03-23 20:39:07.284
46.0, 922.0274552758783, 534.7926040138118, 1636.8962421561591, 1005.9956890810281, -0.35200001671910286, 0.11200000531971455, 0.9920000471174717, 0.0, 0.0, 0.0, 0.0, 0.0, 1.648085947297901E9, 0.0, 2022-03-23 20:39:07.297
46.0, 911.8287480967119, 534.1904801209457, 1636.6868077586405, 996.167231997475, -0.35200001671910286, 0.11200000531971455, 0.9920000471174717, 0.0, 0.0, 0.0, 0.0, 0.0, 1.648085947297901E9, 0.0, 2022-03-23 20:39:07.297
47.0, 901.2074322225526, 528.5058321882971, 1636.4362344616093, 983.1748195514083, -0.35200001671910286, 0.11200000531971455, 0.9920000471174717, 0.0, 0.0, 0.0, 0.0, 0.0, 1.6480859472986453E9, 0.0, 2022-03-23 20:39:07.298
47.0, 910.4075861135498, 536.8532888893969, 1666.445191706065, 990.8079553609714, -0.35200001671910286, 0.11200000531971455, 0.9920000471174717, 0.0, 0.0, 0.0, 0.0, 0.0, 1.6480859472986453E9, 0.0, 2022-03-23 20:39:07.298
48.0, 909.1210605287924, 538.9102338650264, 1663.4757111412473, 989.3269549785182, -0.35200001671910286, 0.11200000531971455, 0.9920000471174717, 0.0, 0.0, 0.0, 0.0, 0.0, 1.648085947312888E9, 0.0, 2022-03-23 20:39:07.312
48.0, 892.579483024776, 542.8782677180134, 1649.2042529103346, 979.4386594956741, -0.35200001671910286, 0.11200000531971455, 0.9920000471174717, 0.0, 0.0, 0.0, 0.0, 0.0, 1.648085947312888E9, 0.0, 2022-03-23 20:39:07.312
49.0, 897.9499793611467, 534.8412227132358, 1642.3714556912892, 977.4415529193357, -0.35200001671910286, 0.11200000531971455, 0.9920000471174717, 0.0, 0.0, 0.0, 0.0, 0.0, 1.6480859473136072E9, 0.0, 2022-03-23 20:39:07.313
49.0, 908.3506411379203, 561.0766209024005, 1660.1210208809935, 979.9884247891605, -0.35200001671910286, 0.11200000531971455, 0.9920000471174717, 0.0, 0.0, 0.0, 0.0, 0.0, 1.6480859473136072E9, 0.0, 2022-03-23 20:39:07.313
50.0, 897.0224841721356, 537.0739429867826, 1650.6441143932752, 958.8579900395125, -0.35200001671910286, 0.11200000531971455, 0.9600000455975533, 0.0, 0.0, 0.0, 0.0, 0.0, 1.648085947327235E9, 0.0, 2022-03-23 20:39:07.327
50.0, 882.7697254410014, 516.4147356315516, 1648.041144024115, 942.0433998387307, -0.35200001671910286, 0.11200000531971455, 0.9600000455975533, 0.0, 0.0, 0.0, 0.0, 0.0, 1.648085947327235E9, 0.0, 2022-03-23 20:39:07.327
51.0, 901.0653160242364, 540.6343277445994, 1650.864768490661, 957.9753736499697, -0.35200001671910286, 0.12800000607967377, 0.9600000455975533, 0.0, 0.0, 0.0, 0.0, 0.0, 1.648085947342893E9, 0.0, 2022-03-23 20:39:07.342
51.0, 892.2167127290741, 544.209672102239, 1621.5551725379191, 937.6639769906178, -0.35200001671910286, 0.12800000607967377, 0.9600000455975533, 0.0, 0.0, 0.0, 0.0, 0.0, 1.648085947342893E9, 0.0, 2022-03-23 20:39:07.342
52.0, 888.9143810681999, 559.4983831210993, 1637.8648762446828, 936.3213529065251, -0.33600001595914364, 0.12800000607967377, 0.9600000455975533, 0.0, 0.0, 0.0, 0.0, 0.0, 1.648085947343652E9, 0.0, 2022-03-23 20:39:07.343
52.0, 896.7831305749714, 551.5959745147265, 1639.334656927269, 936.0894791092724, -0.33600001595914364, 0.12800000607967377, 0.9600000455975533, 0.0, 0.0, 0.0, 0.0, 0.0, 1.648085947343652E9, 0.0, 2022-03-23 20:39:07.343
53.0, 902.6809528050944, 542.4444393231533, 1642.6669077877887, 933.8343194359913, -0.33600001595914364, 0.12800000607967377, 0.9600000455975533, 0.0, 0.0, 0.0, 0.0, 0.0, 1.648085947373627E9, 0.0, 2022-03-23 20:39:07.373
53.0, 888.8208835693076, 545.7355512841605, 1652.443006271962, 929.65311128553, -0.33600001595914364, 0.12800000607967377, 0.9600000455975533, 0.0, 0.0, 0.0, 0.0, 0.0, 1.648085947373627E9, 0.0, 2022-03-23 20:39:07.373
54.0, 895.4554660907015, 545.9038467821665, 1652.2709708740003, 932.8694252474234, -0.33600001595914364, 0.12800000607967377, 0.9600000455975533, 0.0, 0.0, 0.0, 0.0, 0.0, 1.6480859473744152E9, 0.0, 2022-03-23 20:39:07.374
54.0, 909.8428612202406, 534.7103262147866, 1651.9269000780769, 932.2897407542914, -0.33600001595914364, 0.12800000607967377, 0.9600000455975533, 0.0, 0.0, 0.0, 0.0, 0.0, 1.6480859473744152E9, 0.0, 2022-03-23 20:39:07.374
55.0, 901.8282556151971, 548.7424308485352, 1646.354449144099, 931.1715106675401, -0.33600001595914364, 0.12800000607967377, 0.9600000455975533, 0.0, 0.0, 0.0, 0.0, 0.0, 1.6480859473751452E9, 0.0, 2022-03-23 20:39:07.375
55.0, 909.4726111246273, 564.1246393662877, 1678.6073463619687, 941.3515183469281, -0.33600001595914364, 0.12800000607967377, 0.9600000455975533, 0.0, 0.0, 0.0, 0.0, 0.0, 1.6480859473751452E9, 0.0, 2022-03-23 20:39:07.375
56.0, 912.4869704889134, 544.6509802970104, 1655.977211730089, 927.9701563054696, -0.33600001595914364, 0.12800000607967377, 0.9600000455975533, 0.0, 0.0, 0.0, 0.0, 0.0, 1.6480859473872323E9, 0.0, 2022-03-23 20:39:07.387
56.0, 902.9352660020813, 554.2251241835766, 1641.096149806399, 921.8105410784483, -0.33600001595914364, 0.12800000607967377, 0.9600000455975533, 0.0, 0.0, 0.0, 0.0, 0.0, 1.6480859473872323E9, 0.0, 2022-03-23 20:39:07.387
57.0, 902.5126573070884, 554.677652078215, 1634.1025368892588, 909.4576515248045, -0.33600001595914364, 0.12800000607967377, 0.9600000455975533, 0.0, 0.0, 0.0, 0.0, 0.0, 1.6480859474029903E9, 0.0, 2022-03-23 20:39:07.402
57.0, 905.7140116691589, 558.4586909334175, 1656.6391740222462, 908.2085249396041, -0.33600001595914364, 0.12800000607967377, 0.9600000455975533, 0.0, 0.0, 0.0, 0.0, 0.0, 1.6480859474029903E9, 0.0, 2022-03-23 20:39:07.402
58.0, 903.264377198182, 546.0010841810144, 1648.4300936195068, 907.7410374451429, -0.33600001595914364, 0.12800000607967377, 0.9600000455975533, 0.0, 0.0, 0.0, 0.0, 0.0, 1.648085947403742E9, 0.0, 2022-03-23 20:39:07.403
58.0, 900.6090482296422, 544.1872327025048, 1644.6340951644816, 899.4646388432011, -0.33600001595914364, 0.12800000607967377, 0.9600000455975533, 0.0, 0.0, 0.0, 0.0, 0.0, 1.648085947403742E9, 0.0, 2022-03-23 20:39:07.403
59.0, 927.6859239088371, 561.2262169006281, 1664.0404360345565, 913.7660162737593, -0.33600001595914364, 0.12800000607967377, 0.9600000455975533, 0.0, 0.0, 0.0, 0.0, 0.0, 1.6480859474335835E9, 0.0, 2022-03-23 20:39:07.433
59.0, 927.6073860097677, 542.3322423244826, 1656.7775503206067, 906.5779285589233, -0.33600001595914364, 0.12800000607967377, 0.9600000455975533, 0.0, 0.0, 0.0, 0.0, 0.0, 1.6480859474335835E9, 0.0, 2022-03-23 20:39:07.433
60.0, 905.8673475673422, 555.2760360711254, 1650.3262228970416, 898.5259239543229, -0.33600001595914364, 0.12800000607967377, 0.9760000463575125, 0.0, 0.0, 0.0, 0.0, 0.0, 1.64808594743432E9, 0.0, 2022-03-23 20:39:07.434
60.0, 916.2567896442488, 558.368933334481, 1637.3338104509749, 898.0846157595515, -0.33600001595914364, 0.12800000607967377, 0.9760000463575125, 0.0, 0.0, 0.0, 0.0, 0.0, 1.64808594743432E9, 0.0, 2022-03-23 20:39:07.434
61.0, 927.8616992067546, 580.5390602718107, 1663.5654687401839, 913.7959354734048, -0.33600001595914364, 0.09600000455975533, 0.9760000463575125, 0.0, 0.0, 0.0, 0.0, 0.0, 1.6480859474352E9, 0.0, 2022-03-23 20:39:07.435
61.0, 923.3289404604584, 579.933196478989, 1656.2128254272975, 905.2876630742103, -0.33600001595914364, 0.09600000455975533, 0.9760000463575125, 0.0, 0.0, 0.0, 0.0, 0.0, 1.6480859474352E9, 0.0, 2022-03-23 20:39:07.435
62.0, 915.9239385481924, 580.7597143691964, 1652.8917942666449, 898.10331525933, -0.3040000144392252, 0.09600000455975533, 0.9760000463575125, 0.0, 0.0, 0.0, 0.0, 0.0, 1.6480859474472432E9, 0.0, 2022-03-23 20:39:07.447
62.0, 929.2043232908472, 573.444470055867, 1664.107754233759, 900.9381594257429, -0.3040000144392252, 0.09600000455975533, 0.9760000463575125, 0.0, 0.0, 0.0, 0.0, 0.0, 1.6480859474472432E9, 0.0, 2022-03-23 20:39:07.447
63.0, 914.9702640594915, 536.7298721908592, 1665.3868000186048, 886.8424764927477, -0.3040000144392252, 0.09600000455975533, 0.9760000463575125, 0.0, 0.0, 0.0, 0.0, 0.0, 1.6480859474629045E9, 0.0, 2022-03-23 20:39:07.462
63.0, 921.7020839797333, 576.6907032174058, 1662.417319453787, 890.9900255436078, -0.3040000144392252, 0.09600000455975533, 0.9760000463575125, 0.0, 0.0, 0.0, 0.0, 0.0, 1.6480859474629045E9, 0.0, 2022-03-23 20:39:07.462
64.0, 928.471302899532, 588.2881329800002, 1673.524822322186, 882.399475345388, -0.3040000144392252, 0.09600000455975533, 0.9760000463575125, 0.0, 0.0, 0.0, 0.0, 0.0, 1.6480859474636304E9, 0.0, 2022-03-23 20:39:07.463
64.0, 929.0248080929741, 579.4544892846607, 1691.012594514992, 889.6586211593822, -0.3040000144392252, 0.09600000455975533, 0.9760000463575125, 0.0, 0.0, 0.0, 0.0, 0.0, 1.6480859474636304E9, 0.0, 2022-03-23 20:39:07.463
65.0, 922.996089364402, 591.149156446103, 1675.7874617953785, 890.2383056525141, -0.3040000144392252, 0.09600000455975533, 0.9760000463575125, 0.0, 0.0, 0.0, 0.0, 0.0, 1.648085947477321E9, 0.0, 2022-03-23 20:39:07.477
65.0, 921.7918415786698, 585.457028713543, 1664.2947492315434, 879.4112952807918, -0.3040000144392252, 0.09600000455975533, 0.9760000463575125, 0.0, 0.0, 0.0, 0.0, 0.0, 1.648085947477321E9, 0.0, 2022-03-23 20:39:07.477
66.0, 917.7303102267906, 573.9306570501067, 1686.805207064841, 886.7153198942542, -0.3040000144392252, 0.09600000455975533, 0.9760000463575125, 0.0, 0.0, 0.0, 0.0, 0.0, 1.648085947492994E9, 0.0, 2022-03-23 20:39:07.492
66.0, 905.7140116691589, 566.5742738372646, 1674.093287115451, 875.1066704317927, -0.3040000144392252, 0.09600000455975533, 0.9760000463575125, 0.0, 0.0, 0.0, 0.0, 0.0, 1.648085947492994E9, 0.0, 2022-03-23 20:39:07.492
67.0, 915.1497792573646, 575.7332888287492, 1669.3024752722122, 873.1544426549226, -0.3040000144392252, 0.09600000455975533, 0.9760000463575125, 0.0, 0.0, 0.0, 0.0, 0.0, 1.6480859474936411E9, 0.0, 2022-03-23 20:39:07.493
67.0, 913.5790212759748, 567.6850241241045, 1660.6296472749673, 879.6581286778674, -0.3040000144392252, 0.09600000455975533, 0.9760000463575125, 0.0, 0.0, 0.0, 0.0, 0.0, 1.6480859474936411E9, 0.0, 2022-03-23 20:39:07.493
68.0, 907.486724248156, 570.3665323923342, 1635.5087392725982, 854.9336500708014, -0.3040000144392252, 0.09600000455975533, 0.9760000463575125, 0.0, 0.0, 0.0, 0.0, 0.0, 1.6480859475072265E9, 0.0, 2022-03-23 20:39:07.507
68.0, 896.0800293833017, 542.3472019243054, 1639.9667000197805, 857.7385750375688, -0.3040000144392252, 0.09600000455975533, 0.9760000463575125, 0.0, 0.0, 0.0, 0.0, 0.0, 1.6480859475072265E9, 0.0, 2022-03-23 20:39:07.507
69.0, 894.9206603970379, 536.0641699987464, 1641.6159959002398, 851.4368436122313, -0.3040000144392252, 0.09600000455975533, 0.9760000463575125, 0.0, 0.0, 0.0, 0.0, 0.0, 1.6480859475229726E9, 0.0, 2022-03-23 20:39:07.522
69.0, 904.711718481034, 536.224985696841, 1654.6009285463952, 854.5334807755426, -0.3040000144392252, 0.09600000455975533, 0.9760000463575125, 0.0, 0.0, 0.0, 0.0, 0.0, 1.6480859475229726E9, 0.0, 2022-03-23 20:39:07.522
70.0, 893.6902333116159, 537.4180137827061, 1632.7524330052547, 838.5229690652341, -0.3040000144392252, 0.09600000455975533, 0.9760000463575125, 0.0, 0.0, 0.0, 0.0, 0.0, 1.648085947523632E9, 0.0, 2022-03-23 20:39:07.523
70.0, 880.9035153631121, 532.8702954365872, 1622.785599623341, 827.9914107900113, -0.3040000144392252, 0.09600000455975533, 0.9760000463575125, 0.0, 0.0, 0.0, 0.0, 0.0, 1.648085947523632E9, 0.0, 2022-03-23 20:39:07.523
71.0, 876.9691406097263, 536.4493796941824, 1636.185661164578, 830.8150352565572, -0.3040000144392252, 0.09600000455975533, 0.9760000463575125, 0.0, 0.0, 0.0, 0.0, 0.0, 1.6480859475372648E9, 0.0, 2022-03-23 20:39:07.537
71.0, 883.5887635312974, 538.1398144741543, 1637.3899089503102, 830.5382826598361, -0.3040000144392252, 0.09600000455975533, 0.9760000463575125, 0.0, 0.0, 0.0, 0.0, 0.0, 1.6480859475372648E9, 0.0, 2022-03-23 20:39:07.537
