%OpenBCI Raw EEG Data
%Number of channels = 4
%Sample Rate = 200 Hz
%Board = OpenBCI_GUI$BoardGanglionBLE
Sample Index, EXG Channel 0, EXG Channel 1, EXG Channel 2, EXG Channel 3, Accel Channel 0, Accel Channel 1, Accel Channel 2, Other, Other, Other, Other, Other, Timestamp, Other, Timestamp (Formatted)
4.0, -5.561231234110892, -10.673674473538995, -7.562077710404992, -9.727479784749448, 0.0, 0.0, 0.0, 0.0, 0.0, 0.0, 0.0, 0.0, 1.6506685953016236E9, 0.0, 2022-04-22 18:03:15.301
4.0, -10.909288170747459, 2.531912270002067, -5.24333973787725, -2.80866486672312, 0.0, 0.0, 0.0, 0.0, 0.0, 0.0, 0.0, 0.0, 1.6506685953016236E9, 0.0, 2022-04-22 18:03:15.301
5.0, 0.8900961894541979, 9.727479784749448, -2.0008464762941003, 10.84196997154504, 0.0, 0.0, 0.0, 0.0, 0.0, 0.0, 0.0, 0.0, 1.650668595315274E9, 0.0, 2022-04-22 18:03:15.315
5.0, -15.483185816556215, -10.236106178723276, -9.22259329073131, -2.864763366058469, 0.0, 0.0, 0.0, 0.0, 0.0, 0.0, 0.0, 0.0, 1.650668595315274E9, 0.0, 2022-04-22 18:03:15.315
6.0, -17.902901087887585, 6.346610224805772, -6.522385522723198, -11.563770662993193, 0.0, 0.0, 0.0, 0.0, 0.0, 0.0, 0.0, 0.0, 1.6506685953473296E9, 0.0, 2022-04-22 18:03:15.347
6.0, -7.412481712177396, 5.553751434199512, 3.665101956576109, 1.4735205825418234, 0.0, 0.0, 0.0, 0.0, 0.0, 0.0, 0.0, 0.0, 1.6506685953473296E9, 0.0, 2022-04-22 18:03:15.347
7.0, -0.5198460938408971, 7.932327806018293, 11.092543268576264, 6.604663321748376, 0.0, 0.0, 0.0, 0.0, 0.0, 0.0, 0.0, 0.0, 1.650668595348103E9, 0.0, 2022-04-22 18:03:15.348
7.0, -19.3801615703851, 8.388595600612462, 0.4226086949929595, -8.803724495694041, 0.0, 0.0, 0.0, 0.0, 0.0, 0.0, 0.0, 0.0, 1.650668595348103E9, 0.0, 2022-04-22 18:03:15.348
8.0, -25.77165059465915, 1.4323816830292344, -22.09906883817166, -14.596829527057707, 0.0, 0.0, 0.0, 0.0, 0.0, 0.0, 0.0, 0.0, 1.6506685953487928E9, 0.0, 2022-04-22 18:03:15.348
8.0, -10.501639075577259, 3.2873720610514283, -8.328757201321423, 6.0399384284392, 0.0, 0.0, 0.0, 0.0, 0.0, 0.0, 0.0, 0.0, 1.6506685953487928E9, 0.0, 2022-04-22 18:03:15.348
9.0, -25.917506692931056, -7.954767205752432, -12.566063851118088, -7.012312416918576, 0.0, 0.0, 0.0, 0.0, 0.0, 0.0, 0.0, 0.0, 1.6506685953495924E9, 0.0, 2022-04-22 18:03:15.349
9.0, -24.339268911629915, -7.517198910936713, -10.647495173849165, -12.162154655903578, 0.0, 0.0, 0.0, 0.0, 0.0, 0.0, 0.0, 0.0, 1.6506685953495924E9, 0.0, 2022-04-22 18:03:15.349
10.0, -2.81988456659019, -3.4893266586586833, -2.2327202735468745, 7.4274413120001554, 0.0, 0.0, 0.9280000440776348, 0.0, 0.0, 0.0, 0.0, 0.0, 1.65066859536029E9, 0.0, 2022-04-22 18:03:15.360
10.0, 1.6231165807694197, 6.350350124761462, 5.325617536902428, 10.707333573140204, 0.0, 0.0, 0.9280000440776348, 0.0, 0.0, 0.0, 0.0, 0.0, 1.65066859536029E9, 0.0, 2022-04-22 18:03:15.360
11.0, -4.787071943283081, 3.9306348534300923, -2.2775990730151534, -8.590550198219717, 0.0, 0.03200000151991844, 0.9280000440776348, 0.0, 0.0, 0.0, 0.0, 0.0, 1.6506685953752756E9, 0.0, 2022-04-22 18:03:15.375
11.0, -0.07105809915810823, -7.120769515633583, -2.7076875679194927, -5.284478637389839, 0.0, 0.03200000151991844, 0.9280000440776348, 0.0, 0.0, 0.0, 0.0, 0.0, 1.6506685953752756E9, 0.0, 2022-04-22 18:03:15.375
12.0, 13.149488244205713, 9.873335883021355, -0.17577529791742563, 9.540484786964953, 0.41600001975893974, 0.03200000151991844, 0.9280000440776348, 0.0, 0.0, 0.0, 0.0, 0.0, 1.6506685953910227E9, 0.0, 2022-04-22 18:03:15.391
12.0, 0.06357829924672842, -4.757152743637562, 0.29171219654381275, -7.610696409828961, 0.41600001975893974, 0.03200000151991844, 0.9280000440776348, 0.0, 0.0, 0.0, 0.0, 0.0, 1.6506685953910227E9, 0.0, 2022-04-22 18:03:15.391
13.0, 11.159861467778683, 0.5310657937079668, -0.2505732970312238, 6.754259319975972, 0.41600001975893974, 0.03200000151991844, 0.9280000440776348, 0.0, 0.0, 0.0, 0.0, 0.0, 1.6506685953916936E9, 0.0, 2022-04-22 18:03:15.391
13.0, 17.783224289305508, 4.704794144257903, -1.7652327790856361, 11.040184669196606, 0.41600001975893974, 0.03200000151991844, 0.9280000440776348, 0.0, 0.0, 0.0, 0.0, 0.0, 1.6506685953916936E9, 0.0, 2022-04-22 18:03:15.391
14.0, 3.7735590552911162, -1.9896267764270306, -11.26083876658231, -1.3800230836495757, 0.41600001975893974, 0.03200000151991844, 0.9280000440776348, 0.0, 0.0, 0.0, 0.0, 0.0, 1.6506685954052787E9, 0.0, 2022-04-22 18:03:15.405
14.0, 1.5183993820101023, 7.031011916697025, -13.385101941414177, -6.772958819754422, 0.41600001975893974, 0.03200000151991844, 0.9280000440776348, 0.0, 0.0, 0.0, 0.0, 0.0, 1.6506685954052787E9, 0.0, 2022-04-22 18:03:15.405
15.0, 7.449880711734295, 1.6006771810352802, -12.031258157454431, 0.7031011916697025, 0.41600001975893974, 0.03200000151991844, 0.9280000440776348, 0.0, 0.0, 0.0, 0.0, 0.0, 1.65066859542092E9, 0.0, 2022-04-22 18:03:15.420
15.0, 12.195813755504787, 7.965986905619502, -0.18325509782880545, 7.808911107480526, 0.41600001975893974, 0.03200000151991844, 0.9280000440776348, 0.0, 0.0, 0.0, 0.0, 0.0, 1.65066859542092E9, 0.0, 2022-04-22 18:03:15.420
16.0, 10.172527879476547, 12.360369353555143, 8.82616389542818, 10.84570987150073, 0.41600001975893974, 0.03200000151991844, 0.9280000440776348, 0.0, 0.0, 0.0, 0.0, 0.0, 1.6506685954216444E9, 0.0, 2022-04-22 18:03:15.421
16.0, 19.570896468125284, 19.451219669543207, 9.708780284970999, 7.995906105265021, 0.41600001975893974, 0.03200000151991844, 0.9280000440776348, 0.0, 0.0, 0.0, 0.0, 0.0, 1.6506685954216444E9, 0.0, 2022-04-22 18:03:15.421
17.0, 23.628687920048833, 8.310057701542974, 8.48209309950471, 14.705286625772715, 0.41600001975893974, 0.03200000151991844, 0.9280000440776348, 0.0, 0.0, 0.0, 0.0, 0.0, 1.650668595435213E9, 0.0, 2022-04-22 18:03:15.435
17.0, 2.535652169957757, -11.163601367734373, 2.382316271774471, 4.01665255241096, 0.41600001975893974, 0.03200000151991844, 0.9280000440776348, 0.0, 0.0, 0.0, 0.0, 0.0, 1.650668595435213E9, 0.0, 2022-04-22 18:03:15.435
18.0, 9.802277783863246, 6.125956127420068, -4.274705649353564, 2.573051169514656, 0.41600001975893974, 0.03200000151991844, 0.9280000440776348, 0.0, 0.0, 0.0, 0.0, 0.0, 1.6506685954508936E9, 0.0, 2022-04-22 18:03:15.450
18.0, 25.887587493285537, 21.818576341494918, -3.418268559500575, 24.395367410965264, 0.41600001975893974, 0.03200000151991844, 0.9280000440776348, 0.0, 0.0, 0.0, 0.0, 0.0, 1.6506685954508936E9, 0.0, 2022-04-22 18:03:15.450
19.0, 24.08869561459869, 37.215744459070265, 5.262039237655699, 11.051404369063675, 0.41600001975893974, 0.03200000151991844, 0.9280000440776348, 0.0, 0.0, 0.0, 0.0, 0.0, 1.6506685954516468E9, 0.0, 2022-04-22 18:03:15.451
19.0, 20.58814925607294, 57.5458406182006, 9.203893790952861, 15.337329718284309, 0.41600001975893974, 0.03200000151991844, 0.9280000440776348, 0.0, 0.0, 0.0, 0.0, 0.0, 1.6506685954516468E9, 0.0, 2022-04-22 18:03:15.451
20.0, 26.1606001900509, 52.556814077310264, 4.256006149575114, 21.878414740785956, 0.41600001975893974, 0.03200000151991844, 0.9280000440776348, 0.0, 0.0, 0.0, 0.0, 0.0, 1.650668595465232E9, 0.0, 2022-04-22 18:03:15.465
20.0, 36.445325068198144, 74.05375902261585, 13.938607134856284, 31.75923042371869, 0.41600001975893974, 0.03200000151991844, 0.9280000440776348, 0.0, 0.0, 0.0, 0.0, 0.0, 1.650668595465232E9, 0.0, 2022-04-22 18:03:15.465
21.0, 20.345055758953094, 72.84577133692801, 0.5609849933534861, 11.833043459802866, 0.41600001975893974, 0.04800000227987766, 0.9280000440776348, 0.0, 0.0, 0.0, 0.0, 0.0, 1.6506685954809103E9, 0.0, 2022-04-22 18:03:15.480
21.0, 14.174220832064748, 64.9919814299792, -7.756552508100867, 18.396567882038653, 0.41600001975893974, 0.04800000227987766, 0.9280000440776348, 0.0, 0.0, 0.0, 0.0, 0.0, 1.6506685954809103E9, 0.0, 2022-04-22 18:03:15.480
22.0, 17.420453993603587, 71.34981135465205, -15.127895320765674, 29.103901455178857, 0.41600001975893974, 0.04800000227987766, 0.9280000440776348, 0.0, 0.0, 0.0, 0.0, 0.0, 1.6506685954816325E9, 0.0, 2022-04-22 18:03:15.481
22.0, 12.128495556302369, 76.53705259319395, -16.421900705434382, 13.441200440749526, 0.41600001975893974, 0.04800000227987766, 0.9280000440776348, 0.0, 0.0, 0.0, 0.0, 0.0, 1.6506685954816325E9, 0.0, 2022-04-22 18:03:15.481
23.0, 18.44518658146262, 82.53959202207625, -2.7525663673877716, 17.932820287533104, 0.41600001975893974, 0.04800000227987766, 0.9280000440776348, 0.0, 0.0, 0.0, 0.0, 0.0, 1.6506685954952295E9, 0.0, 2022-04-22 18:03:15.495
23.0, 30.338068440556526, 79.67482865601778, -7.528418610803783, 33.54690260253847, 0.41600001975893974, 0.04800000227987766, 0.9280000440776348, 0.0, 0.0, 0.0, 0.0, 0.0, 1.6506685954952295E9, 0.0, 2022-04-22 18:03:15.495
24.0, 18.265671383589506, 72.14267014525831, -14.327556730248034, 10.632535574026406, 0.41600001975893974, 0.04800000227987766, 0.9280000440776348, 0.0, 0.0, 0.0, 0.0, 0.0, 1.6506685955108883E9, 0.0, 2022-04-22 18:03:15.510
24.0, -2.4832935705780983, 57.740315415896475, -16.55279720388353, 4.932928041554987, 0.41600001975893974, 0.04800000227987766, 0.9280000440776348, 0.0, 0.0, 0.0, 0.0, 0.0, 1.6506685955108883E9, 0.0, 2022-04-22 18:03:15.510
25.0, 22.1963062370196, 66.45802221260965, -10.426841076463461, 26.18303958978504, 0.41600001975893974, 0.04800000227987766, 0.9280000440776348, 0.0, 0.0, 0.0, 0.0, 0.0, 1.6506685955116467E9, 0.0, 2022-04-22 18:03:15.511
25.0, 20.86864175274968, 69.9959675706923, -8.108103103935719, 19.181946872733533, 0.41600001975893974, 0.04800000227987766, 0.9280000440776348, 0.0, 0.0, 0.0, 0.0, 0.0, 1.6506685955116467E9, 0.0, 2022-04-22 18:03:15.511
26.0, 13.037291245535016, 58.843585902825, -11.118722568266094, 7.980946505442262, 0.41600001975893974, 0.04800000227987766, 0.9280000440776348, 0.0, 0.0, 0.0, 0.0, 0.0, 1.6506685955252616E9, 0.0, 2022-04-22 18:03:15.525
26.0, 19.993505163118243, 52.75128887500614, -7.311504413373768, 14.346256230026484, 0.41600001975893974, 0.04800000227987766, 0.9280000440776348, 0.0, 0.0, 0.0, 0.0, 0.0, 1.6506685955252616E9, 0.0, 2022-04-22 18:03:15.525
27.0, 28.11282796692103, 63.52594064734876, -8.4484339999035, 28.804709458723664, 0.41600001975893974, 0.04800000227987766, 0.9280000440776348, 0.0, 0.0, 0.0, 0.0, 0.0, 1.650668595540984E9, 0.0, 2022-04-22 18:03:15.540
27.0, 22.622654831968248, 70.34751816652715, -4.8917891420423985, 20.0832627620548, 0.41600001975893974, 0.04800000227987766, 0.9280000440776348, 0.0, 0.0, 0.0, 0.0, 0.0, 1.650668595540984E9, 0.0, 2022-04-22 18:03:15.540
28.0, 16.650034602731466, 51.61435928847641, -13.68803383782506, 9.372189288958907, 0.41600001975893974, 0.04800000227987766, 0.9280000440776348, 0.0, 0.0, 0.0, 0.0, 0.0, 1.6506685955416727E9, 0.0, 2022-04-22 18:03:15.541
28.0, 29.567649049684405, 61.55501337070018, -15.789857612922788, 23.3070565238595, 0.41600001975893974, 0.04800000227987766, 0.9280000440776348, 0.0, 0.0, 0.0, 0.0, 0.0, 1.6506685955416727E9, 0.0, 2022-04-22 18:03:15.541
29.0, 23.29209692403674, 65.89329731930047, -9.615282786078751, 22.248664836399257, 0.41600001975893974, 0.04800000227987766, 0.9280000440776348, 0.0, 0.0, 0.0, 0.0, 0.0, 1.6506685955552332E9, 0.0, 2022-04-22 18:03:15.555
29.0, 12.199553655460477, 62.45258936006576, -12.326710253953934, 11.212220067158341, 0.41600001975893974, 0.04800000227987766, 0.9280000440776348, 0.0, 0.0, 0.0, 0.0, 0.0, 1.6506685955552332E9, 0.0, 2022-04-22 18:03:15.555
30.0, 13.343963041901588, 49.688310811296105, -11.23465946689248, 22.88070792891085, 0.41600001975893974, 0.04800000227987766, 0.944000044837594, 0.0, 0.0, 0.0, 0.0, 0.0, 1.650668595587323E9, 0.0, 2022-04-22 18:03:15.587
30.0, 8.336237001232803, 42.058914901688695, -14.129342032596469, 10.299684477970004, 0.41600001975893974, 0.04800000227987766, 0.944000044837594, 0.0, 0.0, 0.0, 0.0, 0.0, 1.650668595587323E9, 0.0, 2022-04-22 18:03:15.587
31.0, 0.14585609827190638, 49.23952281661332, -17.024024598300457, 1.2192073855549097, 0.41600001975893974, 0.03200000151991844, 0.944000044837594, 0.0, 0.0, 0.0, 0.0, 0.0, 1.6506685955880437E9, 0.0, 2022-04-22 18:03:15.588
31.0, 2.3075182726606727, 38.378853345289826, -22.828349329531193, 12.517445151694119, 0.41600001975893974, 0.03200000151991844, 0.944000044837594, 0.0, 0.0, 0.0, 0.0, 0.0, 1.6506685955880437E9, 0.0, 2022-04-22 18:03:15.588
32.0, 9.346009989269078, 36.71833776496351, -20.1580607611686, 13.467379740439355, 0.41600001975893974, 0.03200000151991844, 0.944000044837594, 0.0, 0.0, 0.0, 0.0, 0.0, 1.6506685955888014E9, 0.0, 2022-04-22 18:03:15.588
32.0, -3.414528659544885, 39.190411635674536, -26.99833778012544, 0.564724893309176, 0.41600001975893974, 0.03200000151991844, 0.944000044837594, 0.0, 0.0, 0.0, 0.0, 0.0, 1.6506685955888014E9, 0.0, 2022-04-22 18:03:15.588
33.0, 3.22753366176039, 44.901238868013024, -7.0646710162982345, 9.035598292946815, 0.41600001975893974, 0.03200000151991844, 0.944000044837594, 0.0, 0.0, 0.0, 0.0, 0.0, 1.6506685955896204E9, 0.0, 2022-04-22 18:03:15.589
33.0, 14.615529026836157, 29.81822234671563, -22.790950329974294, 13.70299343764782, 0.41600001975893974, 0.03200000151991844, 0.944000044837594, 0.0, 0.0, 0.0, 0.0, 0.0, 1.6506685955896204E9, 0.0, 2022-04-22 18:03:15.589
34.0, 13.396321641281247, 32.750303911976516, -13.70673333760351, 12.06117735709995, 0.41600001975893974, 0.03200000151991844, 0.944000044837594, 0.0, 0.0, 0.0, 0.0, 0.0, 1.6506685956003244E9, 0.0, 2022-04-22 18:03:15.600
34.0, 7.928587906062603, 40.68263171799481, -9.749919184483588, 3.141515962779522, 0.41600001975893974, 0.03200000151991844, 0.944000044837594, 0.0, 0.0, 0.0, 0.0, 0.0, 1.6506685956003244E9, 0.0, 2022-04-22 18:03:15.600
35.0, 32.86250091064721, 53.723662863485515, 3.975513652898371, 30.12863404303789, 0.41600001975893974, 0.03200000151991844, 0.944000044837594, 0.0, 0.0, 0.0, 0.0, 0.0, 1.6506685956152785E9, 0.0, 2022-04-22 18:03:15.615
35.0, 22.13272793777287, 46.66647164709866, -1.7353135794401169, 16.87816850002855, 0.41600001975893974, 0.03200000151991844, 0.944000044837594, 0.0, 0.0, 0.0, 0.0, 0.0, 1.6506685956152785E9, 0.0, 2022-04-22 18:03:15.615
36.0, 20.58440935611725, 58.967002601362765, 3.2088341619819403, 10.591396674513817, 0.41600001975893974, 0.03200000151991844, 0.944000044837594, 0.0, 0.0, 0.0, 0.0, 0.0, 1.6506685956309469E9, 0.0, 2022-04-22 18:03:15.630
36.0, 34.16024619527161, 61.68964976910502, 10.991565969772637, 22.667533631436527, 0.41600001975893974, 0.03200000151991844, 0.944000044837594, 0.0, 0.0, 0.0, 0.0, 0.0, 1.6506685956309469E9, 0.0, 2022-04-22 18:03:15.630
37.0, 43.48755668476224, 72.78219303768128, 15.397168117575347, 42.507702896371484, 0.41600001975893974, 0.03200000151991844, 0.944000044837594, 0.0, 0.0, 0.0, 0.0, 0.0, 1.6506685956316302E9, 0.0, 2022-04-22 18:03:15.631
37.0, 20.58066945616156, 63.61195834632963, 6.870196218602359, 20.775144253857434, 0.41600001975893974, 0.03200000151991844, 0.944000044837594, 0.0, 0.0, 0.0, 0.0, 0.0, 1.6506685956316302E9, 0.0, 2022-04-22 18:03:15.631
38.0, 23.512751021422446, 53.383331967517734, 5.658468632958829, 21.433366646058857, 0.41600001975893974, 0.03200000151991844, 0.944000044837594, 0.0, 0.0, 0.0, 0.0, 0.0, 1.6506685956452868E9, 0.0, 2022-04-22 18:03:15.645
38.0, 36.57622156664729, 54.21732965763658, 6.511165822856128, 32.855021110735834, 0.41600001975893974, 0.03200000151991844, 0.944000044837594, 0.0, 0.0, 0.0, 0.0, 0.0, 1.6506685956452868E9, 0.0, 2022-04-22 18:03:15.645
39.0, 22.061669838614762, 47.59396683610976, -0.45252789463847876, 19.997245063073933, 0.41600001975893974, 0.03200000151991844, 0.944000044837594, 0.0, 0.0, 0.0, 0.0, 0.0, 1.650668595660966E9, 0.0, 2022-04-22 18:03:15.660
39.0, 11.373035765253007, 50.6532049998641, 3.380869559943676, 12.966233146376908, 0.41600001975893974, 0.03200000151991844, 0.944000044837594, 0.0, 0.0, 0.0, 0.0, 0.0, 1.650668595660966E9, 0.0, 2022-04-22 18:03:15.660
40.0, 28.071689067408442, 50.22311650495976, -3.3546902602538466, 28.370881063863635, 0.41600001975893974, 0.03200000151991844, 0.944000044837594, 0.0, 0.0, 0.0, 0.0, 0.0, 1.650668595661677E9, 0.0, 2022-04-22 18:03:15.661
40.0, 25.81652939412743, 50.78410149831325, -1.5483185816556215, 23.78576371818781, 0.41600001975893974, 0.03200000151991844, 0.944000044837594, 0.0, 0.0, 0.0, 0.0, 0.0, 1.650668595661677E9, 0.0, 2022-04-22 18:03:15.661
41.0, 11.67596766166389, 48.15869172941893, 2.6254097688943148, 4.701054244302213, 0.41600001975893974, 0.04800000227987766, 0.944000044837594, 0.0, 0.0, 0.0, 0.0, 0.0, 1.650668595675352E9, 0.0, 2022-04-22 18:03:15.675
41.0, 20.704086154699326, 45.08449396584183, -5.766925731673837, 9.110396292060614, 0.41600001975893974, 0.04800000227987766, 0.944000044837594, 0.0, 0.0, 0.0, 0.0, 0.0, 1.650668595675352E9, 0.0, 2022-04-22 18:03:15.675
42.0, 24.806756406091154, 37.7954289522022, -8.646648697555065, 19.484878769144416, 0.43200002051889896, 0.04800000227987766, 0.944000044837594, 0.0, 0.0, 0.0, 0.0, 0.0, 1.6506685957073903E9, 0.0, 2022-04-22 18:03:15.707
42.0, 17.68972679041326, 34.93440548609942, -12.708180049434304, 7.850050006993115, 0.43200002051889896, 0.04800000227987766, 0.944000044837594, 0.0, 0.0, 0.0, 0.0, 0.0, 1.6506685957073903E9, 0.0, 2022-04-22 18:03:15.707
43.0, 25.37896109931171, 47.694944134913385, 0.8676567897200584, 15.587903015315533, 0.43200002051889896, 0.04800000227987766, 0.944000044837594, 0.0, 0.0, 0.0, 0.0, 0.0, 1.6506685957081146E9, 0.0, 2022-04-22 18:03:15.708
43.0, 28.849588258191943, 36.430365468375385, -4.6486956449225545, 23.045263526961207, 0.43200002051889896, 0.04800000227987766, 0.944000044837594, 0.0, 0.0, 0.0, 0.0, 0.0, 1.6506685957081146E9, 0.0, 2022-04-22 18:03:15.708
44.0, 35.199938382953405, 60.63499798160046, 1.6305963806807995, 21.422146946191788, 0.43200002051889896, 0.04800000227987766, 0.944000044837594, 0.0, 0.0, 0.0, 0.0, 0.0, 1.650668595708768E9, 0.0, 2022-04-22 18:03:15.708
44.0, 34.48561749141663, 67.16860320419073, 17.502731792628765, 26.1979991896078, 0.43200002051889896, 0.04800000227987766, 0.944000044837594, 0.0, 0.0, 0.0, 0.0, 0.0, 1.650668595708768E9, 0.0, 2022-04-22 18:03:15.708
45.0, 47.261115740053356, 54.161231158301234, 19.70927276648581, 37.86274715140462, 0.43200002051889896, 0.04800000227987766, 0.944000044837594, 0.0, 0.0, 0.0, 0.0, 0.0, 1.65066859570955E9, 0.0, 2022-04-22 18:03:15.709
45.0, 22.11776833795011, 38.19559824746102, 8.923401294276118, 20.46099265757948, 0.43200002051889896, 0.04800000227987766, 0.944000044837594, 0.0, 0.0, 0.0, 0.0, 0.0, 1.65066859570955E9, 0.0, 2022-04-22 18:03:15.709
46.0, 9.495605987496674, 21.078076150268316, 10.269765278324485, 0.7143208915367723, 0.43200002051889896, 0.04800000227987766, 0.944000044837594, 0.0, 0.0, 0.0, 0.0, 0.0, 1.6506685957202911E9, 0.0, 2022-04-22 18:03:15.720
46.0, 12.311750654131174, 12.622162350453436, 4.536498646251857, 8.972019993700087, 0.43200002051889896, 0.04800000227987766, 0.944000044837594, 0.0, 0.0, 0.0, 0.0, 0.0, 1.6506685957202911E9, 0.0, 2022-04-22 18:03:15.720
47.0, 12.764278548769653, -5.0900038396939635, 4.304624848999083, 4.098930351436138, 0.43200002051889896, 0.04800000227987766, 0.944000044837594, 0.0, 0.0, 0.0, 0.0, 0.0, 1.6506685957352436E9, 0.0, 2022-04-22 18:03:15.735
47.0, 7.928587906062603, -13.444940340705216, 11.904101558960974, 3.010619464330375, 0.43200002051889896, 0.04800000227987766, 0.944000044837594, 0.0, 0.0, 0.0, 0.0, 0.0, 1.6506685957352436E9, 0.0, 2022-04-22 18:03:15.735
48.0, 4.558938045985997, -9.925694482401013, 12.311750654131174, 6.144655627198517, 0.43200002051889896, 0.04800000227987766, 0.944000044837594, 0.0, 0.0, 0.0, 0.0, 0.0, 1.6506685957508955E9, 0.0, 2022-04-22 18:03:15.750
48.0, 5.4939130349084735, -8.504532499238849, 7.782731807790697, 10.931727570481598, 0.43200002051889896, 0.04800000227987766, 0.944000044837594, 0.0, 0.0, 0.0, 0.0, 0.0, 1.6506685957508955E9, 0.0, 2022-04-22 18:03:15.750
49.0, -1.970927276648581, 0.40764909517019987, 7.790211607702076, 5.153582138940692, 0.43200002051889896, 0.04800000227987766, 0.944000044837594, 0.0, 0.0, 0.0, 0.0, 0.0, 1.6506685957516255E9, 0.0, 2022-04-22 18:03:15.751
49.0, -30.11741434317082, -12.782978048548102, -11.24587916675955, -10.707333573140204, 0.43200002051889896, 0.04800000227987766, 0.944000044837594, 0.0, 0.0, 0.0, 0.0, 0.0, 1.6506685957516255E9, 0.0, 2022-04-22 18:03:15.751
50.0, -11.152381667867303, -5.63976913318038, -2.3561369720846415, 2.864763366058469, 0.43200002051889896, 0.04800000227987766, 0.9280000440776348, 0.0, 0.0, 0.0, 0.0, 0.0, 1.6506685957653017E9, 0.0, 2022-04-22 18:03:15.765
50.0, -15.30741051863879, -21.511904545128345, -12.554844151251018, -7.348903412930667, 0.43200002051889896, 0.04800000227987766, 0.9280000440776348, 0.0, 0.0, 0.0, 0.0, 0.0, 1.6506685957653017E9, 0.0, 2022-04-22 18:03:15.765
51.0, -18.781777577474713, -16.49669870454818, -5.909041929990053, -18.07493648584932, 0.43200002051889896, 0.03200000151991844, 0.9280000440776348, 0.0, 0.0, 0.0, 0.0, 0.0, 1.650668595781153E9, 0.0, 2022-04-22 18:03:15.781
51.0, 3.7174605559557676, -5.834243930876255, 2.0008464762941003, 5.942701029591262, 0.43200002051889896, 0.03200000151991844, 0.9280000440776348, 0.0, 0.0, 0.0, 0.0, 0.0, 1.650668595781153E9, 0.0, 2022-04-22 18:03:15.781
52.0, 3.2237937618047, -11.204740267246962, -5.471473635174334, 7.778991907835007, 0.43200002051889896, 0.03200000151991844, 0.9280000440776348, 0.0, 0.0, 0.0, 0.0, 0.0, 1.6506685957816813E9, 0.0, 2022-04-22 18:03:15.781
52.0, -3.3172912606969476, -4.532758746296167, -4.708534044213593, -0.766679490916431, 0.43200002051889896, 0.03200000151991844, 0.9280000440776348, 0.0, 0.0, 0.0, 0.0, 0.0, 1.6506685957816813E9, 0.0, 2022-04-22 18:03:15.781
53.0, -2.853543666191399, -15.341069618239999, -13.497298940084875, -7.25166601408273, 0.43200002051889896, 0.03200000151991844, 0.9280000440776348, 0.0, 0.0, 0.0, 0.0, 0.0, 1.650668595795216E9, 0.0, 2022-04-22 18:03:15.795
53.0, 2.333697572350502, -17.36061559431255, -13.429980740882456, -0.1047171987593174, 0.43200002051889896, 0.03200000151991844, 0.9280000440776348, 0.0, 0.0, 0.0, 0.0, 0.0, 1.650668595795216E9, 0.0, 2022-04-22 18:03:15.795
54.0, 8.291358201764524, -2.258899573236704, 4.543978446163237, 7.289065013639629, 0.43200002051889896, 0.03200000151991844, 0.9280000440776348, 0.0, 0.0, 0.0, 0.0, 0.0, 1.650668595827314E9, 0.0, 2022-04-22 18:03:15.827
54.0, -6.316691025160253, -19.189426672644913, -3.61648325715214, -9.708780284970999, 0.43200002051889896, 0.03200000151991844, 0.9280000440776348, 0.0, 0.0, 0.0, 0.0, 0.0, 1.650668595827314E9, 0.0, 2022-04-22 18:03:15.827
55.0, 6.593443621881306, -6.933774517849088, -1.20424778573215, 3.1190765630453825, 0.43200002051889896, 0.03200000151991844, 0.9280000440776348, 0.0, 0.0, 0.0, 0.0, 0.0, 1.6506685958280177E9, 0.0, 2022-04-22 18:03:15.828
55.0, 11.006525569595397, 2.251419773325324, 1.5894574811682105, 9.951873782090843, 0.43200002051889896, 0.03200000151991844, 0.9280000440776348, 0.0, 0.0, 0.0, 0.0, 0.0, 1.6506685958280177E9, 0.0, 2022-04-22 18:03:15.828
56.0, 1.7166140796616673, 6.7804386196658015, 4.177468250505626, 6.7392997201532125, 0.43200002051889896, 0.03200000151991844, 0.9280000440776348, 0.0, 0.0, 0.0, 0.0, 0.0, 1.6506685958287523E9, 0.0, 2022-04-22 18:03:15.828
56.0, 2.7563062673434615, 1.5595382815226912, 5.202200838364661, 2.1205232748761773, 0.43200002051889896, 0.03200000151991844, 0.9280000440776348, 0.0, 0.0, 0.0, 0.0, 0.0, 1.6506685958287523E9, 0.0, 2022-04-22 18:03:15.828
57.0, -3.9680338529869914, -11.948980358429253, -4.510319346562028, -1.5034397821873426, 0.43200002051889896, 0.03200000151991844, 0.9280000440776348, 0.0, 0.0, 0.0, 0.0, 0.0, 1.6506685958295107E9, 0.0, 2022-04-22 18:03:15.829
57.0, -4.4056021478027105, 3.739899955689907, 6.010019228793681, 1.2229472855105996, 0.43200002051889896, 0.03200000151991844, 0.9280000440776348, 0.0, 0.0, 0.0, 0.0, 0.0, 1.6506685958295107E9, 0.0, 2022-04-22 18:03:15.829
58.0, 0.7778991907835007, 10.367002677172422, 6.3802693244069815, 5.789365131407976, 0.43200002051889896, 0.03200000151991844, 0.9280000440776348, 0.0, 0.0, 0.0, 0.0, 0.0, 1.6506685958404195E9, 0.0, 2022-04-22 18:03:15.840
58.0, 10.176267779432237, 1.8175913784652948, -0.4338283948600292, 14.559430527500808, 0.43200002051889896, 0.03200000151991844, 0.9280000440776348, 0.0, 0.0, 0.0, 0.0, 0.0, 1.6506685958404195E9, 0.0, 2022-04-22 18:03:15.840
59.0, 8.964540193788707, 3.822177754715085, 2.169141974300146, 5.407895335927606, 0.43200002051889896, 0.03200000151991844, 0.9280000440776348, 0.0, 0.0, 0.0, 0.0, 0.0, 1.650668595855297E9, 0.0, 2022-04-22 18:03:15.855
59.0, -1.3388841841369867, -4.499099646694958, -7.65557520929724, -7.045971516519785, 0.43200002051889896, 0.03200000151991844, 0.9280000440776348, 0.0, 0.0, 0.0, 0.0, 0.0, 1.650668595855297E9, 0.0, 2022-04-22 18:03:15.855
60.0, 5.998799528926611, 3.066717963665724, -23.164940325543284, 7.951027305796742, 0.43200002051889896, 0.03200000151991844, 0.9280000440776348, 0.0, 0.0, 0.0, 0.0, 0.0, 1.6506685958709452E9, 0.0, 2022-04-22 18:03:15.870
60.0, 11.204740267246962, 9.413328188471496, -10.984086169861257, 3.9979530526325107, 0.43200002051889896, 0.03200000151991844, 0.9280000440776348, 0.0, 0.0, 0.0, 0.0, 0.0, 1.6506685958709452E9, 0.0, 2022-04-22 18:03:15.870
61.0, -5.422854935750365, 1.9971065763384104, -16.51165830437094, -6.645802221260965, 0.43200002051889896, 0.04800000227987766, 0.9280000440776348, 0.0, 0.0, 0.0, 0.0, 0.0, 1.6506685958716676E9, 0.0, 2022-04-22 18:03:15.871
61.0, 7.449880711734295, 8.07070410437882, -2.6702885683625937, 3.8820161540061235, 0.43200002051889896, 0.04800000227987766, 0.9280000440776348, 0.0, 0.0, 0.0, 0.0, 0.0, 1.6506685958716676E9, 0.0, 2022-04-22 18:03:15.871
62.0, -0.12715659849345684, -4.289665249176323, -15.31863021850586, 4.644955744966865, 0.43200002051889896, 0.04800000227987766, 0.9280000440776348, 0.0, 0.0, 0.0, 0.0, 0.0, 1.6506685958853233E9, 0.0, 2022-04-22 18:03:15.885
62.0, 1.3762831836938858, 20.94343975186348, -5.882862630300224, -0.6208233926445246, 0.43200002051889896, 0.04800000227987766, 0.9280000440776348, 0.0, 0.0, 0.0, 0.0, 0.0, 1.6506685958853233E9, 0.0, 2022-04-22 18:03:15.885
63.0, 8.82242399547249, 26.59442858491093, -0.11967679858207703, 7.767772207967937, 0.43200002051889896, 0.04800000227987766, 0.9280000440776348, 0.0, 0.0, 0.0, 0.0, 0.0, 1.65066859590074E9, 0.0, 2022-04-22 18:03:15.900
63.0, 11.859222759492695, 22.50297803338617, -1.1144901867955923, 19.33528277091682, 0.43200002051889896, 0.04800000227987766, 0.9280000440776348, 0.0, 0.0, 0.0, 0.0, 0.0, 1.65066859590074E9, 0.0, 2022-04-22 18:03:15.900
64.0, -0.19821469765156507, 20.47221235744655, -6.193274326622486, 6.3391304248943925, 0.43200002051889896, 0.04800000227987766, 0.9280000440776348, 0.0, 0.0, 0.0, 0.0, 0.0, 1.6506685959159415E9, 0.0, 2022-04-22 18:03:15.915
64.0, -0.11593689862638712, 13.156968044117093, -9.480646387673914, -6.918814918026328, 0.43200002051889896, 0.04800000227987766, 0.9280000440776348, 0.0, 0.0, 0.0, 0.0, 0.0, 1.6506685959159415E9, 0.0, 2022-04-22 18:03:15.915
65.0, 26.298976488411427, 36.53134276717901, 4.5701577458530664, 24.844155405648053, 0.43200002051889896, 0.04800000227987766, 0.9280000440776348, 0.0, 0.0, 0.0, 0.0, 0.0, 1.650668595916653E9, 0.0, 2022-04-22 18:03:15.916
65.0, 23.28087722416967, 29.272196953184903, -4.772112343460321, 23.628687920048833, 0.43200002051889896, 0.04800000227987766, 0.9280000440776348, 0.0, 0.0, 0.0, 0.0, 0.0, 1.650668595916653E9, 0.0, 2022-04-22 18:03:15.916
66.0, 11.230919566936791, 22.761031130328774, -17.525171192362905, 8.07070410437882, 0.43200002051889896, 0.04800000227987766, 0.9280000440776348, 0.0, 0.0, 0.0, 0.0, 0.0, 1.6506685959309108E9, 0.0, 2022-04-22 18:03:15.930
66.0, 29.01788375619799, 34.89700648654252, -3.695021156221628, 23.482831821776927, 0.43200002051889896, 0.04800000227987766, 0.9280000440776348, 0.0, 0.0, 0.0, 0.0, 0.0, 1.6506685959309108E9, 0.0, 2022-04-22 18:03:15.930
67.0, 24.690819507464767, 16.84824930038303, -0.03739899955689907, 20.771404353901744, 0.43200002051889896, 0.04800000227987766, 0.9280000440776348, 0.0, 0.0, 0.0, 0.0, 0.0, 1.6506685959316485E9, 0.0, 2022-04-22 18:03:15.931
67.0, 8.44469409994781, -1.8624701779335737, -12.281831454485655, 0.3291111961007118, 0.43200002051889896, 0.04800000227987766, 0.9280000440776348, 0.0, 0.0, 0.0, 0.0, 0.0, 1.6506685959316485E9, 0.0, 2022-04-22 18:03:15.931
68.0, 14.331296630203724, 2.00458637624979, -5.003986140713096, 10.85318967141211, 0.43200002051889896, 0.04800000227987766, 0.9280000440776348, 0.0, 0.0, 0.0, 0.0, 0.0, 1.650668595945295E9, 0.0, 2022-04-22 18:03:15.945
68.0, 17.121261997148395, -14.555690627545118, -7.853789906948805, 11.369295865297318, 0.43200002051889896, 0.04800000227987766, 0.9280000440776348, 0.0, 0.0, 0.0, 0.0, 0.0, 1.650668595945295E9, 0.0, 2022-04-22 18:03:15.945
69.0, 7.9061485063284636, -12.827856848016381, 6.081077327951789, 1.7951519787311554, 0.43200002051889896, 0.04800000227987766, 0.9280000440776348, 0.0, 0.0, 0.0, 0.0, 0.0, 1.6506685959609303E9, 0.0, 2022-04-22 18:03:15.960
69.0, 3.0367987640202045, -13.179407443851233, 4.319584448821843, 2.8385840663686395, 0.43200002051889896, 0.04800000227987766, 0.9280000440776348, 0.0, 0.0, 0.0, 0.0, 0.0, 1.6506685959609303E9, 0.0, 2022-04-22 18:03:15.960
70.0, 20.47221235744655, -2.1055636750534177, 7.087110416032374, 19.862608664669096, 0.43200002051889896, 0.04800000227987766, 0.9280000440776348, 0.0, 0.0, 0.0, 0.0, 0.0, 1.6506685959616702E9, 0.0, 2022-04-22 18:03:15.961
70.0, 7.528418610803783, -10.367002677172422, 3.3247710606083274, 10.381962276995182, 0.43200002051889896, 0.04800000227987766, 0.9280000440776348, 0.0, 0.0, 0.0, 0.0, 0.0, 1.6506685959616702E9, 0.0, 2022-04-22 18:03:15.961
71.0, 2.3149980725720525, -10.314644077792764, -0.1047171987593174, -6.133435927331448, 0.43200002051889896, 0.03200000151991844, 0.9280000440776348, 0.0, 0.0, 0.0, 0.0, 0.0, 1.650668595975264E9, 0.0, 2022-04-22 18:03:15.975
71.0, 17.203539796173573, -15.587903015315533, 1.0696113873273134, 6.518645622767508, 0.43200002051889896, 0.03200000151991844, 0.9280000440776348, 0.0, 0.0, 0.0, 0.0, 0.0, 1.650668595975264E9, 0.0, 2022-04-22 18:03:15.975
72.0, 1.1593689862638712, -29.78830314707011, -13.609495938755572, 2.2775990730151534, 0.43200002051889896, 0.03200000151991844, 0.9280000440776348, 0.0, 0.0, 0.0, 0.0, 0.0, 1.650668595991002E9, 0.0, 2022-04-22 18:03:15.991
72.0, -13.912427835166454, -20.752704854123294, -8.41851480025798, -8.246479402296245, 0.43200002051889896, 0.03200000151991844, 0.9280000440776348, 0.0, 0.0, 0.0, 0.0, 0.0, 1.650668595991002E9, 0.0, 2022-04-22 18:03:15.991
73.0, -3.010619464330375, -8.164201603271067, 4.218607150018215, 1.7240938795730472, 0.43200002051889896, 0.03200000151991844, 0.9280000440776348, 0.0, 0.0, 0.0, 0.0, 0.0, 1.6506685959916613E9, 0.0, 2022-04-22 18:03:15.991
73.0, 6.514905722811818, -16.642554802820086, -5.2246402380988, 5.7744055315852165, 0.43200002051889896, 0.03200000151991844, 0.9280000440776348, 0.0, 0.0, 0.0, 0.0, 0.0, 1.6506685959916613E9, 0.0, 2022-04-22 18:03:15.991
74.0, 5.471473635174334, -15.161554420366883, -4.543978446163237, -5.938961129635572, 0.43200002051889896, 0.03200000151991844, 0.9280000440776348, 0.0, 0.0, 0.0, 0.0, 0.0, 1.6506685960052366E9, 0.0, 2022-04-22 18:03:16.005
74.0, 7.031011916697025, -2.1093035750091076, 5.9352212296798825, -5.033905340358615, 0.43200002051889896, 0.03200000151991844, 0.9280000440776348, 0.0, 0.0, 0.0, 0.0, 0.0, 1.6506685960052366E9, 0.0, 2022-04-22 18:03:16.005
75.0, 12.917614446952939, -2.902162365615368, -1.8063716785982251, 8.489572899416089, 0.43200002051889896, 0.03200000151991844, 0.9280000440776348, 0.0, 0.0, 0.0, 0.0, 0.0, 1.6506685960209122E9, 0.0, 2022-04-22 18:03:16.020
75.0, 4.790811843238771, -6.02123892866075, -6.193274326622486, 4.345763748511672, 0.43200002051889896, 0.03200000151991844, 0.9280000440776348, 0.0, 0.0, 0.0, 0.0, 0.0, 1.6506685960209122E9, 0.0, 2022-04-22 18:03:16.020
76.0, -8.160461703315377, -8.0407849047333, -9.043078092858195, -11.896621759049594, 0.43200002051889896, 0.03200000151991844, 0.9280000440776348, 0.0, 0.0, 0.0, 0.0, 0.0, 1.650668596021639E9, 0.0, 2022-04-22 18:03:16.021
76.0, -4.506579446606338, -9.65642168559134, -10.527818375267088, -5.478953435085714, 0.43200002051889896, 0.03200000151991844, 0.9280000440776348, 0.0, 0.0, 0.0, 0.0, 0.0, 1.650668596021639E9, 0.0, 2022-04-22 18:03:16.021
77.0, 5.370496336370707, -1.8325509782880545, -6.44384762365371, -0.40390919521450996, 0.43200002051889896, 0.03200000151991844, 0.9280000440776348, 0.0, 0.0, 0.0, 0.0, 0.0, 1.650668596035262E9, 0.0, 2022-04-22 18:03:16.035
77.0, 0.362770295701921, 5.22838013805449, -0.9835936883464456, -4.82073104288429, 0.43200002051889896, 0.03200000151991844, 0.9280000440776348, 0.0, 0.0, 0.0, 0.0, 0.0, 1.650668596035262E9, 0.0, 2022-04-22 18:03:16.035
78.0, -2.651589068584144, -0.09349749889224768, -7.109549815766513, -11.26831856649369, 0.43200002051889896, 0.03200000151991844, 0.9280000440776348, 0.0, 0.0, 0.0, 0.0, 0.0, 1.6506685960509665E9, 0.0, 2022-04-22 18:03:16.050
78.0, 13.886248535476625, 5.961400529369712, 2.2252404736354947, 12.786717948503792, 0.43200002051889896, 0.03200000151991844, 0.9280000440776348, 0.0, 0.0, 0.0, 0.0, 0.0, 1.6506685960509665E9, 0.0, 2022-04-22 18:03:16.050
79.0, 0.34781069587916136, -3.4369680592790246, -5.321877636946738, -9.757398984394968, 0.43200002051889896, 0.03200000151991844, 0.9280000440776348, 0.0, 0.0, 0.0, 0.0, 0.0, 1.6506685960516675E9, 0.0, 2022-04-22 18:03:16.051
79.0, -2.980700264684856, -3.8932358538731933, -2.449634470976889, -5.62106963340193, 0.43200002051889896, 0.03200000151991844, 0.9280000440776348, 0.0, 0.0, 0.0, 0.0, 0.0, 1.6506685960516675E9, 0.0, 2022-04-22 18:03:16.051
80.0, 7.397522112354636, -5.879122730344534, -5.538791834376752, 6.114736427552998, 0.43200002051889896, 0.03200000151991844, 0.9280000440776348, 0.0, 0.0, 0.0, 0.0, 0.0, 1.6506685960652928E9, 0.0, 2022-04-22 18:03:16.065
80.0, 6.3391304248943925, 0.9723739884793758, -3.698761056177318, 6.241893026046455, 0.43200002051889896, 0.03200000151991844, 0.9280000440776348, 0.0, 0.0, 0.0, 0.0, 0.0, 1.6506685960652928E9, 0.0, 2022-04-22 18:03:16.065
81.0, -6.881415918469429, -2.6067102691158652, -4.626256245188415, -11.743285860866308, 0.43200002051889896, 0.04800000227987766, 0.9280000440776348, 0.0, 0.0, 0.0, 0.0, 0.0, 1.6506685960808833E9, 0.0, 2022-04-22 18:03:16.080
81.0, 0.45252789463847876, -11.197260467335582, -16.410681005567312, -2.1915813740342855, 0.43200002051889896, 0.04800000227987766, 0.9280000440776348, 0.0, 0.0, 0.0, 0.0, 0.0, 1.6506685960808833E9, 0.0, 2022-04-22 18:03:16.080
82.0, 6.44384762365371, -11.496452463790774, -16.350842606276274, 1.9597075767815113, 0.41600001975893974, 0.04800000227987766, 0.9280000440776348, 0.0, 0.0, 0.0, 0.0, 0.0, 1.6506685960816383E9, 0.0, 2022-04-22 18:03:16.081
82.0, 3.6501423567533493, 1.5071796821430326, -6.84775681886822, 1.9858868764713407, 0.41600001975893974, 0.04800000227987766, 0.9280000440776348, 0.0, 0.0, 0.0, 0.0, 0.0, 1.6506685960816383E9, 0.0, 2022-04-22 18:03:16.081
83.0, 10.06033088080585, 7.737853008322418, -1.4174220832064748, -2.8348441664129496, 0.41600001975893974, 0.04800000227987766, 0.9280000440776348, 0.0, 0.0, 0.0, 0.0, 0.0, 1.6506685960952616E9, 0.0, 2022-04-22 18:03:16.095
83.0, 18.50876488070935, 2.9470411650836468, -6.82905731908977, 12.162154655903578, 0.41600001975893974, 0.04800000227987766, 0.9280000440776348, 0.0, 0.0, 0.0, 0.0, 0.0, 1.6506685960952616E9, 0.0, 2022-04-22 18:03:16.095
84.0, 4.858130042441189, -8.246479402296245, -12.809157348237932, -3.4481877591460943, 0.41600001975893974, 0.04800000227987766, 0.9280000440776348, 0.0, 0.0, 0.0, 0.0, 0.0, 1.6506685961109746E9, 0.0, 2022-04-22 18:03:16.110
84.0, 9.701300485059619, 4.704794144257903, -9.963093481957912, -5.8155444310978055, 0.41600001975893974, 0.04800000227987766, 0.9280000440776348, 0.0, 0.0, 0.0, 0.0, 0.0, 1.6506685961109746E9, 0.0, 2022-04-22 18:03:16.110
85.0, 12.827856848016381, -10.097729880362749, -16.347102706320584, 5.564971134066582, 0.41600001975893974, 0.04800000227987766, 0.9280000440776348, 0.0, 0.0, 0.0, 0.0, 0.0, 1.6506685961116235E9, 0.0, 2022-04-22 18:03:16.111
85.0, 14.765125025063753, -5.826764130964875, -6.4999461229890585, 6.391489024274051, 0.41600001975893974, 0.04800000227987766, 0.9280000440776348, 0.0, 0.0, 0.0, 0.0, 0.0, 1.6506685961116235E9, 0.0, 2022-04-22 18:03:16.111
86.0, 4.671135044656694, -3.5641246577724814, -2.7226471677422523, -2.902162365615368, 0.41600001975893974, 0.04800000227987766, 0.9280000440776348, 0.0, 0.0, 0.0, 0.0, 0.0, 1.650668596125261E9, 0.0, 2022-04-22 18:03:16.125
86.0, 9.162754891440272, 0.19073489774018526, -4.734713343903422, 7.128249315544963, 0.41600001975893974, 0.04800000227987766, 0.9280000440776348, 0.0, 0.0, 0.0, 0.0, 0.0, 1.650668596125261E9, 0.0, 2022-04-22 18:03:16.125
87.0, 17.611188891343772, 5.722046932205558, -7.921108106151223, 15.049357421696186, 0.41600001975893974, 0.04800000227987766, 0.9280000440776348, 0.0, 0.0, 0.0, 0.0, 0.0, 1.6506685961409824E9, 0.0, 2022-04-22 18:03:16.140
87.0, 2.9283416653051972, 5.523832234553993, -4.81325124297291, -6.42514812387526, 0.41600001975893974, 0.04800000227987766, 0.9280000440776348, 0.0, 0.0, 0.0, 0.0, 0.0, 1.6506685961409824E9, 0.0, 2022-04-22 18:03:16.140
88.0, 14.320076930336654, 14.249018831178546, -2.8273643665015697, 5.497652934864163, 0.41600001975893974, 0.04800000227987766, 0.9280000440776348, 0.0, 0.0, 0.0, 0.0, 0.0, 1.6506685961416993E9, 0.0, 2022-04-22 18:03:16.141
88.0, 20.453512857668102, 8.175421303138137, -5.662208532914519, 16.739792201668024, 0.41600001975893974, 0.04800000227987766, 0.9280000440776348, 0.0, 0.0, 0.0, 0.0, 0.0, 1.6506685961416993E9, 0.0, 2022-04-22 18:03:16.141
89.0, 7.038491716608405, 8.164201603271067, -6.963693717494607, -0.2056944975629449, 0.41600001975893974, 0.04800000227987766, 0.9280000440776348, 0.0, 0.0, 0.0, 0.0, 0.0, 1.6506685961552472E9, 0.0, 2022-04-22 18:03:16.155
89.0, -3.9343747533857822, 0.8489572899416089, -10.950427070260048, -9.794797983951867, 0.41600001975893974, 0.04800000227987766, 0.9280000440776348, 0.0, 0.0, 0.0, 0.0, 0.0, 1.6506685961552472E9, 0.0, 2022-04-22 18:03:16.155
90.0, 18.714459378272295, 12.356629453599453, 0.6619622921571136, 22.56281643267721, 0.41600001975893974, 0.04800000227987766, 0.8800000417977571, 0.0, 0.0, 0.0, 0.0, 0.0, 1.6506685961709452E9, 0.0, 2022-04-22 18:03:16.170
90.0, 15.356029218062758, 13.463639840483665, 4.588857245631516, 15.370988817885518, 0.41600001975893974, 0.04800000227987766, 0.8800000417977571, 0.0, 0.0, 0.0, 0.0, 0.0, 1.6506685961709452E9, 0.0, 2022-04-22 18:03:16.170
91.0, -2.6291496688500047, 5.587410533800721, -8.07444400433451, -4.4878799468278885, 0.41600001975893974, 0.0, 0.8800000417977571, 0.0, 0.0, 0.0, 0.0, 0.0, 1.6506685961716616E9, 0.0, 2022-04-22 18:03:16.171
91.0, 13.553397439420223, 13.209326643496752, -2.1841015741229057, 14.05828393343836, 0.41600001975893974, 0.0, 0.8800000417977571, 0.0, 0.0, 0.0, 0.0, 0.0, 1.6506685961716616E9, 0.0, 2022-04-22 18:03:16.171
92.0, 10.785871472209692, 8.773805296048522, -11.971419758163393, 13.998445534147322, 0.43200002051889896, 0.0, 0.8800000417977571, 0.0, 0.0, 0.0, 0.0, 0.0, 1.6506685961852603E9, 0.0, 2022-04-22 18:03:16.185
92.0, 3.4855867587029934, 21.029457450844347, -5.0526048401370645, 9.473166587762535, 0.43200002051889896, 0.0, 0.8800000417977571, 0.0, 0.0, 0.0, 0.0, 0.0, 1.6506685961852603E9, 0.0, 2022-04-22 18:03:16.185
93.0, 2.1616621743887663, 2.4458945710211992, -10.924247770570219, 5.108703339472413, 0.43200002051889896, 0.0, 0.8800000417977571, 0.0, 0.0, 0.0, 0.0, 0.0, 1.6506685962009213E9, 0.0, 2022-04-22 18:03:16.200
93.0, 15.801077312789857, 7.756552508100867, -8.321277401410043, 16.975405898876488, 0.43200002051889896, 0.0, 0.8800000417977571, 0.0, 0.0, 0.0, 0.0, 0.0, 1.6506685962009213E9, 0.0, 2022-04-22 18:03:16.200
94.0, 3.2088341619819403, 8.986979593522847, -8.384855700656772, 10.385702176950872, 0.43200002051889896, 0.0, 0.8800000417977571, 0.0, 0.0, 0.0, 0.0, 0.0, 1.6506685962016356E9, 0.0, 2022-04-22 18:03:16.201
94.0, 2.01206617616117, 16.369542106054723, -6.728080020286143, 1.0733512872830033, 0.43200002051889896, 0.0, 0.8800000417977571, 0.0, 0.0, 0.0, 0.0, 0.0, 1.6506685962016356E9, 0.0, 2022-04-22 18:03:16.201
95.0, 20.453512857668102, 23.445432822220027, -4.233566749840975, 22.0841092383489, 0.43200002051889896, 0.0, 0.8800000417977571, 0.0, 0.0, 0.0, 0.0, 0.0, 1.650668596215309E9, 0.0, 2022-04-22 18:03:16.215
95.0, 7.62939590960741, 9.039338192902505, -7.711673708632588, 9.918214682489634, 0.43200002051889896, 0.0, 0.8800000417977571, 0.0, 0.0, 0.0, 0.0, 0.0, 1.650668596215309E9, 0.0, 2022-04-22 18:03:16.215
96.0, -8.545671398751438, -0.17203539796173573, -13.441200440749526, -6.5784840220585465, 0.43200002051889896, 0.0, 0.8800000417977571, 0.0, 0.0, 0.0, 0.0, 0.0, 1.6506685962309391E9, 0.0, 2022-04-22 18:03:16.230
96.0, 15.053097321651876, 17.566310091875494, 4.177468250505626, 13.347702941857278, 0.43200002051889896, 0.0, 0.8800000417977571, 0.0, 0.0, 0.0, 0.0, 0.0, 1.6506685962309391E9, 0.0, 2022-04-22 18:03:16.230
97.0, 13.467379740439355, 9.966833381913602, -3.055498263798654, 13.31030394230038, 0.43200002051889896, 0.0, 0.8800000417977571, 0.0, 0.0, 0.0, 0.0, 0.0, 1.650668596231676E9, 0.0, 2022-04-22 18:03:16.231
97.0, 5.078784139826894, 19.7878106655553, -5.419115035794675, 4.44300114735961, 0.43200002051889896, 0.0, 0.8800000417977571, 0.0, 0.0, 0.0, 0.0, 0.0, 1.650668596231676E9, 0.0, 2022-04-22 18:03:16.231
98.0, 9.936914182268083, 25.74547129496932, 0.6096036927774549, 10.984086169861257, 0.43200002051889896, 0.0, 0.8800000417977571, 0.0, 0.0, 0.0, 0.0, 0.0, 1.650668596245283E9, 0.0, 2022-04-22 18:03:16.245
98.0, 17.398014593869448, 17.207279696129262, 0.7105809915810823, 19.582116167992353, 0.43200002051889896, 0.0, 0.8800000417977571, 0.0, 0.0, 0.0, 0.0, 0.0, 1.650668596245283E9, 0.0, 2022-04-22 18:03:16.245
99.0, 14.91472102329135, 15.610342415049672, 4.678614844568074, 15.015698322094977, 0.43200002051889896, 0.0, 0.8800000417977571, 0.0, 0.0, 0.0, 0.0, 0.0, 1.6506685962609203E9, 0.0, 2022-04-22 18:03:16.260
99.0, 6.720600220374763, 20.442293157801032, -2.6665486684069037, -2.7488264674320817, 0.43200002051889896, 0.0, 0.8800000417977571, 0.0, 0.0, 0.0, 0.0, 0.0, 1.6506685962609203E9, 0.0, 2022-04-22 18:03:16.260
100.0, 18.329249682836235, 15.165294320322573, -0.7405001912266016, 17.32695649471134, 0.43200002051889896, 0.0, 0.8320000395178795, 0.0, 0.0, 0.0, 0.0, 0.0, 1.6506685962616565E9, 0.0, 2022-04-22 18:03:16.261
100.0, 14.679107326082885, 17.72338589001447, 0.3029318964108825, 17.7121661901474, 0.43200002051889896, 0.0, 0.8320000395178795, 0.0, 0.0, 0.0, 0.0, 0.0, 1.6506685962616565E9, 0.0, 2022-04-22 18:03:16.261
0.0, -127.10797979403287, -218.13340481556952, -122.21432070201263, -126.96399364573881, 0.43200002051889896, 0.0, 0.8320000395178795, 0.0, 0.0, 0.0, 0.0, 0.0, 1.6506685962759318E9, 0.0, 2022-04-22 18:03:16.275
1.0, -132.33262003213167, -232.93966874014586, -132.11009598476812, -129.81005751201883, 0.43200002051889896, 0.0, 0.8320000395178795, 0.0, 0.0, 0.0, 0.0, 0.0, 1.6506685962766771E9, 0.0, 2022-04-22 18:03:16.276
1.0, -125.20437071658671, -235.90914930496365, -138.83443610509858, -120.82681781845167, 0.43200002051889896, 0.0, 0.8320000395178795, 0.0, 0.0, 0.0, 0.0, 0.0, 1.6506685962766771E9, 0.0, 2022-04-22 18:03:16.276
2.0, -133.93703711312264, -229.5214001806453, -130.35608290554956, -126.189834354911, 0.43200002051889896, 0.0, 0.8320000395178795, 0.0, 0.0, 0.0, 0.0, 0.0, 1.6506685962903318E9, 0.0, 2022-04-22 18:03:16.290
2.0, -131.5098420418799, -238.42610197514296, -129.0471179210581, -129.59314331458881, 0.43200002051889896, 0.0, 0.8320000395178795, 0.0, 0.0, 0.0, 0.0, 0.0, 1.6506685962903318E9, 0.0, 2022-04-22 18:03:16.290
3.0, -114.81492863968015, -235.30328551214188, -114.1099574980326, -113.93792210007086, 0.43200002051889896, 0.0, 0.8320000395178795, 0.0, 0.0, 0.0, 0.0, 0.0, 1.6506685963059893E9, 0.0, 2022-04-22 18:03:16.305
3.0, -125.27916871570051, -244.95596729777753, -124.72753347223625, -123.60930338548496, 0.43200002051889896, 0.0, 0.8320000395178795, 0.0, 0.0, 0.0, 0.0, 0.0, 1.6506685963059893E9, 0.0, 2022-04-22 18:03:16.305
4.0, -132.32888013217598, -246.25371258240193, -128.7067870250903, -138.39312791032717, 0.43200002051889896, 0.0, 0.8320000395178795, 0.0, 0.0, 0.0, 0.0, 0.0, 1.6506685963067164E9, 0.0, 2022-04-22 18:03:16.306
4.0, -114.18662544712424, -234.035459427163, -118.27994594862685, -118.80353194242343, 0.43200002051889896, 0.0, 0.8320000395178795, 0.0, 0.0, 0.0, 0.0, 0.0, 1.6506685963067164E9, 0.0, 2022-04-22 18:03:16.306
5.0, -121.6888647582382, -235.30328551214188, -129.36874931724742, -131.38455539336428, 0.43200002051889896, 0.0, 0.8320000395178795, 0.0, 0.0, 0.0, 0.0, 0.0, 1.6506685963202813E9, 0.0, 2022-04-22 18:03:16.320
5.0, -129.4304576665163, -236.27565950062126, -128.336536929477, -131.23495939513668, 0.43200002051889896, 0.0, 0.8320000395178795, 0.0, 0.0, 0.0, 0.0, 0.0, 1.6506685963202813E9, 0.0, 2022-04-22 18:03:16.320
6.0, -124.99493631906807, -238.27650597691536, -132.7159597775899, -132.38684858148918, 0.43200002051889896, 0.0, 0.8320000395178795, 0.0, 0.0, 0.0, 0.0, 0.0, 1.6506685963359625E9, 0.0, 2022-04-22 18:03:16.335
6.0, -125.70551731064916, -236.30557870026678, -130.03445150936022, -127.86904943501577, 0.43200002051889896, 0.0, 0.8320000395178795, 0.0, 0.0, 0.0, 0.0, 0.0, 1.6506685963359625E9, 0.0, 2022-04-22 18:03:16.335
7.0, -132.22790283337235, -242.3043782291934, -126.75829914817587, -135.9734126389958, 0.43200002051889896, 0.0, 0.8320000395178795, 0.0, 0.0, 0.0, 0.0, 0.0, 1.6506685963367054E9, 0.0, 2022-04-22 18:03:16.336
7.0, -140.18640993908048, -240.0005998564884, -132.24847228312865, -134.99355885060504, 0.43200002051889896, 0.0, 0.8320000395178795, 0.0, 0.0, 0.0, 0.0, 0.0, 1.6506685963367054E9, 0.0, 2022-04-22 18:03:16.336
8.0, -124.49378972500563, -239.46953406278044, -134.18574046017602, -121.68325490830466, 0.43200002051889896, 0.0, 0.8320000395178795, 0.0, 0.0, 0.0, 0.0, 0.0, 1.6506685963502364E9, 0.0, 2022-04-22 18:03:16.350
8.0, -126.87984589673579, -236.45517469849437, -127.99994593346491, -124.72753347223625, 0.43200002051889896, 0.0, 0.8320000395178795, 0.0, 0.0, 0.0, 0.0, 0.0, 1.6506685963502364E9, 0.0, 2022-04-22 18:03:16.350
9.0, -132.74026912730187, -247.09145017247647, -128.75540572451428, -136.86724872840568, 0.43200002051889896, 0.0, 0.8320000395178795, 0.0, 0.0, 0.0, 0.0, 0.0, 1.6506685963823607E9, 0.0, 2022-04-22 18:03:16.382
9.0, -118.81288169231266, -222.3669715654105, -113.01042691105977, -104.67418990982696, 0.43200002051889896, 0.0, 0.8320000395178795, 0.0, 0.0, 0.0, 0.0, 0.0, 1.6506685963823607E9, 0.0, 2022-04-22 18:03:16.382
10.0, -110.75339728780091, -213.9484567651525, -115.86397057725117, -112.7411541142501, 0.43200002051889896, 0.0, 0.8480000402778387, 0.0, 0.0, 0.0, 0.0, 0.0, 1.6506685963830447E9, 0.0, 2022-04-22 18:03:16.383
10.0, -117.9826239021495, -213.08453987538815, -117.91343575296924, -128.16076163155958, 0.43200002051889896, 0.0, 0.8480000402778387, 0.0, 0.0, 0.0, 0.0, 0.0, 1.6506685963830447E9, 0.0, 2022-04-22 18:03:16.383
11.0, -119.0933741889894, -217.37046522460878, -119.30093863653019, -120.13493632664904, 0.43200002051889896, 0.0, 0.8480000402778387, 0.0, 0.0, 0.0, 0.0, 0.0, 1.650668596383822E9, 0.0, 2022-04-22 18:03:16.383
11.0, -114.4222391443327, -216.2110962383449, -118.25376664893702, -110.53835304034874, 0.43200002051889896, 0.0, 0.8480000402778387, 0.0, 0.0, 0.0, 0.0, 0.0, 1.650668596383822E9, 0.0, 2022-04-22 18:03:16.383
12.0, -127.48196978960186, -217.06005352828652, -120.05265852762386, -130.12794900825247, 0.43200002051889896, 0.0, 0.8480000402778387, 0.0, 0.0, 0.0, 0.0, 0.0, 1.650668596384484E9, 0.0, 2022-04-22 18:03:16.384
12.0, -128.3159674797207, -230.2544205719605, -116.08462467463687, -124.2974449773319, 0.43200002051889896, 0.0, 0.8480000402778387, 0.0, 0.0, 0.0, 0.0, 0.0, 1.650668596384484E9, 0.0, 2022-04-22 18:03:16.384
13.0, -118.26311639882624, -238.57195807341486, -124.60785667365417, -114.76817989023402, 0.43200002051889896, 0.0, 0.8480000402778387, 0.0, 0.0, 0.0, 0.0, 0.0, 1.65066859639525E9, 0.0, 2022-04-22 18:03:16.395
13.0, -121.25877626333386, -233.30617893580347, -123.69158118451014, -121.94878780515864, 0.43200002051889896, 0.0, 0.8480000402778387, 0.0, 0.0, 0.0, 0.0, 0.0, 1.65066859639525E9, 0.0, 2022-04-22 18:03:16.395
14.0, -136.8803383782506, -239.57051136158407, -127.88400903483853, -129.7090802132152, 0.43200002051889896, 0.0, 0.8480000402778387, 0.0, 0.0, 0.0, 0.0, 0.0, 1.650668596410244E9, 0.0, 2022-04-22 18:03:16.410
14.0, -116.60260081849992, -231.33899155911058, -114.63354349182919, -114.61110409209505, 0.43200002051889896, 0.0, 0.8480000402778387, 0.0, 0.0, 0.0, 0.0, 0.0, 1.650668596410244E9, 0.0, 2022-04-22 18:03:16.410
15.0, -120.6491725705564, -231.87379725277424, -112.11285092169419, -114.6672025914304, 0.43200002051889896, 0.0, 0.8480000402778387, 0.0, 0.0, 0.0, 0.0, 0.0, 1.6506685964259403E9, 0.0, 2022-04-22 18:03:16.425
15.0, -132.40741803124547, -226.89973031170666, -120.97267391672358, -128.51231222739443, 0.43200002051889896, 0.0, 0.8480000402778387, 0.0, 0.0, 0.0, 0.0, 0.0, 1.6506685964259403E9, 0.0, 2022-04-22 18:03:16.425
16.0, -118.89515949133784, -222.90551715902984, -119.32711793622002, -115.17582898540422, 0.43200002051889896, 0.0, 0.8480000402778387, 0.0, 0.0, 0.0, 0.0, 0.0, 1.6506685964266443E9, 0.0, 2022-04-22 18:03:16.426
16.0, -108.00457082036883, -223.9564290465787, -126.88171584671363, -112.19512872071937, 0.43200002051889896, 0.0, 0.8480000402778387, 0.0, 0.0, 0.0, 0.0, 0.0, 1.6506685964266443E9, 0.0, 2022-04-22 18:03:16.426
17.0, -109.96427839715034, -216.60752563364804, -116.49227376980707, -115.85649077733979, 0.43200002051889896, 0.0, 0.8480000402778387, 0.0, 0.0, 0.0, 0.0, 0.0, 1.6506685964403107E9, 0.0, 2022-04-22 18:03:16.440
17.0, -113.85751425102353, -220.6615771856159, -114.85419758921489, -118.72499404335395, 0.43200002051889896, 0.0, 0.8480000402778387, 0.0, 0.0, 0.0, 0.0, 0.0, 1.6506685964403107E9, 0.0, 2022-04-22 18:03:16.440
18.0, -98.28831073548645, -200.6493725227192, -110.94226223556325, -104.15808371594176, 0.43200002051889896, 0.0, 0.8480000402778387, 0.0, 0.0, 0.0, 0.0, 0.0, 1.650668596455969E9, 0.0, 2022-04-22 18:03:16.455
18.0, -102.64529418386519, -206.34524015523493, -124.04313178034499, -114.21467469679192, 0.43200002051889896, 0.0, 0.8480000402778387, 0.0, 0.0, 0.0, 0.0, 0.0, 1.650668596455969E9, 0.0, 2022-04-22 18:03:16.455
19.0, -111.22088478226215, -200.24920322746038, -114.06507869856432, -110.54209294030443, 0.43200002051889896, 0.0, 0.8480000402778387, 0.0, 0.0, 0.0, 0.0, 0.0, 1.6506685964566417E9, 0.0, 2022-04-22 18:03:16.456
19.0, -114.15296634752303, -217.72201582044363, -125.41567506408319, -121.62715640896931, 0.43200002051889896, 0.0, 0.8480000402778387, 0.0, 0.0, 0.0, 0.0, 0.0, 1.6506685964566417E9, 0.0, 2022-04-22 18:03:16.456
20.0, -116.25105022266507, -218.8813848067075, -120.6323430207558, -117.62546345638111, 0.43200002051889896, 0.0, 0.9120000433176756, 0.0, 0.0, 0.0, 0.0, 0.0, 1.6506685964702916E9, 0.0, 2022-04-22 18:03:16.470
20.0, -124.13849922921509, -208.2151901330799, -123.42604828765616, -126.58626375021413, 0.43200002051889896, 0.0, 0.9120000433176756, 0.0, 0.0, 0.0, 0.0, 0.0, 1.6506685964702916E9, 0.0, 2022-04-22 18:03:16.470
21.0, -113.63312025368214, -210.44791040662676, -119.24110023723915, -115.9238089765422, 0.43200002051889896, 0.0, 0.9120000433176756, 0.0, 0.0, 0.0, 0.0, 0.0, 1.6506685964859183E9, 0.0, 2022-04-22 18:03:16.485
21.0, -119.92363197915256, -216.1811770386994, -121.5186993102543, -114.12865699781105, 0.43200002051889896, 0.0, 0.9120000433176756, 0.0, 0.0, 0.0, 0.0, 0.0, 1.6506685964859183E9, 0.0, 2022-04-22 18:03:16.485
22.0, -108.99938420858234, -193.62210050597787, -104.87614450743422, -113.53775280481204, 0.4480000212788582, 0.0, 0.9120000433176756, 0.0, 0.0, 0.0, 0.0, 0.0, 1.6506685964866505E9, 0.0, 2022-04-22 18:03:16.486
22.0, -124.04126183036715, -215.42571724765003, -116.16690247366205, -121.36536341207102, 0.4480000212788582, 0.0, 0.9120000433176756, 0.0, 0.0, 0.0, 0.0, 0.0, 1.6506685964866505E9, 0.0, 2022-04-22 18:03:16.486
23.0, -99.61597521975636, -198.00900315400213, -96.18461701041088, -104.64427071018144, 0.4480000212788582, 0.0, 0.9120000433176756, 0.0, 0.0, 0.0, 0.0, 0.0, 1.6506685965002542E9, 0.0, 2022-04-22 18:03:16.500
23.0, -108.68523261230439, -206.0273486590013, -104.54329341137782, -106.25990749103948, 0.4480000212788582, 0.0, 0.9120000433176756, 0.0, 0.0, 0.0, 0.0, 0.0, 1.6506685965002542E9, 0.0, 2022-04-22 18:03:16.500
24.0, -134.96176970098168, -241.12256984319538, -127.82417063554749, -136.18658693647012, 0.4480000212788582, 0.0, 0.9120000433176756, 0.0, 0.0, 0.0, 0.0, 0.0, 1.650668596515915E9, 0.0, 2022-04-22 18:03:16.515
24.0, -113.66677935328335, -236.77306619472802, -127.1509886435233, -119.17378203803673, 0.4480000212788582, 0.0, 0.9120000433176756, 0.0, 0.0, 0.0, 0.0, 0.0, 1.650668596515915E9, 0.0, 2022-04-22 18:03:16.515
25.0, -122.28350885119289, -238.62057677283883, -125.96170045761392, -121.85903020622209, 0.4480000212788582, 0.0, 0.9120000433176756, 0.0, 0.0, 0.0, 0.0, 0.0, 1.6506685965166445E9, 0.0, 2022-04-22 18:03:16.516
25.0, -125.82145420927554, -243.05609812028706, -129.32761041773483, -130.76373200071976, 0.4480000212788582, 0.0, 0.9120000433176756, 0.0, 0.0, 0.0, 0.0, 0.0, 1.6506685965166445E9, 0.0, 2022-04-22 18:03:16.516
26.0, -108.94702560920268, -217.08249292802066, -117.34123105974868, -115.27680628420785, 0.4480000212788582, 0.0, 0.9120000433176756, 0.0, 0.0, 0.0, 0.0, 0.0, 1.6506685965302467E9, 0.0, 2022-04-22 18:03:16.530
26.0, -101.70283939503133, -219.50594809930772, -118.82597134215757, -111.87723722448573, 0.4480000212788582, 0.0, 0.9120000433176756, 0.0, 0.0, 0.0, 0.0, 0.0, 1.6506685965302467E9, 0.0, 2022-04-22 18:03:16.530
27.0, -130.05128105916083, -243.95367410965264, -128.7441860246472, -136.7849709293805, 0.4480000212788582, 0.0, 0.9120000433176756, 0.0, 0.0, 0.0, 0.0, 0.0, 1.65066859654592E9, 0.0, 2022-04-22 18:03:16.545
27.0, -128.2860482800752, -250.5957364309579, -139.384201398585, -139.41038069827482, 0.4480000212788582, 0.0, 0.9120000433176756, 0.0, 0.0, 0.0, 0.0, 0.0, 1.65066859654592E9, 0.0, 2022-04-22 18:03:16.545
28.0, -111.47893787920475, -232.64047674369067, -131.9717196864076, -119.88062312966213, 0.4480000212788582, 0.0, 0.9120000433176756, 0.0, 0.0, 0.0, 0.0, 0.0, 1.6506685965466611E9, 0.0, 2022-04-22 18:03:16.546
28.0, -120.78754886891693, -220.6989761851728, -123.97207368118688, -131.0816234969534, 0.4480000212788582, 0.0, 0.9120000433176756, 0.0, 0.0, 0.0, 0.0, 0.0, 1.6506685965466611E9, 0.0, 2022-04-22 18:03:16.546
29.0, -128.1364522818476, -224.34537864197046, -125.76348575996235, -128.6394688258879, 0.4480000212788582, 0.0, 0.9120000433176756, 0.0, 0.0, 0.0, 0.0, 0.0, 1.6506685965602777E9, 0.0, 2022-04-22 18:03:16.560
29.0, -110.52152349054813, -224.5136741399765, -130.0381914093159, -117.76009985478595, 0.4480000212788582, 0.0, 0.9120000433176756, 0.0, 0.0, 0.0, 0.0, 0.0, 1.6506685965602777E9, 0.0, 2022-04-22 18:03:16.560
30.0, -104.42922646272928, -219.2553748022765, -124.86590977059677, -111.60796442767605, 0.4480000212788582, 0.0, 0.944000044837594, 0.0, 0.0, 0.0, 0.0, 0.0, 1.650668596575932E9, 0.0, 2022-04-22 18:03:16.575
30.0, -121.3560136621818, -223.72455524932593, -133.10116947302595, -125.77844535978511, 0.4480000212788582, 0.0, 0.944000044837594, 0.0, 0.0, 0.0, 0.0, 0.0, 1.650668596575932E9, 0.0, 2022-04-22 18:03:16.575
31.0, -111.0151902846992, -222.20989576727152, -126.98643304547295, -119.19996133772656, 0.4480000212788582, 0.03200000151991844, 0.944000044837594, 0.0, 0.0, 0.0, 0.0, 0.0, 1.6506685965766587E9, 0.0, 2022-04-22 18:03:16.576
31.0, -110.87307408638299, -220.14921089168638, -127.02009214507416, -116.50723336962983, 0.4480000212788582, 0.03200000151991844, 0.944000044837594, 0.0, 0.0, 0.0, 0.0, 0.0, 1.6506685965766587E9, 0.0, 2022-04-22 18:03:16.576
32.0, -120.36120027396828, -220.40726398862898, -133.7481721653603, -126.01405905699357, 0.43200002051889896, 0.03200000151991844, 0.944000044837594, 0.0, 0.0, 0.0, 0.0, 0.0, 1.6506685965904775E9, 0.0, 2022-04-22 18:03:16.590
32.0, -118.19579819962382, -218.8851247066632, -134.96363965095952, -121.80293170688674, 0.43200002051889896, 0.03200000151991844, 0.944000044837594, 0.0, 0.0, 0.0, 0.0, 0.0, 1.6506685965904775E9, 0.0, 2022-04-22 18:03:16.590
33.0, -125.13705251738429, -245.06442439649254, -145.0538897314109, -127.38286244077608, 0.43200002051889896, 0.03200000151991844, 0.944000044837594, 0.0, 0.0, 0.0, 0.0, 0.0, 1.6506685966059818E9, 0.0, 2022-04-22 18:03:16.605
33.0, -131.62951884046197, -250.93980722688138, -152.04376274859533, -140.85398208117113, 0.43200002051889896, 0.03200000151991844, 0.944000044837594, 0.0, 0.0, 0.0, 0.0, 0.0, 1.6506685966059818E9, 0.0, 2022-04-22 18:03:16.605
34.0, -123.58499403577298, -226.9259096113965, -136.95700632734224, -134.0099651622586, 0.43200002051889896, 0.03200000151991844, 0.944000044837594, 0.0, 0.0, 0.0, 0.0, 0.0, 1.650668596606693E9, 0.0, 2022-04-22 18:03:16.606
34.0, -117.38423990923911, -225.71792192570865, -141.79643687000498, -122.43871469935402, 0.43200002051889896, 0.03200000151991844, 0.944000044837594, 0.0, 0.0, 0.0, 0.0, 0.0, 1.650668596606693E9, 0.0, 2022-04-22 18:03:16.606
35.0, -110.9067331859842, -214.68895695637912, -124.18150807870552, -117.68904175562784, 0.43200002051889896, 0.03200000151991844, 0.944000044837594, 0.0, 0.0, 0.0, 0.0, 0.0, 1.6506685966202788E9, 0.0, 2022-04-22 18:03:16.620
35.0, -123.2072641402483, -217.71827592048794, -123.36994978832081, -127.1883876430802, 0.43200002051889896, 0.03200000151991844, 0.944000044837594, 0.0, 0.0, 0.0, 0.0, 0.0, 1.6506685966202788E9, 0.0, 2022-04-22 18:03:16.620
36.0, -124.2095573283732, -242.33055752888322, -135.62560194311664, -132.43546728091314, 0.43200002051889896, 0.03200000151991844, 0.944000044837594, 0.0, 0.0, 0.0, 0.0, 0.0, 1.6506685966359563E9, 0.0, 2022-04-22 18:03:16.635
36.0, -109.14898020680994, -222.06029976904392, -123.91971508180723, -111.11803753348067, 0.43200002051889896, 0.03200000151991844, 0.944000044837594, 0.0, 0.0, 0.0, 0.0, 0.0, 1.6506685966359563E9, 0.0, 2022-04-22 18:03:16.635
37.0, -117.97514410223812, -207.81876073777676, -121.7804923071526, -121.4850402106531, 0.43200002051889896, 0.03200000151991844, 0.944000044837594, 0.0, 0.0, 0.0, 0.0, 0.0, 1.6506685966366901E9, 0.0, 2022-04-22 18:03:16.636
37.0, -123.65605213493109, -221.2113424791023, -124.65647537307814, -122.83140419470146, 0.43200002051889896, 0.03200000151991844, 0.944000044837594, 0.0, 0.0, 0.0, 0.0, 0.0, 1.6506685966366901E9, 0.0, 2022-04-22 18:03:16.636
38.0, -121.63650615885854, -230.067425574176, -140.39023448666558, -122.56587129784748, 0.43200002051889896, 0.03200000151991844, 0.944000044837594, 0.0, 0.0, 0.0, 0.0, 0.0, 1.6506685966502504E9, 0.0, 2022-04-22 18:03:16.650
38.0, -124.2432164279744, -226.97078841086477, -130.6702345018275, -129.97835301002488, 0.43200002051889896, 0.03200000151991844, 0.944000044837594, 0.0, 0.0, 0.0, 0.0, 0.0, 1.6506685966502504E9, 0.0, 2022-04-22 18:03:16.650
39.0, -112.54854926653206, -202.56046140007675, -114.84671778930351, -120.35559042403474, 0.43200002051889896, 0.03200000151991844, 0.944000044837594, 0.0, 0.0, 0.0, 0.0, 0.0, 1.650668596665932E9, 0.0, 2022-04-22 18:03:16.665
39.0, -113.80141575168818, -220.03327399306, -126.84805674711242, -120.8529971181415, 0.43200002051889896, 0.03200000151991844, 0.944000044837594, 0.0, 0.0, 0.0, 0.0, 0.0, 1.650668596665932E9, 0.0, 2022-04-22 18:03:16.665
40.0, -117.3169217100367, -217.13485152740031, -122.77156579541042, -119.7048478317447, 0.43200002051889896, 0.03200000151991844, 0.9600000455975533, 0.0, 0.0, 0.0, 0.0, 0.0, 1.6506685966666536E9, 0.0, 2022-04-22 18:03:16.666
40.0, -119.97599057853222, -203.43933788966388, -106.51048078807071, -123.42978818761185, 0.43200002051889896, 0.03200000151991844, 0.9600000455975533, 0.0, 0.0, 0.0, 0.0, 0.0, 1.6506685966666536E9, 0.0, 2022-04-22 18:03:16.666
41.0, -101.65796059556305, -195.85856067948043, -103.59709872258827, -110.17932264460251, 0.43200002051889896, 0.04800000227987766, 0.9600000455975533, 0.0, 0.0, 0.0, 0.0, 0.0, 1.6506685966802788E9, 0.0, 2022-04-22 18:03:16.680
41.0, -118.97743729036301, -224.37529784161597, -119.18126183794811, -114.76817989023402, 0.43200002051889896, 0.04800000227987766, 0.9600000455975533, 0.0, 0.0, 0.0, 0.0, 0.0, 1.6506685966802788E9, 0.0, 2022-04-22 18:03:16.680
42.0, -109.5715889018029, -208.5779604287818, -106.61893788678572, -118.65767584415153, 0.43200002051889896, 0.04800000227987766, 0.9600000455975533, 0.0, 0.0, 0.0, 0.0, 0.0, 1.6506685966959543E9, 0.0, 2022-04-22 18:03:16.695
42.0, -107.92603292129934, -211.34548639599234, -112.64017681544647, -120.43786822305992, 0.43200002051889896, 0.04800000227987766, 0.9600000455975533, 0.0, 0.0, 0.0, 0.0, 0.0, 1.6506685966959543E9, 0.0, 2022-04-22 18:03:16.695
43.0, -102.98188517987728, -215.474335947074, -121.05121181579307, -108.88905715988949, 0.43200002051889896, 0.04800000227987766, 0.9600000455975533, 0.0, 0.0, 0.0, 0.0, 0.0, 1.650668596696679E9, 0.0, 2022-04-22 18:03:16.696
43.0, -110.13257389515638, -217.64347792137414, -117.40480935899541, -116.82138496590778, 0.43200002051889896, 0.04800000227987766, 0.9600000455975533, 0.0, 0.0, 0.0, 0.0, 0.0, 1.650668596696679E9, 0.0, 2022-04-22 18:03:16.696
44.0, -115.85088092740625, -214.32992656063288, -129.7801383123733, -124.92574816988781, 0.43200002051889896, 0.04800000227987766, 0.9600000455975533, 0.0, 0.0, 0.0, 0.0, 0.0, 1.6506685967102427E9, 0.0, 2022-04-22 18:03:16.710
44.0, -110.95909178536385, -220.07815279252827, -129.80631761206314, -116.42121567064896, 0.43200002051889896, 0.04800000227987766, 0.9600000455975533, 0.0, 0.0, 0.0, 0.0, 0.0, 1.6506685967102427E9, 0.0, 2022-04-22 18:03:16.710
45.0, -110.58510178979486, -220.33620588947088, -127.83539033541456, -115.90884937671944, 0.43200002051889896, 0.04800000227987766, 0.9600000455975533, 0.0, 0.0, 0.0, 0.0, 0.0, 1.650668596725921E9, 0.0, 2022-04-22 18:03:16.725
45.0, -122.26106945145875, -221.16272377967834, -128.54597132699564, -126.5974834500812, 0.43200002051889896, 0.04800000227987766, 0.9600000455975533, 0.0, 0.0, 0.0, 0.0, 0.0, 1.650668596725921E9, 0.0, 2022-04-22 18:03:16.725
46.0, -114.88972663879395, -225.3327122302726, -128.9685800219886, -120.83803751831874, 0.43200002051889896, 0.04800000227987766, 0.9600000455975533, 0.0, 0.0, 0.0, 0.0, 0.0, 1.650668596726653E9, 0.0, 2022-04-22 18:03:16.726
46.0, -110.61876088939607, -221.60403197444975, -122.96978049306199, -123.84865698264912, 0.43200002051889896, 0.04800000227987766, 0.9600000455975533, 0.0, 0.0, 0.0, 0.0, 0.0, 1.650668596726653E9, 0.0, 2022-04-22 18:03:16.726
47.0, -119.02231608983129, -232.20664834883064, -125.55405136244372, -130.4869794039987, 0.43200002051889896, 0.04800000227987766, 0.9600000455975533, 0.0, 0.0, 0.0, 0.0, 0.0, 1.6506685967403347E9, 0.0, 2022-04-22 18:03:16.740
47.0, -119.26166968699545, -218.0698265163228, -117.83489785389975, -119.85818372992799, 0.43200002051889896, 0.04800000227987766, 0.9600000455975533, 0.0, 0.0, 0.0, 0.0, 0.0, 1.6506685967403347E9, 0.0, 2022-04-22 18:03:16.740
48.0, -99.17092712502927, -215.4331970475614, -103.85889171948656, -106.97048848262057, 0.43200002051889896, 0.04800000227987766, 0.9600000455975533, 0.0, 0.0, 0.0, 0.0, 0.0, 1.6506685967559474E9, 0.0, 2022-04-22 18:03:16.755
48.0, -120.14054617658257, -220.64661758579314, -116.27161967242137, -120.48648692248389, 0.43200002051889896, 0.04800000227987766, 0.9600000455975533, 0.0, 0.0, 0.0, 0.0, 0.0, 1.6506685967559474E9, 0.0, 2022-04-22 18:03:16.755
49.0, -125.33152731508017, -228.79959948919713, -120.7819390189834, -130.38974200515077, 0.43200002051889896, 0.04800000227987766, 0.9600000455975533, 0.0, 0.0, 0.0, 0.0, 0.0, 1.6506685967567005E9, 0.0, 2022-04-22 18:03:16.756
49.0, -105.33054235205054, -212.68437058012933, -117.48708715802059, -104.75272780889645, 0.43200002051889896, 0.04800000227987766, 0.9600000455975533, 0.0, 0.0, 0.0, 0.0, 0.0, 1.6506685967567005E9, 0.0, 2022-04-22 18:03:16.756
50.0, -101.5308039970696, -216.9515964295715, -114.59988439222798, -104.42735651275143, 0.43200002051889896, 0.04800000227987766, 0.944000044837594, 0.0, 0.0, 0.0, 0.0, 0.0, 1.6506685967702596E9, 0.0, 2022-04-22 18:03:16.770
50.0, -113.14319335948676, -217.79681381955743, -111.4808078291826, -120.82307791849598, 0.43200002051889896, 0.04800000227987766, 0.944000044837594, 0.0, 0.0, 0.0, 0.0, 0.0, 1.6506685967702596E9, 0.0, 2022-04-22 18:03:16.770
51.0, -105.02013065572828, -215.35091924853623, -117.56936495704576, -115.19826838513836, 0.43200002051889896, 0.04800000227987766, 0.944000044837594, 0.0, 0.0, 0.0, 0.0, 0.0, 1.6506685967859204E9, 0.0, 2022-04-22 18:03:16.785
51.0, -103.90564046893269, -216.60004583373666, -115.79291247809306, -107.28090017894283, 0.43200002051889896, 0.04800000227987766, 0.944000044837594, 0.0, 0.0, 0.0, 0.0, 0.0, 1.6506685967859204E9, 0.0, 2022-04-22 18:03:16.785
52.0, -109.04052310809493, -203.6151131875813, -107.21358197974041, -115.63957657990977, 0.43200002051889896, 0.04800000227987766, 0.944000044837594, 0.0, 0.0, 0.0, 0.0, 0.0, 1.6506685967866464E9, 0.0, 2022-04-22 18:03:16.786
52.0, -104.6050017606467, -189.9382990496233, -110.57575203990564, -116.49227376980707, 0.43200002051889896, 0.04800000227987766, 0.944000044837594, 0.0, 0.0, 0.0, 0.0, 0.0, 1.6506685967866464E9, 0.0, 2022-04-22 18:03:16.786
53.0, -100.65192750748247, -198.77568264491856, -114.02019989909604, -107.71846847375855, 0.43200002051889896, 0.04800000227987766, 0.944000044837594, 0.0, 0.0, 0.0, 0.0, 0.0, 1.650668596800251E9, 0.0, 2022-04-22 18:03:16.800
53.0, -107.55952272564173, -196.67385886982083, -106.97796828253195, -109.83899174863473, 0.43200002051889896, 0.04800000227987766, 0.944000044837594, 0.0, 0.0, 0.0, 0.0, 0.0, 1.650668596800251E9, 0.0, 2022-04-22 18:03:16.800
54.0, -108.4234396154061, -195.75384348072112, -98.84742577886209, -112.80473241349682, 0.43200002051889896, 0.04800000227987766, 0.944000044837594, 0.0, 0.0, 0.0, 0.0, 0.0, 1.6506685968159947E9, 0.0, 2022-04-22 18:03:16.815
54.0, -103.06416297890246, -222.18745636753738, -105.57176589919254, -104.24784131487831, 0.43200002051889896, 0.04800000227987766, 0.944000044837594, 0.0, 0.0, 0.0, 0.0, 0.0, 1.6506685968159947E9, 0.0, 2022-04-22 18:03:16.815
55.0, -102.0132510913536, -216.9964752290398, -106.16267009219155, -107.42301637725905, 0.43200002051889896, 0.04800000227987766, 0.944000044837594, 0.0, 0.0, 0.0, 0.0, 0.0, 1.6506685968167148E9, 0.0, 2022-04-22 18:03:16.816
55.0, -125.03233531862497, -230.00384727492929, -106.6974757858552, -130.72259310120717, 0.43200002051889896, 0.04800000227987766, 0.944000044837594, 0.0, 0.0, 0.0, 0.0, 0.0, 1.6506685968167148E9, 0.0, 2022-04-22 18:03:16.816
56.0, -123.7607693336904, -238.40366257540882, -118.2986454484053, -123.64296248508617, 0.43200002051889896, 0.04800000227987766, 0.944000044837594, 0.0, 0.0, 0.0, 0.0, 0.0, 1.6506685968302355E9, 0.0, 2022-04-22 18:03:16.830
56.0, -102.26008448842913, -207.08200044650584, -104.49841461190954, -102.41155043663457, 0.43200002051889896, 0.04800000227987766, 0.944000044837594, 0.0, 0.0, 0.0, 0.0, 0.0, 1.6506685968302355E9, 0.0, 2022-04-22 18:03:16.830
57.0, -121.25129646342248, -219.49098849948496, -117.50952655775473, -124.26752577768639, 0.43200002051889896, 0.04800000227987766, 0.944000044837594, 0.0, 0.0, 0.0, 0.0, 0.0, 1.6506685968459678E9, 0.0, 2022-04-22 18:03:16.845
57.0, -114.65785284154117, -214.9507499532774, -119.94794132886454, -125.71486706053838, 0.43200002051889896, 0.04800000227987766, 0.944000044837594, 0.0, 0.0, 0.0, 0.0, 0.0, 1.6506685968459678E9, 0.0, 2022-04-22 18:03:16.845
58.0, -110.31956889294088, -225.05595963355154, -119.89932262944058, -114.334351495374, 0.43200002051889896, 0.04800000227987766, 0.944000044837594, 0.0, 0.0, 0.0, 0.0, 0.0, 1.650668596846686E9, 0.0, 2022-04-22 18:03:16.846
58.0, -122.04041535407305, -228.60512469150126, -129.29021141817793, -125.78966505965218, 0.43200002051889896, 0.04800000227987766, 0.944000044837594, 0.0, 0.0, 0.0, 0.0, 0.0, 1.650668596846686E9, 0.0, 2022-04-22 18:03:16.846
59.0, -119.62443998269737, -210.73962260317057, -119.34955733595416, -132.38310868153349, 0.43200002051889896, 0.04800000227987766, 0.944000044837594, 0.0, 0.0, 0.0, 0.0, 0.0, 1.6506685968602283E9, 0.0, 2022-04-22 18:03:16.860
59.0, -113.26661005802453, -220.0257941931486, -123.95337418140844, -121.70195440808311, 0.43200002051889896, 0.04800000227987766, 0.944000044837594, 0.0, 0.0, 0.0, 0.0, 0.0, 1.6506685968602283E9, 0.0, 2022-04-22 18:03:16.860
60.0, -110.55892249010503, -222.06029976904392, -117.5170063576661, -110.95348193543032, 0.43200002051889896, 0.04800000227987766, 0.9280000440776348, 0.0, 0.0, 0.0, 0.0, 0.0, 1.6506685968759744E9, 0.0, 2022-04-22 18:03:16.875
60.0, -116.37072702124715, -215.15644445084035, -120.98389361659065, -118.9643476405181, 0.43200002051889896, 0.04800000227987766, 0.9280000440776348, 0.0, 0.0, 0.0, 0.0, 0.0, 1.6506685968759744E9, 0.0, 2022-04-22 18:03:16.875
61.0, -108.89092710986733, -218.35779881291091, -106.51048078807071, -111.70520182652399, 0.43200002051889896, 0.04800000227987766, 0.9280000440776348, 0.0, 0.0, 0.0, 0.0, 0.0, 1.650668596876698E9, 0.0, 2022-04-22 18:03:16.876
61.0, -103.53539037331939, -213.96341636497527, -110.5533126401715, -103.86637151939794, 0.43200002051889896, 0.04800000227987766, 0.9280000440776348, 0.0, 0.0, 0.0, 0.0, 0.0, 1.650668596876698E9, 0.0, 2022-04-22 18:03:16.876
62.0, -107.11447463091463, -202.6165598994121, -109.06483245780692, -111.61918412754312, 0.43200002051889896, 0.04800000227987766, 0.9280000440776348, 0.0, 0.0, 0.0, 0.0, 0.0, 1.650668596890368E9, 0.0, 2022-04-22 18:03:16.890
62.0, -111.45275857951492, -225.68800272606313, -114.60362429218367, -117.79375895438716, 0.43200002051889896, 0.04800000227987766, 0.9280000440776348, 0.0, 0.0, 0.0, 0.0, 0.0, 1.650668596890368E9, 0.0, 2022-04-22 18:03:16.890
63.0, -101.00347810331732, -222.20615586731583, -119.89932262944058, -110.79266623733565, 0.43200002051889896, 0.04800000227987766, 0.9280000440776348, 0.0, 0.0, 0.0, 0.0, 0.0, 1.6506685969059656E9, 0.0, 2022-04-22 18:03:16.905
63.0, -110.499084090814, -211.5100419940427, -123.33255078876391, -112.00065392302349, 0.43200002051889896, 0.04800000227987766, 0.9280000440776348, 0.0, 0.0, 0.0, 0.0, 0.0, 1.6506685969059656E9, 0.0, 2022-04-22 18:03:16.905
64.0, -110.67485938873142, -207.77762183826417, -120.46404752274975, -112.41578281810507, 0.43200002051889896, 0.04800000227987766, 0.9280000440776348, 0.0, 0.0, 0.0, 0.0, 0.0, 1.6506685969067185E9, 0.0, 2022-04-22 18:03:16.906
64.0, -100.71924570668489, -210.01034211181104, -118.68759504379705, -107.98774127056822, 0.43200002051889896, 0.04800000227987766, 0.9280000440776348, 0.0, 0.0, 0.0, 0.0, 0.0, 1.6506685969067185E9, 0.0, 2022-04-22 18:03:16.906
65.0, -108.25514411740005, -214.9582297531888, -115.39274318283424, -113.01042691105977, 0.43200002051889896, 0.04800000227987766, 0.9280000440776348, 0.0, 0.0, 0.0, 0.0, 0.0, 1.650668596936612E9, 0.0, 2022-04-22 18:03:16.936
65.0, -116.89431301504374, -211.19963029772043, -111.03949963441119, -113.67238920321688, 0.43200002051889896, 0.04800000227987766, 0.9280000440776348, 0.0, 0.0, 0.0, 0.0, 0.0, 1.650668596936612E9, 0.0, 2022-04-22 18:03:16.936
66.0, -102.6041552843526, -202.6502189990133, -102.04878014093265, -103.19692942732945, 0.43200002051889896, 0.04800000227987766, 0.9280000440776348, 0.0, 0.0, 0.0, 0.0, 0.0, 1.6506685969373465E9, 0.0, 2022-04-22 18:03:16.937
66.0, -104.3806077633053, -211.18093079794198, -105.7699805968441, -108.11115796910599, 0.43200002051889896, 0.04800000227987766, 0.9280000440776348, 0.0, 0.0, 0.0, 0.0, 0.0, 1.6506685969373465E9, 0.0, 2022-04-22 18:03:16.937
67.0, -111.8678874745965, -222.92795655876398, -114.43158889422193, -118.42580204689875, 0.43200002051889896, 0.04800000227987766, 0.9280000440776348, 0.0, 0.0, 0.0, 0.0, 0.0, 1.6506685969381258E9, 0.0, 2022-04-22 18:03:16.938
67.0, -111.84170817490667, -215.13400505110621, -104.79012680845335, -117.53570585744455, 0.43200002051889896, 0.04800000227987766, 0.9280000440776348, 0.0, 0.0, 0.0, 0.0, 0.0, 1.6506685969381258E9, 0.0, 2022-04-22 18:03:16.938
68.0, -112.2755365697667, -234.98539401590824, -118.03311255155131, -115.35534418327734, 0.43200002051889896, 0.04800000227987766, 0.9280000440776348, 0.0, 0.0, 0.0, 0.0, 0.0, 1.6506685969503417E9, 0.0, 2022-04-22 18:03:16.950
68.0, -117.96018450241536, -221.67882997356355, -115.60965738026425, -118.66141574410722, 0.43200002051889896, 0.04800000227987766, 0.9280000440776348, 0.0, 0.0, 0.0, 0.0, 0.0, 1.6506685969503417E9, 0.0, 2022-04-22 18:03:16.950
69.0, -117.36928030941635, -207.90477843675762, -123.30263158911839, -121.49252001056448, 0.43200002051889896, 0.04800000227987766, 0.9280000440776348, 0.0, 0.0, 0.0, 0.0, 0.0, 1.6506685969659495E9, 0.0, 2022-04-22 18:03:16.965
69.0, -101.41486709844321, -193.88763340283185, -120.69966121995822, -103.64945732196793, 0.43200002051889896, 0.04800000227987766, 0.9280000440776348, 0.0, 0.0, 0.0, 0.0, 0.0, 1.6506685969659495E9, 0.0, 2022-04-22 18:03:16.965
70.0, -101.36250849906355, -188.21794507000595, -122.47237379895523, -103.27920722635463, 0.43200002051889896, 0.04800000227987766, 0.944000044837594, 0.0, 0.0, 0.0, 0.0, 0.0, 1.6506685969666479E9, 0.0, 2022-04-22 18:03:16.966
70.0, -114.93086553830653, -172.9741128506139, -118.5566985453479, -116.18934187339619, 0.43200002051889896, 0.04800000227987766, 0.944000044837594, 0.0, 0.0, 0.0, 0.0, 0.0, 1.6506685969666479E9, 0.0, 2022-04-22 18:03:16.966
71.0, -118.5398689955473, -182.98956493195146, -129.86989591130987, -119.56273163342848, 0.43200002051889896, 0.06400000303983688, 0.944000044837594, 0.0, 0.0, 0.0, 0.0, 0.0, 1.6506685969802785E9, 0.0, 2022-04-22 18:03:16.980
71.0, -104.30580976419151, -167.61857611406595, -132.00163888605312, -106.87699098372832, 0.43200002051889896, 0.06400000303983688, 0.944000044837594, 0.0, 0.0, 0.0, 0.0, 0.0, 1.6506685969802785E9, 0.0, 2022-04-22 18:03:16.980
72.0, -110.03907639626414, -151.12187740951777, -127.05375124467537, -111.7388609261252, 0.4480000212788582, 0.06400000303983688, 0.944000044837594, 0.0, 0.0, 0.0, 0.0, 0.0, 1.6506685969959257E9, 0.0, 2022-04-22 18:03:16.995
72.0, -119.54216218367219, -161.04757189191878, -131.79594438849017, -122.75286629563197, 0.4480000212788582, 0.06400000303983688, 0.944000044837594, 0.0, 0.0, 0.0, 0.0, 0.0, 1.6506685969959257E9, 0.0, 2022-04-22 18:03:16.995
73.0, -116.85317411553115, -180.50627136137336, -140.13592128967866, -116.42495557060465, 0.4480000212788582, 0.06400000303983688, 0.944000044837594, 0.0, 0.0, 0.0, 0.0, 0.0, 1.6506685969966552E9, 0.0, 2022-04-22 18:03:16.996
73.0, -111.20966508239508, -161.84043068252504, -133.4901190684177, -113.31335880747065, 0.4480000212788582, 0.06400000303983688, 0.944000044837594, 0.0, 0.0, 0.0, 0.0, 0.0, 1.6506685969966552E9, 0.0, 2022-04-22 18:03:16.996
74.0, -124.90143882017583, -176.94962650351226, -138.03409751458094, -122.64814909687266, 0.4480000212788582, 0.06400000303983688, 0.944000044837594, 0.0, 0.0, 0.0, 0.0, 0.0, 1.6506685970102797E9, 0.0, 2022-04-22 18:03:17.010
74.0, -100.62574820779264, -158.79241221863776, -120.0376989278011, -97.72545579215512, 0.4480000212788582, 0.06400000303983688, 0.944000044837594, 0.0, 0.0, 0.0, 0.0, 0.0, 1.6506685970102797E9, 0.0, 2022-04-22 18:03:17.010
75.0, -102.28626378811896, -157.90605592913926, -125.38201596448198, -97.90871088998392, 0.4480000212788582, 0.06400000303983688, 0.944000044837594, 0.0, 0.0, 0.0, 0.0, 0.0, 1.650668597025944E9, 0.0, 2022-04-22 18:03:17.025
75.0, -124.58354732394218, -180.62594815995544, -128.45621372805908, -118.12287015048787, 0.4480000212788582, 0.06400000303983688, 0.944000044837594, 0.0, 0.0, 0.0, 0.0, 0.0, 1.650668597025944E9, 0.0, 2022-04-22 18:03:17.025
76.0, -110.45420529134572, -164.2975449534133, -118.39588284725323, -105.44834920065477, 0.4480000212788582, 0.06400000303983688, 0.944000044837594, 0.0, 0.0, 0.0, 0.0, 0.0, 1.650668597026698E9, 0.0, 2022-04-22 18:03:17.026
76.0, -92.66350120212883, -154.12501707393676, -114.31565199559554, -89.07506719464436, 0.4480000212788582, 0.06400000303983688, 0.944000044837594, 0.0, 0.0, 0.0, 0.0, 0.0, 1.650668597026698E9, 0.0, 2022-04-22 18:03:17.026
77.0, -104.69101945962757, -165.7785453358665, -115.5198997813277, -103.41758352471516, 0.4480000212788582, 0.06400000303983688, 0.944000044837594, 0.0, 0.0, 0.0, 0.0, 0.0, 1.6506685970403693E9, 0.0, 2022-04-22 18:03:17.040
77.0, -106.90878013335168, -172.61508245486766, -117.34871085966006, -102.15723723964766, 0.4480000212788582, 0.06400000303983688, 0.944000044837594, 0.0, 0.0, 0.0, 0.0, 0.0, 1.6506685970403693E9, 0.0, 2022-04-22 18:03:17.040
78.0, -106.20941884163767, -182.69411283545196, -131.28357809456065, -106.39828378940001, 0.4480000212788582, 0.06400000303983688, 0.944000044837594, 0.0, 0.0, 0.0, 0.0, 0.0, 1.6506685970559523E9, 0.0, 2022-04-22 18:03:17.055
78.0, -117.0177297135815, -177.3797149984166, -128.62824912602082, -115.97242767596617, 0.4480000212788582, 0.06400000303983688, 0.944000044837594, 0.0, 0.0, 0.0, 0.0, 0.0, 1.6506685970559523E9, 0.0, 2022-04-22 18:03:17.055
79.0, -123.53637533634901, -184.82211591023952, -130.2700652065687, -108.74320106161758, 0.4480000212788582, 0.06400000303983688, 0.944000044837594, 0.0, 0.0, 0.0, 0.0, 0.0, 1.6506685970566611E9, 0.0, 2022-04-22 18:03:17.056
79.0, -116.88309331517667, -182.18548644147813, -132.39432838140056, -103.45872242422774, 0.4480000212788582, 0.06400000303983688, 0.944000044837594, 0.0, 0.0, 0.0, 0.0, 0.0, 1.6506685970566611E9, 0.0, 2022-04-22 18:03:17.056
80.0, -125.60827991180122, -197.3133817622438, -135.2703114473261, -115.29924568394199, 0.4480000212788582, 0.06400000303983688, 0.8640000410377979, 0.0, 0.0, 0.0, 0.0, 0.0, 1.6506685970702443E9, 0.0, 2022-04-22 18:03:17.070
80.0, -134.5429009059444, -185.3868408035487, -131.75480548897758, -118.76987284282222, 0.4480000212788582, 0.06400000303983688, 0.8640000410377979, 0.0, 0.0, 0.0, 0.0, 0.0, 1.6506685970702443E9, 0.0, 2022-04-22 18:03:17.070
81.0, -141.8057866198942, -213.70162336807698, -139.99754499131814, -121.3728432119824, 0.4480000212788582, 0.06400000303983688, 0.8640000410377979, 0.0, 0.0, 0.0, 0.0, 0.0, 1.650668597085958E9, 0.0, 2022-04-22 18:03:17.085
81.0, -139.83485934324563, -219.0272409049794, -143.09792205458507, -118.83345114206895, 0.4480000212788582, 0.06400000303983688, 0.8640000410377979, 0.0, 0.0, 0.0, 0.0, 0.0, 1.650668597085958E9, 0.0, 2022-04-22 18:03:17.085
82.0, -137.86393206659704, -192.63476691767573, -137.18514022463933, -121.34666391229257, 0.4800000227987766, 0.06400000303983688, 0.8640000410377979, 0.0, 0.0, 0.0, 0.0, 0.0, 1.6506685970866697E9, 0.0, 2022-04-22 18:03:17.086
82.0, -136.19219678640366, -192.836721515283, -133.2657250710763, -124.63029607338831, 0.4800000227987766, 0.06400000303983688, 0.8640000410377979, 0.0, 0.0, 0.0, 0.0, 0.0, 1.6506685970866697E9, 0.0, 2022-04-22 18:03:17.086
83.0, -127.53806828893721, -198.0164829539135, -131.53415139159188, -108.63100406294689, 0.4800000227987766, 0.06400000303983688, 0.8640000410377979, 0.0, 0.0, 0.0, 0.0, 0.0, 1.650668597100304E9, 0.0, 2022-04-22 18:03:17.100
83.0, -130.97129644826055, -194.66927249357104, -127.07619064440951, -121.25316641340032, 0.4800000227987766, 0.06400000303983688, 0.8640000410377979, 0.0, 0.0, 0.0, 0.0, 0.0, 1.650668597100304E9, 0.0, 2022-04-22 18:03:17.100
84.0, -133.89589821361005, -197.17874536383897, -142.76881085848436, -135.62934184307232, 0.4800000227987766, 0.06400000303983688, 0.8640000410377979, 0.0, 0.0, 0.0, 0.0, 0.0, 1.6506685971159377E9, 0.0, 2022-04-22 18:03:17.115
84.0, -130.16721795778722, -202.60908009950072, -143.9356596446596, -128.1495419316925, 0.4800000227987766, 0.06400000303983688, 0.8640000410377979, 0.0, 0.0, 0.0, 0.0, 0.0, 1.6506685971159377E9, 0.0, 2022-04-22 18:03:17.115
85.0, -124.69948422256857, -194.6468330938369, -129.66420141374692, -112.80473241349682, 0.4800000227987766, 0.06400000303983688, 0.8640000410377979, 0.0, 0.0, 0.0, 0.0, 0.0, 1.650668597116644E9, 0.0, 2022-04-22 18:03:17.116
85.0, -136.63724488113075, -200.3875795258209, -139.17850690102205, -129.79509791219607, 0.4800000227987766, 0.06400000303983688, 0.8640000410377979, 0.0, 0.0, 0.0, 0.0, 0.0, 1.650668597116644E9, 0.0, 2022-04-22 18:03:17.116
86.0, -127.60538648813963, -203.77592888567597, -140.8951209806837, -121.4813003106974, 0.4800000227987766, 0.06400000303983688, 0.8640000410377979, 0.0, 0.0, 0.0, 0.0, 0.0, 1.6506685971302483E9, 0.0, 2022-04-22 18:03:17.130
86.0, -134.84957270231098, -225.15319703239948, -144.84071543393657, -123.75141958380118, 0.4800000227987766, 0.06400000303983688, 0.8640000410377979, 0.0, 0.0, 0.0, 0.0, 0.0, 1.6506685971302483E9, 0.0, 2022-04-22 18:03:17.130
87.0, -137.03741417638958, -206.52101545315236, -135.3787685460411, -138.52028450882062, 0.4800000227987766, 0.06400000303983688, 0.8640000410377979, 0.0, 0.0, 0.0, 0.0, 0.0, 1.6506685971459568E9, 0.0, 2022-04-22 18:03:17.145
87.0, -133.19653692189604, -193.80909550376236, -124.50687937485054, -132.77205827692524, 0.4800000227987766, 0.06400000303983688, 0.8640000410377979, 0.0, 0.0, 0.0, 0.0, 0.0, 1.6506685971459568E9, 0.0, 2022-04-22 18:03:17.145
88.0, -136.39041148405522, -208.6190993282944, -137.85084241675213, -122.25919950148091, 0.4800000227987766, 0.06400000303983688, 0.8640000410377979, 0.0, 0.0, 0.0, 0.0, 0.0, 1.6506685971466997E9, 0.0, 2022-04-22 18:03:17.146
88.0, -131.48740264214575, -202.34354720264673, -135.22169274790213, -122.58831069758162, 0.4800000227987766, 0.06400000303983688, 0.8640000410377979, 0.0, 0.0, 0.0, 0.0, 0.0, 1.6506685971466997E9, 0.0, 2022-04-22 18:03:17.146
89.0, -150.23178122006357, -234.20749482512474, -154.17176582338288, -140.84650228125975, 0.4800000227987766, 0.06400000303983688, 0.8640000410377979, 0.0, 0.0, 0.0, 0.0, 0.0, 1.650668597160293E9, 0.0, 2022-04-22 18:03:17.160
89.0, -133.31247382052243, -212.67315088026226, -133.00019217422232, -112.9244092120789, 0.4800000227987766, 0.06400000303983688, 0.8640000410377979, 0.0, 0.0, 0.0, 0.0, 0.0, 1.650668597160293E9, 0.0, 2022-04-22 18:03:17.160
90.0, -129.69973046332598, -196.59532097075135, -123.93467468162999, -101.5476335468702, 0.4800000227987766, 0.06400000303983688, 0.8480000402778387, 0.0, 0.0, 0.0, 0.0, 0.0, 1.6506685971759112E9, 0.0, 2022-04-22 18:03:17.175
90.0, -146.54049996379763, -205.60847986396402, -137.1215619253926, -127.89148883474991, 0.4800000227987766, 0.06400000303983688, 0.8480000402778387, 0.0, 0.0, 0.0, 0.0, 0.0, 1.6506685971759112E9, 0.0, 2022-04-22 18:03:17.175
91.0, -147.9616619469598, -204.03398198261857, -135.3750286460854, -121.4813003106974, 0.4800000227987766, 0.0800000037997961, 0.8480000402778387, 0.0, 0.0, 0.0, 0.0, 0.0, 1.65066859717664E9, 0.0, 2022-04-22 18:03:17.176
91.0, -141.9591225180775, -201.5357288122177, -142.87352805724367, -119.43557503493503, 0.4800000227987766, 0.0800000037997961, 0.8480000402778387, 0.0, 0.0, 0.0, 0.0, 0.0, 1.65066859717664E9, 0.0, 2022-04-22 18:03:17.176
92.0, -140.34348573721945, -204.96521707158536, -141.27659077616408, -129.84371661162004, 0.5120000243186951, 0.0800000037997961, 0.8480000402778387, 0.0, 0.0, 0.0, 0.0, 0.0, 1.6506685971903827E9, 0.0, 2022-04-22 18:03:17.190
92.0, -137.76295476779342, -222.72226206120104, -143.88330104527995, -133.14978817244992, 0.5120000243186951, 0.0800000037997961, 0.8480000402778387, 0.0, 0.0, 0.0, 0.0, 0.0, 1.6506685971903827E9, 0.0, 2022-04-22 18:03:17.190
93.0, -125.23802981618792, -206.40507855452597, -145.00527103198692, -115.17208908544853, 0.5120000243186951, 0.0800000037997961, 0.8480000402778387, 0.0, 0.0, 0.0, 0.0, 0.0, 1.6506685972059383E9, 0.0, 2022-04-22 18:03:17.205
93.0, -141.6187916221097, -227.438275905326, -157.71345108142123, -131.47805289225653, 0.5120000243186951, 0.0800000037997961, 0.8480000402778387, 0.0, 0.0, 0.0, 0.0, 0.0, 1.6506685972059383E9, 0.0, 2022-04-22 18:03:17.205
94.0, -141.82448611967266, -228.5565059920773, -156.41196589684114, -137.18888012459502, 0.5120000243186951, 0.0800000037997961, 0.8480000402778387, 0.0, 0.0, 0.0, 0.0, 0.0, 1.6506685972066982E9, 0.0, 2022-04-22 18:03:17.206
94.0, -133.12921872269362, -227.18770260829479, -145.45031912671402, -124.56297787418589, 0.5120000243186951, 0.0800000037997961, 0.8480000402778387, 0.0, 0.0, 0.0, 0.0, 0.0, 1.6506685972066982E9, 0.0, 2022-04-22 18:03:17.206
95.0, -134.29232760891318, -218.82902620732784, -145.4540590266697, -124.02817218052223, 0.5120000243186951, 0.0800000037997961, 0.8480000402778387, 0.0, 0.0, 0.0, 0.0, 0.0, 1.6506685972202497E9, 0.0, 2022-04-22 18:03:17.220
95.0, -127.65774508751929, -213.03966107591987, -138.77085780585185, -128.38515562890097, 0.5120000243186951, 0.0800000037997961, 0.8480000402778387, 0.0, 0.0, 0.0, 0.0, 0.0, 1.6506685972202497E9, 0.0, 2022-04-22 18:03:17.220
96.0, -126.13934570550919, -212.41883768327534, -145.1660867300816, -121.09983051521704, 0.5120000243186951, 0.0800000037997961, 0.8480000402778387, 0.0, 0.0, 0.0, 0.0, 0.0, 1.650668597252257E9, 0.0, 2022-04-22 18:03:17.252
96.0, -133.11051922291517, -228.76968028955162, -158.48013057233766, -127.34546344121918, 0.5120000243186951, 0.0800000037997961, 0.8480000402778387, 0.0, 0.0, 0.0, 0.0, 0.0, 1.650668597252257E9, 0.0, 2022-04-22 18:03:17.252
97.0, -132.48595593031496, -221.38711777701974, -152.78426293982193, -142.66783355968073, 0.5120000243186951, 0.0800000037997961, 0.8480000402778387, 0.0, 0.0, 0.0, 0.0, 0.0, 1.650668597253137E9, 0.0, 2022-04-22 18:03:17.253
97.0, -125.66063851118088, -212.27672148495913, -136.17910713655874, -132.19985358370468, 0.5120000243186951, 0.0800000037997961, 0.8480000402778387, 0.0, 0.0, 0.0, 0.0, 0.0, 1.650668597253137E9, 0.0, 2022-04-22 18:03:17.253
98.0, -128.7273564748466, -217.8491724189371, -152.5673487423919, -126.61992284981534, 0.5120000243186951, 0.0800000037997961, 0.8480000402778387, 0.0, 0.0, 0.0, 0.0, 0.0, 1.6506685972537239E9, 0.0, 2022-04-22 18:03:17.253
98.0, -147.53157345205545, -234.517906521447, -155.93325870251283, -143.17272005369887, 0.5120000243186951, 0.0800000037997961, 0.8480000402778387, 0.0, 0.0, 0.0, 0.0, 0.0, 1.6506685972537239E9, 0.0, 2022-04-22 18:03:17.253
99.0, -170.8573294756934, -232.6629161434248, -155.92203900264576, -154.0969678242691, 0.5120000243186951, 0.0800000037997961, 0.8480000402778387, 0.0, 0.0, 0.0, 0.0, 0.0, 1.6506685972547843E9, 0.0, 2022-04-22 18:03:17.254
99.0, -164.37982275243849, -213.27153487317264, -136.6017158315517, -130.44210060453042, 0.5120000243186951, 0.0800000037997961, 0.8480000402778387, 0.0, 0.0, 0.0, 0.0, 0.0, 1.6506685972547843E9, 0.0, 2022-04-22 18:03:17.254
100.0, -178.50916478503495, -226.7015156140551, -160.52585584810004, -149.29493628116325, 0.5120000243186951, 0.0800000037997961, 0.8800000417977571, 0.0, 0.0, 0.0, 0.0, 0.0, 1.6506685972653294E9, 0.0, 2022-04-22 18:03:17.265
100.0, -172.38694855757058, -226.0732124214992, -152.29433604562655, -160.74277004553005, 0.5120000243186951, 0.0800000037997961, 0.8800000417977571, 0.0, 0.0, 0.0, 0.0, 0.0, 1.6506685972653294E9, 0.0, 2022-04-22 18:03:17.265
0.0, -170.35244298167527, -227.81413585087284, -154.56819521868601, -148.2328046937473, 0.5120000243186951, 0.0800000037997961, 0.8800000417977571, 0.0, 0.0, 0.0, 0.0, 0.0, 1.6506685972809772E9, 0.0, 2022-04-22 18:03:17.280
1.0, -163.17931486666203, -218.33348946319893, -157.21230448735878, -139.4889185973443, 0.5120000243186951, 0.09600000455975533, 0.8800000417977571, 0.0, 0.0, 0.0, 0.0, 0.0, 1.650668597281752E9, 0.0, 2022-04-22 18:03:17.281
1.0, -165.09788354393095, -222.9784452081658, -164.75568269798532, -151.54635605448857, 0.5120000243186951, 0.09600000455975533, 0.8800000417977571, 0.0, 0.0, 0.0, 0.0, 0.0, 1.650668597281752E9, 0.0, 2022-04-22 18:03:17.281
2.0, -160.41926869936287, -228.3526814444922, -166.18058458110318, -168.12159265810624, 0.5440000258386135, 0.09600000455975533, 0.8800000417977571, 0.0, 0.0, 0.0, 0.0, 0.0, 1.6506685972952838E9, 0.0, 2022-04-22 18:03:17.295
2.0, -150.53471311647445, -239.90149250766262, -161.8310809326358, -143.5354903494008, 0.5440000258386135, 0.09600000455975533, 0.8800000417977571, 0.0, 0.0, 0.0, 0.0, 0.0, 1.6506685972952838E9, 0.0, 2022-04-22 18:03:17.295
3.0, -154.19981507305056, -238.23723702738062, -163.203624216374, -152.5673487423919, 0.5440000258386135, 0.09600000455975533, 0.8800000417977571, 0.0, 0.0, 0.0, 0.0, 0.0, 1.6506685973109648E9, 0.0, 2022-04-22 18:03:17.310
3.0, -152.445801993832, -227.58226205362007, -155.17779891146347, -153.61826062994078, 0.5440000258386135, 0.09600000455975533, 0.8800000417977571, 0.0, 0.0, 0.0, 0.0, 0.0, 1.6506685973109648E9, 0.0, 2022-04-22 18:03:17.310
4.0, -149.1808693325147, -232.36933399690315, -160.682931646239, -143.77110404660925, 0.5440000258386135, 0.09600000455975533, 0.8800000417977571, 0.0, 0.0, 0.0, 0.0, 0.0, 1.650668597311673E9, 0.0, 2022-04-22 18:03:17.311
4.0, -159.2187608135864, -237.00680994195864, -165.53358188876882, -152.9076796383597, 0.5440000258386135, 0.09600000455975533, 0.8800000417977571, 0.0, 0.0, 0.0, 0.0, 0.0, 1.650668597311673E9, 0.0, 2022-04-22 18:03:17.311
5.0, -157.96963422838598, -230.77987651573494, -153.22931103454903, -155.08430141257122, 0.5440000258386135, 0.09600000455975533, 0.8800000417977571, 0.0, 0.0, 0.0, 0.0, 0.0, 1.650668597325262E9, 0.0, 2022-04-22 18:03:17.325
5.0, -155.1086107622832, -252.2917810608633, -180.2164291148074, -156.49050379591063, 0.5440000258386135, 0.09600000455975533, 0.8800000417977571, 0.0, 0.0, 0.0, 0.0, 0.0, 1.650668597325262E9, 0.0, 2022-04-22 18:03:17.325
6.0, -141.63375122193247, -254.2103497381322, -170.8816388254054, -151.25090395798907, 0.5440000258386135, 0.09600000455975533, 0.8800000417977571, 0.0, 0.0, 0.0, 0.0, 0.0, 1.650668597341077E9, 0.0, 2022-04-22 18:03:17.341
6.0, -141.8843245189637, -236.9881104421802, -162.01059613050893, -152.3466946450062, 0.5440000258386135, 0.09600000455975533, 0.8800000417977571, 0.0, 0.0, 0.0, 0.0, 0.0, 1.650668597341077E9, 0.0, 2022-04-22 18:03:17.341
7.0, -137.70685626845807, -235.6903651575558, -167.9906961596571, -149.25753728160635, 0.5440000258386135, 0.09600000455975533, 0.8800000417977571, 0.0, 0.0, 0.0, 0.0, 0.0, 1.650668597341678E9, 0.0, 2022-04-22 18:03:17.341
7.0, -126.66293169930577, -236.06435515312478, -164.15355880511925, -135.59194284351543, 0.5440000258386135, 0.09600000455975533, 0.8800000417977571, 0.0, 0.0, 0.0, 0.0, 0.0, 1.650668597341678E9, 0.0, 2022-04-22 18:03:17.341
8.0, -138.5894726580009, -261.89584414707497, -170.5824468289502, -157.1711655878462, 0.5440000258386135, 0.09600000455975533, 0.8800000417977571, 0.0, 0.0, 0.0, 0.0, 0.0, 1.6506685973553393E9, 0.0, 2022-04-22 18:03:17.355
8.0, -143.97866849415004, -255.03686762833968, -167.63914556382224, -161.5431086360477, 0.5440000258386135, 0.09600000455975533, 0.8800000417977571, 0.0, 0.0, 0.0, 0.0, 0.0, 1.6506685973553393E9, 0.0, 2022-04-22 18:03:17.355
9.0, -133.0245015239343, -255.1041858275421, -174.33356648450717, -146.14594051847234, 0.5440000258386135, 0.09600000455975533, 0.8800000417977571, 0.0, 0.0, 0.0, 0.0, 0.0, 1.650668597371031E9, 0.0, 2022-04-22 18:03:17.371
9.0, -131.67813753988594, -253.34269294841215, -165.3578065908514, -153.74167732847854, 0.5440000258386135, 0.09600000455975533, 0.8800000417977571, 0.0, 0.0, 0.0, 0.0, 0.0, 1.650668597371031E9, 0.0, 2022-04-22 18:03:17.371
10.0, -148.93029603548348, -249.18018429772928, -181.8432855955325, -170.2458558329381, 0.5440000258386135, 0.09600000455975533, 0.8640000410377979, 0.0, 0.0, 0.0, 0.0, 0.0, 1.6506685973717244E9, 0.0, 2022-04-22 18:03:17.371
10.0, -138.49223525915295, -246.08728703437373, -150.52536336658522, -146.22447841754183, 0.5440000258386135, 0.09600000455975533, 0.8640000410377979, 0.0, 0.0, 0.0, 0.0, 0.0, 1.6506685973717244E9, 0.0, 2022-04-22 18:03:17.371
11.0, -145.24275467917323, -242.4334047776647, -158.99623676622286, -150.7534972638823, 0.5440000258386135, 0.06400000303983688, 0.8640000410377979, 0.0, 0.0, 0.0, 0.0, 0.0, 1.6506685973852637E9, 0.0, 2022-04-22 18:03:17.385
11.0, -147.80458614882082, -242.73259677411988, -157.62369348248467, -155.36853380920365, 0.5440000258386135, 0.06400000303983688, 0.8640000410377979, 0.0, 0.0, 0.0, 0.0, 0.0, 1.6506685973852637E9, 0.0, 2022-04-22 18:03:17.385
12.0, -160.47536719869822, -259.0348206809722, -170.67594432784244, -170.69838372757658, 0.49600002355873585, 0.06400000303983688, 0.8640000410377979, 0.0, 0.0, 0.0, 0.0, 0.0, 1.6506685974009247E9, 0.0, 2022-04-22 18:03:17.400
12.0, -148.93777583539486, -246.90258522471413, -152.22701784642413, -147.4623853028752, 0.49600002355873585, 0.06400000303983688, 0.8640000410377979, 0.0, 0.0, 0.0, 0.0, 0.0, 1.6506685974009247E9, 0.0, 2022-04-22 18:03:17.400
13.0, -166.35822982899845, -252.88642515381798, -156.72985739307478, -160.23040375160053, 0.49600002355873585, 0.06400000303983688, 0.8640000410377979, 0.0, 0.0, 0.0, 0.0, 0.0, 1.6506685974016593E9, 0.0, 2022-04-22 18:03:17.401
13.0, -170.40854148101062, -250.22735628532246, -152.3466946450062, -163.1325661172159, 0.49600002355873585, 0.06400000303983688, 0.8640000410377979, 0.0, 0.0, 0.0, 0.0, 0.0, 1.6506685974016593E9, 0.0, 2022-04-22 18:03:17.401
14.0, -156.8102652421221, -226.92029976146296, -152.44393204385415, -144.4592456384562, 0.49600002355873585, 0.06400000303983688, 0.8640000410377979, 0.0, 0.0, 0.0, 0.0, 0.0, 1.6506685974152975E9, 0.0, 2022-04-22 18:03:17.415
14.0, -179.4179604742676, -243.08788726991042, -160.73155034566298, -151.15740645909682, 0.49600002355873585, 0.06400000303983688, 0.8640000410377979, 0.0, 0.0, 0.0, 0.0, 0.0, 1.6506685974152975E9, 0.0, 2022-04-22 18:03:17.415
15.0, -191.43799893185496, -235.03214276535437, -150.92179276188836, -166.78644837392494, 0.49600002355873585, 0.06400000303983688, 0.8640000410377979, 0.0, 0.0, 0.0, 0.0, 0.0, 1.6506685974310133E9, 0.0, 2022-04-22 18:03:17.431
15.0, -183.99559802003205, -237.388279737439, -150.78341646352783, -160.23414365155622, 0.49600002355873585, 0.06400000303983688, 0.8640000410377979, 0.0, 0.0, 0.0, 0.0, 0.0, 1.6506685974310133E9, 0.0, 2022-04-22 18:03:17.431
16.0, -188.65925326477736, -257.0264944047667, -171.7343360153027, -170.78066152660176, 0.49600002355873585, 0.06400000303983688, 0.8640000410377979, 0.0, 0.0, 0.0, 0.0, 0.0, 1.6506685974317248E9, 0.0, 2022-04-22 18:03:17.431
16.0, -187.81777577474713, -268.070418973919, -178.1781836389564, -179.48714862344787, 0.49600002355873585, 0.06400000303983688, 0.8640000410377979, 0.0, 0.0, 0.0, 0.0, 0.0, 1.6506685974317248E9, 0.0, 2022-04-22 18:03:17.431
17.0, -169.7465791888535, -251.7719349670224, -164.06754110613838, -164.97259689541534, 0.49600002355873585, 0.06400000303983688, 0.8640000410377979, 0.0, 0.0, 0.0, 0.0, 0.0, 1.650668597445302E9, 0.0, 2022-04-22 18:03:17.445
17.0, -158.76249301899225, -254.49458213476464, -161.77124253334478, -155.71260460512713, 0.49600002355873585, 0.06400000303983688, 0.8640000410377979, 0.0, 0.0, 0.0, 0.0, 0.0, 1.650668597445302E9, 0.0, 2022-04-22 18:03:17.445
18.0, -152.662716191262, -255.6165521214716, -154.17924562329426, -158.7643629689701, 0.49600002355873585, 0.06400000303983688, 0.8640000410377979, 0.0, 0.0, 0.0, 0.0, 0.0, 1.6506685974609468E9, 0.0, 2022-04-22 18:03:17.460
18.0, -176.0071717146784, -272.4461019220762, -168.58908015256748, -176.34937256062403, 0.49600002355873585, 0.06400000303983688, 0.8640000410377979, 0.0, 0.0, 0.0, 0.0, 0.0, 1.6506685974609468E9, 0.0, 2022-04-22 18:03:17.460
19.0, -160.8867561938241, -247.12697922205552, -161.01204284233972, -144.2722506406717, 0.49600002355873585, 0.06400000303983688, 0.8640000410377979, 0.0, 0.0, 0.0, 0.0, 0.0, 1.6506685974616828E9, 0.0, 2022-04-22 18:03:17.461
19.0, -148.78443993721157, -253.31651364872232, -156.92807209072635, -148.66289318865165, 0.49600002355873585, 0.06400000303983688, 0.8640000410377979, 0.0, 0.0, 0.0, 0.0, 0.0, 1.6506685974616828E9, 0.0, 2022-04-22 18:03:17.461
20.0, -151.64920330327004, -264.4726352165453, -161.93205823143944, -161.93953803135082, 0.49600002355873585, 0.06400000303983688, 0.8640000410377979, 0.0, 0.0, 0.0, 0.0, 0.0, 1.65066859749167E9, 0.0, 2022-04-22 18:03:17.491
20.0, -142.5088878115639, -256.1476179151796, -162.3172679268755, -142.14424756588414, 0.49600002355873585, 0.06400000303983688, 0.8640000410377979, 0.0, 0.0, 0.0, 0.0, 0.0, 1.65066859749167E9, 0.0, 2022-04-22 18:03:17.491
21.0, -133.6154057169333, -247.0260019232519, -153.25923023419455, -133.47141956863925, 0.49600002355873585, 0.09600000455975533, 0.8640000410377979, 0.0, 0.0, 0.0, 0.0, 0.0, 1.6506685974924955E9, 0.0, 2022-04-22 18:03:17.492
21.0, -130.55990745313466, -239.0974140171893, -153.4275257322006, -149.93071927363053, 0.49600002355873585, 0.09600000455975533, 0.8640000410377979, 0.0, 0.0, 0.0, 0.0, 0.0, 1.6506685974924955E9, 0.0, 2022-04-22 18:03:17.492
22.0, -132.8375065261498, -249.31108079617843, -154.13436682382599, -145.97016522055492, 0.5120000243186951, 0.09600000455975533, 0.8640000410377979, 0.0, 0.0, 0.0, 0.0, 0.0, 1.6506685974931579E9, 0.0, 2022-04-22 18:03:17.493
22.0, -125.14079241733998, -244.48286995338276, -145.59617522498593, -137.1178220254369, 0.5120000243186951, 0.09600000455975533, 0.8640000410377979, 0.0, 0.0, 0.0, 0.0, 0.0, 1.6506685974931579E9, 0.0, 2022-04-22 18:03:17.493
23.0, -136.59236608166248, -246.6183528280817, -153.10963423596695, -152.93385893804953, 0.5120000243186951, 0.09600000455975533, 0.8640000410377979, 0.0, 0.0, 0.0, 0.0, 0.0, 1.6506685975052452E9, 0.0, 2022-04-22 18:03:17.505
23.0, -143.12971120420843, -247.04470142303035, -145.39048072742298, -156.77099629258737, 0.5120000243186951, 0.09600000455975533, 0.8640000410377979, 0.0, 0.0, 0.0, 0.0, 0.0, 1.6506685975052452E9, 0.0, 2022-04-22 18:03:17.505
24.0, -122.72107714600861, -232.021523301024, -139.3767215986736, -122.98100019292906, 0.5120000243186951, 0.09600000455975533, 0.8640000410377979, 0.0, 0.0, 0.0, 0.0, 0.0, 1.6506685975209963E9, 0.0, 2022-04-22 18:03:17.520
24.0, -122.94547114335, -233.75309698050842, -137.10660232556984, -131.11154269659892, 0.5120000243186951, 0.09600000455975533, 0.8640000410377979, 0.0, 0.0, 0.0, 0.0, 0.0, 1.6506685975209963E9, 0.0, 2022-04-22 18:03:17.520
25.0, -114.49329724349082, -226.1648399704136, -123.20913409022614, -127.45766043988988, 0.5120000243186951, 0.09600000455975533, 0.8640000410377979, 0.0, 0.0, 0.0, 0.0, 0.0, 1.6506685975216918E9, 0.0, 2022-04-22 18:03:17.521
25.0, -113.73409755248576, -227.25689075747505, -137.90694091608748, -118.61653694463894, 0.5120000243186951, 0.09600000455975533, 0.8640000410377979, 0.0, 0.0, 0.0, 0.0, 0.0, 1.6506685975216918E9, 0.0, 2022-04-22 18:03:17.521
26.0, -88.99091944564134, -217.9034009682946, -126.93407444609329, -90.05492098303512, 0.5120000243186951, 0.09600000455975533, 0.8640000410377979, 0.0, 0.0, 0.0, 0.0, 0.0, 1.6506685975352807E9, 0.0, 2022-04-22 18:03:17.535
26.0, -87.0760906683281, -228.36390114435926, -125.80462465947494, -88.74221609858796, 0.5120000243186951, 0.09600000455975533, 0.8640000410377979, 0.0, 0.0, 0.0, 0.0, 0.0, 1.6506685975352807E9, 0.0, 2022-04-22 18:03:17.535
27.0, -80.57240464538336, -222.48103851405904, -126.42544805211946, -88.75717569841072, 0.5120000243186951, 0.09600000455975533, 0.8640000410377979, 0.0, 0.0, 0.0, 0.0, 0.0, 1.6506685975510175E9, 0.0, 2022-04-22 18:03:17.551
27.0, -63.16317035164684, -212.20379343582317, -107.8867639717646, -61.80371671775356, 0.5120000243186951, 0.09600000455975533, 0.8640000410377979, 0.0, 0.0, 0.0, 0.0, 0.0, 1.6506685975510175E9, 0.0, 2022-04-22 18:03:17.551
28.0, -100.61078860796988, -219.84066914534196, -132.49530568020418, -71.91640619793907, 0.5120000243186951, 0.09600000455975533, 0.8640000410377979, 0.0, 0.0, 0.0, 0.0, 0.0, 1.650668597551787E9, 0.0, 2022-04-22 18:03:17.551
28.0, -120.82120796851814, -212.9742128266953, -129.10695632034913, -79.84125420404598, 0.5120000243186951, 0.09600000455975533, 0.8640000410377979, 0.0, 0.0, 0.0, 0.0, 0.0, 1.650668597551787E9, 0.0, 2022-04-22 18:03:17.551
29.0, -101.35876859910786, -209.64944176608697, -117.74514025496319, -33.444055353756994, 0.5120000243186951, 0.09600000455975533, 0.8640000410377979, 0.0, 0.0, 0.0, 0.0, 0.0, 1.6506685975652487E9, 0.0, 2022-04-22 18:03:17.565
29.0, -108.03449002001435, -223.5693494011648, -121.84781050635502, -64.13741429010406, 0.5120000243186951, 0.09600000455975533, 0.8640000410377979, 0.0, 0.0, 0.0, 0.0, 0.0, 1.6506685975652487E9, 0.0, 2022-04-22 18:03:17.565
30.0, -139.16167735122144, -220.25953794037923, -117.8161983541213, -103.3614850253798, 0.5120000243186951, 0.09600000455975533, 0.8640000410377979, 0.0, 0.0, 0.0, 0.0, 0.0, 1.650668597581107E9, 0.0, 2022-04-22 18:03:17.581
30.0, -126.53203520085663, -193.30607895972207, -76.86429383931682, -85.68297793483362, 0.5120000243186951, 0.09600000455975533, 0.8640000410377979, 0.0, 0.0, 0.0, 0.0, 0.0, 1.650668597581107E9, 0.0, 2022-04-22 18:03:17.581
31.0, -110.3868870921433, -195.87165032932535, -99.0269409767352, -87.29487481573597, 0.5120000243186951, 0.03200000151991844, 0.8640000410377979, 0.0, 0.0, 0.0, 0.0, 0.0, 1.650668597581807E9, 0.0, 2022-04-22 18:03:17.581
31.0, -103.3446554755792, -202.27061915351078, -101.97398214181885, -85.43988443771377, 0.5120000243186951, 0.03200000151991844, 0.8640000410377979, 0.0, 0.0, 0.0, 0.0, 0.0, 1.650668597581807E9, 0.0, 2022-04-22 18:03:17.581
32.0, -60.601338881999254, -204.8548900228925, -116.30901867197827, -44.626356221269816, 0.5280000250786543, 0.03200000151991844, 0.8640000410377979, 0.0, 0.0, 0.0, 0.0, 0.0, 1.6506685975952497E9, 0.0, 2022-04-22 18:03:17.595
32.0, 6.548564822413027, -188.89299701200798, -103.64945732196793, 10.997175819706172, 0.5280000250786543, 0.03200000151991844, 0.8640000410377979, 0.0, 0.0, 0.0, 0.0, 0.0, 1.6506685975952497E9, 0.0, 2022-04-22 18:03:17.595
33.0, 40.11416692472994, -194.3308115475811, -101.16616375138983, 29.072112305555493, 0.5280000250786543, 0.03200000151991844, 0.8640000410377979, 0.0, 0.0, 0.0, 0.0, 0.0, 1.6506685976109552E9, 0.0, 2022-04-22 18:03:17.610
33.0, 43.315521286800504, -203.8937357342802, -95.63111181696877, 33.93772214790806, 0.5280000250786543, 0.03200000151991844, 0.8640000410377979, 0.0, 0.0, 0.0, 0.0, 0.0, 1.6506685976109552E9, 0.0, 2022-04-22 18:03:17.610
34.0, 25.951165792532265, -216.59069608384743, -109.26678705541417, 50.20254705520347, 0.5280000250786543, 0.03200000151991844, 0.8640000410377979, 0.0, 0.0, 0.0, 0.0, 0.0, 1.6506685976116605E9, 0.0, 2022-04-22 18:03:17.611
34.0, 38.2778760464862, -203.2990916413255, -94.23986903345212, 76.00037694955245, 0.5280000250786543, 0.03200000151991844, 0.8640000410377979, 0.0, 0.0, 0.0, 0.0, 0.0, 1.6506685976116605E9, 0.0, 2022-04-22 18:03:17.611
35.0, 35.252296982333064, -199.4806537865661, -84.14213915308937, 68.32236234052107, 0.5280000250786543, 0.03200000151991844, 0.8640000410377979, 0.0, 0.0, 0.0, 0.0, 0.0, 1.6506685976252484E9, 0.0, 2022-04-22 18:03:17.625
35.0, 17.914120787754655, -208.68080767756328, -88.29342810390517, 58.299430459272116, 0.5280000250786543, 0.03200000151991844, 0.8640000410377979, 0.0, 0.0, 0.0, 0.0, 0.0, 1.6506685976252484E9, 0.0, 2022-04-22 18:03:17.625
36.0, 34.410819492302835, -193.56413205666468, -78.52480941964313, 66.00736426794901, 0.5280000250786543, 0.03200000151991844, 0.8640000410377979, 0.0, 0.0, 0.0, 0.0, 0.0, 1.6506685976410441E9, 0.0, 2022-04-22 18:03:17.641
36.0, 24.066256214864552, -201.95272765727714, -84.00750275468454, 44.81709111901, 0.5280000250786543, 0.03200000151991844, 0.8640000410377979, 0.0, 0.0, 0.0, 0.0, 0.0, 1.6506685976410441E9, 0.0, 2022-04-22 18:03:17.641
37.0, -9.783578284084797, -204.68285462493077, -71.88274709833786, 26.72719503333792, 0.5280000250786543, 0.03200000151991844, 0.8640000410377979, 0.0, 0.0, 0.0, 0.0, 0.0, 1.6506685976417773E9, 0.0, 2022-04-22 18:03:17.641
37.0, 14.581869927234948, -186.64531713863835, -77.76934962859377, 43.044378540012985, 0.5280000250786543, 0.03200000151991844, 0.8640000410377979, 0.0, 0.0, 0.0, 0.0, 0.0, 1.6506685976417773E9, 0.0, 2022-04-22 18:03:17.641
38.0, 31.501177326776087, -202.98494004504755, -111.90715642413124, 30.41847628960386, 0.5280000250786543, 0.03200000151991844, 0.8640000410377979, 0.0, 0.0, 0.0, 0.0, 0.0, 1.6506685976552455E9, 0.0, 2022-04-22 18:03:17.655
38.0, 61.794366967864335, -191.86995737673715, -89.83052698569372, 50.16514805564657, 0.5280000250786543, 0.03200000151991844, 0.8640000410377979, 0.0, 0.0, 0.0, 0.0, 0.0, 1.6506685976552455E9, 0.0, 2022-04-22 18:03:17.655
39.0, 75.8526509013027, -209.26049217069522, -93.50310874218121, 68.793589734938, 0.5280000250786543, 0.03200000151991844, 0.8640000410377979, 0.0, 0.0, 0.0, 0.0, 0.0, 1.6506685976709628E9, 0.0, 2022-04-22 18:03:17.670
39.0, 77.9619544763118, -208.31803738186136, -81.50924958428368, 70.86175441043451, 0.5280000250786543, 0.03200000151991844, 0.8640000410377979, 0.0, 0.0, 0.0, 0.0, 0.0, 1.6506685976709628E9, 0.0, 2022-04-22 18:03:17.670
40.0, 69.01985368225724, -195.56871843291447, -87.91943810833618, 62.22258551279083, 0.5280000250786543, 0.03200000151991844, 0.7200000341981649, 0.0, 0.0, 0.0, 0.0, 0.0, 1.6506685976717963E9, 0.0, 2022-04-22 18:03:17.671
40.0, 80.19467474985868, -220.9028007327579, -93.00196214811876, 66.9385993569158, 0.5280000250786543, 0.03200000151991844, 0.7200000341981649, 0.0, 0.0, 0.0, 0.0, 0.0, 1.6506685976717963E9, 0.0, 2022-04-22 18:03:17.671
41.0, 18.785517477430403, -218.65886075934395, -97.50106179481372, 77.51129653165117, 0.5280000250786543, -0.03200000151991844, 0.7200000341981649, 0.0, 0.0, 0.0, 0.0, 0.0, 1.6506685976852217E9, 0.0, 2022-04-22 18:03:17.685
41.0, 11.014005369506776, -216.24662528792396, -96.1397382109426, 63.65870709577575, 0.5280000250786543, -0.03200000151991844, 0.7200000341981649, 0.0, 0.0, 0.0, 0.0, 0.0, 1.6506685976852217E9, 0.0, 2022-04-22 18:03:17.685
42.0, -0.927495189011097, -205.01944562094286, -91.86877246154472, 59.75425154203549, 0.5920000281184912, -0.03200000151991844, 0.7200000341981649, 0.0, 0.0, 0.0, 0.0, 0.0, 1.6506685977009773E9, 0.0, 2022-04-22 18:03:17.700
42.0, -4.551458246074617, -223.00462450785562, -100.38078476069495, 49.77245856029913, 0.5920000281184912, -0.03200000151991844, 0.7200000341981649, 0.0, 0.0, 0.0, 0.0, 0.0, 1.6506685977009773E9, 0.0, 2022-04-22 18:03:17.700
43.0, -9.828457083553076, -187.662569926586, -78.30041542230174, 42.85738354222849, 0.5920000281184912, -0.03200000151991844, 0.7200000341981649, 0.0, 0.0, 0.0, 0.0, 0.0, 1.650668597701704E9, 0.0, 2022-04-22 18:03:17.701
43.0, -62.31795296166092, -203.2616926417686, -93.7649017390795, 7.661185059230775, 0.5920000281184912, -0.03200000151991844, 0.7200000341981649, 0.0, 0.0, 0.0, 0.0, 0.0, 1.650668597701704E9, 0.0, 2022-04-22 18:03:17.701
44.0, -100.7491649063304, -203.42250833986327, -94.5839398293756, -9.08982684230432, 0.5920000281184912, -0.03200000151991844, 0.7200000341981649, 0.0, 0.0, 0.0, 0.0, 0.0, 1.6506685977317896E9, 0.0, 2022-04-22 18:03:17.731
44.0, -143.07735260482877, -196.84402431780472, -90.93753737257794, -24.01576756546274, 0.5920000281184912, -0.03200000151991844, 0.7200000341981649, 0.0, 0.0, 0.0, 0.0, 0.0, 1.6506685977317896E9, 0.0, 2022-04-22 18:03:17.731
45.0, -146.02065386995673, -192.76005356619135, -92.56813375325873, -48.83374367142096, 0.5920000281184912, -0.03200000151991844, 0.7200000341981649, 0.0, 0.0, 0.0, 0.0, 0.0, 1.6506685977323637E9, 0.0, 2022-04-22 18:03:17.732
45.0, -183.1989993294701, -202.50249295076355, -108.10367816919461, -72.89252008637413, 0.5920000281184912, -0.03200000151991844, 0.7200000341981649, 0.0, 0.0, 0.0, 0.0, 0.0, 1.6506685977323637E9, 0.0, 2022-04-22 18:03:17.732
46.0, -210.08140021096915, -205.49441291531548, -111.37983053037897, -102.84911873145029, 0.5920000281184912, -0.03200000151991844, 0.7200000341981649, 0.0, 0.0, 0.0, 0.0, 0.0, 1.6506685977331069E9, 0.0, 2022-04-22 18:03:17.733
46.0, -271.10908768791705, -207.68225438939407, -104.04588671727106, -169.0229085474275, 0.5920000281184912, -0.03200000151991844, 0.7200000341981649, 0.0, 0.0, 0.0, 0.0, 0.0, 1.6506685977331069E9, 0.0, 2022-04-22 18:03:17.733
47.0, -355.82156158424914, -208.0786837846972, -112.47562121739611, -241.7265636860393, 0.5920000281184912, -0.03200000151991844, 0.7200000341981649, 0.0, 0.0, 0.0, 0.0, 0.0, 1.6506685977452686E9, 0.0, 2022-04-22 18:03:17.745
47.0, -441.05014167446643, -205.59165031416342, -108.40661006560549, -320.93390484759584, 0.5920000281184912, -0.03200000151991844, 0.7200000341981649, 0.0, 0.0, 0.0, 0.0, 0.0, 1.6506685977452686E9, 0.0, 2022-04-22 18:03:17.745
48.0, -557.1291564991698, -199.83594428235665, -131.03674469748512, -437.570164765697, 0.5920000281184912, -0.03200000151991844, 0.7200000341981649, 0.0, 0.0, 0.0, 0.0, 0.0, 1.6506685977609425E9, 0.0, 2022-04-22 18:03:17.760
48.0, -695.7635079566389, -189.71203510230407, -133.72947266558185, -552.097121108789, 0.5920000281184912, -0.03200000151991844, 0.7200000341981649, 0.0, 0.0, 0.0, 0.0, 0.0, 1.6506685977609425E9, 0.0, 2022-04-22 18:03:17.760
49.0, -864.8743041530252, -224.3883874914609, -153.62948032980785, -692.2012532488443, 0.5920000281184912, -0.03200000151991844, 0.7200000341981649, 0.0, 0.0, 0.0, 0.0, 0.0, 1.6506685977617033E9, 0.0, 2022-04-22 18:03:17.761
49.0, -720.2149738669395, -206.80337789980695, -144.65746033610776, -587.0315265948884, 0.5920000281184912, -0.03200000151991844, 0.7200000341981649, 0.0, 0.0, 0.0, 0.0, 0.0, 1.6506685977617033E9, 0.0, 2022-04-22 18:03:17.761
50.0, -616.4925884958357, -199.38715628767386, -131.7061867895536, -510.4196760025807, 0.5920000281184912, -0.03200000151991844, 0.8480000402778387, 0.0, 0.0, 0.0, 0.0, 0.0, 1.6506685977752666E9, 0.0, 2022-04-22 18:03:17.775
50.0, -840.1329959961586, -194.0764983505942, -110.00728724664077, -274.1514963018708, 0.5920000281184912, -0.03200000151991844, 0.8480000402778387, 0.0, 0.0, 0.0, 0.0, 0.0, 1.6506685977752666E9, 0.0, 2022-04-22 18:03:17.775
51.0, -1072.053541998379, -204.58935712603852, -96.3229933087714, -50.92434774665162, 0.5920000281184912, -0.06400000303983688, 0.8480000402778387, 0.0, 0.0, 0.0, 0.0, 0.0, 1.6506685978073356E9, 0.0, 2022-04-22 18:03:17.807
51.0, -973.0696098711342, -194.45048834616318, -84.08230075379834, 25.694982645567507, 0.5920000281184912, -0.06400000303983688, 0.8480000402778387, 0.0, 0.0, 0.0, 0.0, 0.0, 1.6506685978073356E9, 0.0, 2022-04-22 18:03:17.807
52.0, -891.6108489362523, -190.53481309255585, -70.24841081770137, 92.46341655449942, 0.576000027358532, -0.06400000303983688, 0.8480000402778387, 0.0, 0.0, 0.0, 0.0, 0.0, 1.6506685978081558E9, 0.0, 2022-04-22 18:03:17.808
52.0, -840.8716262374073, -187.1053248331882, -53.26178521895781, 125.37079626461491, 0.576000027358532, -0.06400000303983688, 0.8480000402778387, 0.0, 0.0, 0.0, 0.0, 0.0, 1.6506685978081558E9, 0.0, 2022-04-22 18:03:17.808
53.0, -896.7831305749714, -195.4079027348198, -65.05368977924809, 64.78441698243842, 0.576000027358532, -0.06400000303983688, 0.8480000402778387, 0.0, 0.0, 0.0, 0.0, 0.0, 1.650668597808784E9, 0.0, 2022-04-22 18:03:17.808
53.0, -940.5511797564104, -189.13235060917214, -70.36808761628345, 9.306741039734334, 0.576000027358532, -0.06400000303983688, 0.8480000402778387, 0.0, 0.0, 0.0, 0.0, 0.0, 1.650668597808784E9, 0.0, 2022-04-22 18:03:17.808
54.0, -950.9256622334942, -200.16131557850167, -67.18543275399134, 0.23000384727492929, 0.576000027358532, -0.06400000303983688, 0.8480000402778387, 0.0, 0.0, 0.0, 0.0, 0.0, 1.650668597809546E9, 0.0, 2022-04-22 18:03:17.809
54.0, -981.2562508741394, -208.86780267534778, -82.47788367280737, -42.09070405131206, 0.576000027358532, -0.06400000303983688, 0.8480000402778387, 0.0, 0.0, 0.0, 0.0, 0.0, 1.650668597809546E9, 0.0, 2022-04-22 18:03:17.809
55.0, -1036.4534343201667, -217.74632517015561, -90.56354737700894, -93.92197753721848, 0.576000027358532, -0.06400000303983688, 0.8480000402778387, 0.0, 0.0, 0.0, 0.0, 0.0, 1.65066859782024E9, 0.0, 2022-04-22 18:03:17.820
55.0, -1045.6610680110753, -194.05031905090436, -78.07976132491603, -95.11874552303925, 0.576000027358532, -0.06400000303983688, 0.8480000402778387, 0.0, 0.0, 0.0, 0.0, 0.0, 1.65066859782024E9, 0.0, 2022-04-22 18:03:17.820
56.0, -1094.6126185311005, -202.02004585647956, -93.03562124771997, -131.48179279221222, 0.576000027358532, -0.06400000303983688, 0.8480000402778387, 0.0, 0.0, 0.0, 0.0, 0.0, 1.6506685978354015E9, 0.0, 2022-04-22 18:03:17.835
56.0, -1173.2365352995694, -198.32502470025793, -100.4368832600303, -209.17821437167004, 0.576000027358532, -0.06400000303983688, 0.8480000402778387, 0.0, 0.0, 0.0, 0.0, 0.0, 1.6506685978354015E9, 0.0, 2022-04-22 18:03:17.835
57.0, -1229.8511408288032, -188.4778681169264, -96.41275090770796, -251.33810657216236, 0.576000027358532, -0.06400000303983688, 0.8480000402778387, 0.0, 0.0, 0.0, 0.0, 0.0, 1.6506685978509815E9, 0.0, 2022-04-22 18:03:17.850
57.0, -1242.3087475812063, -181.5515733989887, -94.80833382671699, -257.8866713945754, 0.576000027358532, -0.06400000303983688, 0.8480000402778387, 0.0, 0.0, 0.0, 0.0, 0.0, 1.6506685978509815E9, 0.0, 2022-04-22 18:03:17.850
58.0, -1244.14503845945, -192.4833009694703, -97.6207385933958, -271.8065790296532, 0.576000027358532, -0.06400000303983688, 0.8480000402778387, 0.0, 0.0, 0.0, 0.0, 0.0, 1.6506685978517015E9, 0.0, 2022-04-22 18:03:17.851
58.0, -1157.5551347853616, -183.81795277213678, -86.32998062716797, -195.38546333508566, 0.576000027358532, -0.06400000303983688, 0.8480000402778387, 0.0, 0.0, 0.0, 0.0, 0.0, 1.6506685978517015E9, 0.0, 2022-04-22 18:03:17.851
59.0, -1021.5536728966981, -169.209903545212, -65.58101567300037, -61.945832916069776, 0.576000027358532, -0.06400000303983688, 0.8480000402778387, 0.0, 0.0, 0.0, 0.0, 0.0, 1.65066859786524E9, 0.0, 2022-04-22 18:03:17.865
59.0, -1000.2773820487782, -178.79526713164523, -76.85307413944975, -48.48967287549749, 0.576000027358532, -0.06400000303983688, 0.8480000402778387, 0.0, 0.0, 0.0, 0.0, 0.0, 1.65066859786524E9, 0.0, 2022-04-22 18:03:17.865
60.0, -990.5648618638515, -184.87634445959702, -72.50357049098238, -55.513204992283136, 0.576000027358532, -0.06400000303983688, 0.8160000387579203, 0.0, 0.0, 0.0, 0.0, 0.0, 1.6506685978810236E9, 0.0, 2022-04-22 18:03:17.881
60.0, -1020.8206525053829, -172.88996510161087, -65.85776826972142, -71.53119650250301, 0.576000027358532, -0.06400000303983688, 0.8160000387579203, 0.0, 0.0, 0.0, 0.0, 0.0, 1.6506685978810236E9, 0.0, 2022-04-22 18:03:17.881
61.0, -1064.7532572848722, -173.41355109540746, -78.71554431738332, -105.24265470309183, 0.576000027358532, -0.11200000531971455, 0.8160000387579203, 0.0, 0.0, 0.0, 0.0, 0.0, 1.65066859788176E9, 0.0, 2022-04-22 18:03:17.881
61.0, -1045.6012296117842, -182.26963419048116, -86.70397062273696, -105.23143500322476, 0.576000027358532, -0.11200000531971455, 0.8160000387579203, 0.0, 0.0, 0.0, 0.0, 0.0, 1.65066859788176E9, 0.0, 2022-04-22 18:03:17.881
62.0, -1056.3571818843484, -191.34263148298487, -90.38029227918014, -110.33639844274148, 0.5440000258386135, -0.11200000531971455, 0.8160000387579203, 0.0, 0.0, 0.0, 0.0, 0.0, 1.6506685978952205E9, 0.0, 2022-04-22 18:03:17.895
62.0, -1041.9099483555183, -182.09759879251942, -77.12608683621511, -70.19605221832171, 0.5440000258386135, -0.11200000531971455, 0.8160000387579203, 0.0, 0.0, 0.0, 0.0, 0.0, 1.6506685978952205E9, 0.0, 2022-04-22 18:03:17.895
63.0, -1049.6702407635748, -181.27856070222333, -72.77284328779206, -84.84524034475908, 0.5440000258386135, -0.11200000531971455, 0.8160000387579203, 0.0, 0.0, 0.0, 0.0, 0.0, 1.6506685979109664E9, 0.0, 2022-04-22 18:03:17.910
63.0, -1053.1109487228096, -189.15479000890628, -93.39091174351051, -111.56308562820777, 0.5440000258386135, -0.11200000531971455, 0.8160000387579203, 0.0, 0.0, 0.0, 0.0, 0.0, 1.6506685979109664E9, 0.0, 2022-04-22 18:03:17.910
64.0, -996.0176359992474, -183.08867228077725, -82.67235847050324, -61.08939582621679, 0.5440000258386135, -0.11200000531971455, 0.8160000387579203, 0.0, 0.0, 0.0, 0.0, 0.0, 1.6506685979116976E9, 0.0, 2022-04-22 18:03:17.911
64.0, -1005.70771678444, -183.2494879788719, -85.52964203665033, -63.38943429896608, 0.5440000258386135, -0.11200000531971455, 0.8160000387579203, 0.0, 0.0, 0.0, 0.0, 0.0, 1.6506685979116976E9, 0.0, 2022-04-22 18:03:17.911
65.0, -1029.3663239041343, -186.65279693854973, -90.03996138321236, -74.44831846794114, 0.5440000258386135, -0.11200000531971455, 0.8160000387579203, 0.0, 0.0, 0.0, 0.0, 0.0, 1.65066859792526E9, 0.0, 2022-04-22 18:03:17.925
65.0, -1035.9822069257498, -185.5495264516212, -93.46944964258, -70.61118111340329, 0.5440000258386135, -0.11200000531971455, 0.8160000387579203, 0.0, 0.0, 0.0, 0.0, 0.0, 1.65066859792526E9, 0.0, 2022-04-22 18:03:17.925
66.0, -1037.3136113099754, -185.74400124931708, -91.22550966916606, -68.12040774291381, 0.5440000258386135, -0.11200000531971455, 0.8160000387579203, 0.0, 0.0, 0.0, 0.0, 0.0, 1.650668597940976E9, 0.0, 2022-04-22 18:03:17.940
66.0, -1050.0853696586564, -196.27181962458417, -88.11765280598775, -84.02994215441868, 0.5440000258386135, -0.11200000531971455, 0.8160000387579203, 0.0, 0.0, 0.0, 0.0, 0.0, 1.650668597940976E9, 0.0, 2022-04-22 18:03:17.940
67.0, -1069.5216297283769, -196.16336252586916, -103.55221992311999, -95.41793751949444, 0.5440000258386135, -0.11200000531971455, 0.8160000387579203, 0.0, 0.0, 0.0, 0.0, 0.0, 1.6506685979417024E9, 0.0, 2022-04-22 18:03:17.941
67.0, -1056.6563738808036, -203.21681384230033, -97.66935729281977, -71.17590600671247, 0.5440000258386135, -0.11200000531971455, 0.8160000387579203, 0.0, 0.0, 0.0, 0.0, 0.0, 1.6506685979417024E9, 0.0, 2022-04-22 18:03:17.941
68.0, -1090.3266931818798, -208.71820667712018, -105.59794519888237, -95.1748440223746, 0.5440000258386135, -0.11200000531971455, 0.8160000387579203, 0.0, 0.0, 0.0, 0.0, 0.0, 1.6506685979552112E9, 0.0, 2022-04-22 18:03:17.955
68.0, -1131.4805522942916, -207.73461298877373, -110.28029994340613, -127.72319333674386, 0.5440000258386135, -0.11200000531971455, 0.8160000387579203, 0.0, 0.0, 0.0, 0.0, 0.0, 1.6506685979552112E9, 0.0, 2022-04-22 18:03:17.955
69.0, -1116.0085861776024, -202.73062684806064, -103.63823762210086, -103.86263161944225, 0.5440000258386135, -0.11200000531971455, 0.8160000387579203, 0.0, 0.0, 0.0, 0.0, 0.0, 1.6506685979709654E9, 0.0, 2022-04-22 18:03:17.970
69.0, -1124.2887246794999, -195.20220823725685, -102.31057313783094, -116.5558520690538, 0.5440000258386135, -0.11200000531971455, 0.8160000387579203, 0.0, 0.0, 0.0, 0.0, 0.0, 1.6506685979709654E9, 0.0, 2022-04-22 18:03:17.970
70.0, -1189.9164891019464, -193.51177345728502, -111.22649463219568, -172.3962983074598, 0.5440000258386135, -0.11200000531971455, 0.8160000387579203, 0.0, 0.0, 0.0, 0.0, 0.0, 1.6506685979717393E9, 0.0, 2022-04-22 18:03:17.971
70.0, -1126.6822606511414, -193.50429365737364, -104.734028309118, -128.08970353240147, 0.5440000258386135, -0.11200000531971455, 0.8160000387579203, 0.0, 0.0, 0.0, 0.0, 0.0, 1.6506685979717393E9, 0.0, 2022-04-22 18:03:17.971
71.0, -1137.0679628280923, -195.84547102963552, -99.39345117239282, -119.54777203360572, 0.5440000258386135, -0.12800000607967377, 0.8160000387579203, 0.0, 0.0, 0.0, 0.0, 0.0, 1.6506685979852915E9, 0.0, 2022-04-22 18:03:17.985
71.0, -1196.4351347247139, -194.12137715006247, -110.9609617353417, -167.75882236240432, 0.5440000258386135, -0.12800000607967377, 0.8160000387579203, 0.0, 0.0, 0.0, 0.0, 0.0, 1.6506685979852915E9, 0.0, 2022-04-22 18:03:17.985
72.0, -1183.035073183477, -190.19448219658807, -106.07665239321068, -160.4996765484102, 0.5440000258386135, -0.12800000607967377, 0.8160000387579203, 0.0, 0.0, 0.0, 0.0, 0.0, 1.650668598000987E9, 0.0, 2022-04-22 18:03:18.000
72.0, -1151.6872317548841, -196.40271612303331, -109.64825685089454, -119.04662543954328, 0.5440000258386135, -0.12800000607967377, 0.8160000387579203, 0.0, 0.0, 0.0, 0.0, 0.0, 1.650668598000987E9, 0.0, 2022-04-22 18:03:18.000
73.0, -1120.2907716268674, -186.60417823912576, -99.53556737070903, -106.35340498993173, 0.5440000258386135, -0.12800000607967377, 0.8160000387579203, 0.0, 0.0, 0.0, 0.0, 0.0, 1.6506685980017068E9, 0.0, 2022-04-22 18:03:18.001
73.0, -1104.0446462193504, -188.71722171409056, -106.07665239321068, -110.93852233560756, 0.5440000258386135, -0.12800000607967377, 0.8160000387579203, 0.0, 0.0, 0.0, 0.0, 0.0, 1.6506685980017068E9, 0.0, 2022-04-22 18:03:18.001
