%OpenBCI Raw EEG Data
%Number of channels = 4
%Sample Rate = 200 Hz
%Board = OpenBCI_GUI$BoardGanglionBLE
Sample Index, EXG Channel 0, EXG Channel 1, EXG Channel 2, EXG Channel 3, Accel Channel 0, Accel Channel 1, Accel Channel 2, Other, Other, Other, Other, Other, Timestamp, Other, Timestamp (Formatted)
2.0, 11.414174664765596, -2.8423239663243294, -4.2036475501954556, -8.665348197333515, -0.43200002051889896, 0.0, 0.0, 0.0, 0.0, 0.0, 0.0, 0.0, 1.648085356978664E9, 0.0, 2022-03-23 20:29:16.978
2.0, -1.4174220832064748, -2.8685032660141587, -7.4237014120444655, -3.896975753828883, -0.43200002051889896, 0.0, 0.0, 0.0, 0.0, 0.0, 0.0, 0.0, 1.648085356978664E9, 0.0, 2022-03-23 20:29:16.978
3.0, -3.7212004559114575, -14.151781432330608, -15.763678313232958, -4.577637545764446, -0.43200002051889896, 0.0, 0.0, 0.0, 0.0, 0.0, 0.0, 0.0, 1.6480853569931803E9, 0.0, 2022-03-23 20:29:16.993
3.0, 10.011712181381881, -13.340223141945899, -16.182547108270228, -0.13837629836052656, -0.43200002051889896, 0.0, 0.0, 0.0, 0.0, 0.0, 0.0, 0.0, 1.6480853569931803E9, 0.0, 2022-03-23 20:29:16.993
4.0, -5.269519037567079, -4.03535205218941, -10.524078475311399, -5.108703339472413, -0.43200002051889896, 0.0, 0.0, 0.0, 0.0, 0.0, 0.0, 0.0, 1.648085356993856E9, 0.0, 2022-03-23 20:29:16.993
4.0, -4.7272335439920425, 5.920261629857123, -0.8003385905176401, 5.0526048401370645, -0.43200002051889896, 0.0, 0.0, 0.0, 0.0, 0.0, 0.0, 0.0, 1.648085356993856E9, 0.0, 2022-03-23 20:29:16.993
5.0, 21.73255864251405, 7.221746814437211, 4.5701577458530664, 13.990965734235942, -0.43200002051889896, 0.0, 0.0, 0.0, 0.0, 0.0, 0.0, 0.0, 1.6480853570075133E9, 0.0, 2022-03-23 20:29:17.007
5.0, 9.850896483287215, 1.61189688090235, 2.288818772882223, 10.49041937571019, -0.43200002051889896, 0.0, 0.0, 0.0, 0.0, 0.0, 0.0, 0.0, 1.6480853570075133E9, 0.0, 2022-03-23 20:29:17.007
6.0, 4.43926124740392, 11.948980358429253, 12.536144651472569, 8.399815300479531, -0.43200002051889896, 0.0, 0.0, 0.0, 0.0, 0.0, 0.0, 0.0, 1.6480853570232E9, 0.0, 2022-03-23 20:29:17.023
6.0, 17.940300087444484, 8.751365896314383, 5.123662939295173, 12.644601750187576, -0.43200002051889896, 0.0, 0.0, 0.0, 0.0, 0.0, 0.0, 0.0, 1.6480853570232E9, 0.0, 2022-03-23 20:29:17.023
7.0, 13.138268544338644, -2.214020773768425, -2.221500573679805, 2.060684875585139, -0.43200002051889896, 0.0, 0.0, 0.0, 0.0, 0.0, 0.0, 0.0, 1.6480853570238485E9, 0.0, 2022-03-23 20:29:17.023
7.0, 4.678614844568074, 1.2005078857764602, 1.5931973811239004, 8.298838001675904, -0.43200002051889896, 0.0, 0.0, 0.0, 0.0, 0.0, 0.0, 0.0, 1.6480853570238485E9, 0.0, 2022-03-23 20:29:17.023
8.0, -4.659915344789624, -2.6403693687170744, -13.631935338489711, 3.3958291597664356, -0.43200002051889896, 0.0, 0.0, 0.0, 0.0, 0.0, 0.0, 0.0, 1.6480853570374713E9, 0.0, 2022-03-23 20:29:17.037
8.0, 14.364955729804933, 2.124263174831867, -5.164801838807762, 10.621315874159336, -0.43200002051889896, 0.0, 0.0, 0.0, 0.0, 0.0, 0.0, 0.0, 1.6480853570374713E9, 0.0, 2022-03-23 20:29:17.037
9.0, 3.7997383549809456, 2.487033470533788, 3.661362056620419, 13.041031145490706, -0.43200002051889896, 0.0, 0.0, 0.0, 0.0, 0.0, 0.0, 0.0, 1.6480853570531619E9, 0.0, 2022-03-23 20:29:17.053
9.0, 0.160815698094666, 9.64146208576858, 6.944994217716157, 10.87562907114625, -0.43200002051889896, 0.0, 0.0, 0.0, 0.0, 0.0, 0.0, 0.0, 1.6480853570531619E9, 0.0, 2022-03-23 20:29:17.053
10.0, 17.009064998477697, 5.112443239428103, -0.8788764895871282, 23.486571721732616, -0.43200002051889896, 0.0, 0.49600002355873585, 0.0, 0.0, 0.0, 0.0, 0.0, 1.648085357053864E9, 0.0, 2022-03-23 20:29:17.053
10.0, 10.423101176507771, 0.22813389729708433, -3.8894959539175034, 14.765125025063753, -0.43200002051889896, 0.0, 0.49600002355873585, 0.0, 0.0, 0.0, 0.0, 0.0, 1.648085357053864E9, 0.0, 2022-03-23 20:29:17.053
11.0, 1.4211619831621647, 6.002539428882301, 0.14211619831621647, 15.202693319879472, -0.43200002051889896, 0.800000037997961, 0.49600002355873585, 0.0, 0.0, 0.0, 0.0, 0.0, 1.6480853570674305E9, 0.0, 2022-03-23 20:29:17.067
11.0, 21.6764601431787, 5.875382830388844, -3.668841856531799, 12.143455156125128, -0.43200002051889896, 0.800000037997961, 0.49600002355873585, 0.0, 0.0, 0.0, 0.0, 0.0, 1.6480853570674305E9, 0.0, 2022-03-23 20:29:17.067
12.0, 11.402954964898527, 6.627102721482515, -6.4214082239195704, 1.0172527879476547, -0.43200002051889896, 0.800000037997961, 0.49600002355873585, 0.0, 0.0, 0.0, 0.0, 0.0, 1.6480853570831437E9, 0.0, 2022-03-23 20:29:17.083
12.0, 0.11593689862638712, 2.2289803735911846, 0.362770295701921, 5.000246240757406, -0.43200002051889896, 0.800000037997961, 0.49600002355873585, 0.0, 0.0, 0.0, 0.0, 0.0, 1.6480853570831437E9, 0.0, 2022-03-23 20:29:17.083
13.0, 2.6254097688943148, 0.4861869942396879, -4.110150051303208, 3.6090034572407603, -0.43200002051889896, 0.800000037997961, 0.49600002355873585, 0.0, 0.0, 0.0, 0.0, 0.0, 1.6480853570837834E9, 0.0, 2022-03-23 20:29:17.083
13.0, 12.622162350453436, -0.4899268941953778, -10.808310871943831, 6.470026923343539, -0.43200002051889896, 0.800000037997961, 0.49600002355873585, 0.0, 0.0, 0.0, 0.0, 0.0, 1.6480853570837834E9, 0.0, 2022-03-23 20:29:17.083
14.0, 2.9620007649064064, 0.13089649844914675, 0.3665101956576109, 9.110396292060614, -0.43200002051889896, 0.800000037997961, 0.49600002355873585, 0.0, 0.0, 0.0, 0.0, 0.0, 1.6480853570974884E9, 0.0, 2022-03-23 20:29:17.097
14.0, -7.25166601408273, -2.4645940707996488, -4.065271251834929, -1.7465332793071866, -0.43200002051889896, 0.800000037997961, 0.49600002355873585, 0.0, 0.0, 0.0, 0.0, 0.0, 1.6480853570974884E9, 0.0, 2022-03-23 20:29:17.097
15.0, 2.984440164640546, -11.077583668753505, -10.85318967141211, -0.6133435927331448, -0.43200002051889896, 0.800000037997961, 0.49600002355873585, 0.0, 0.0, 0.0, 0.0, 0.0, 1.648085357113197E9, 0.0, 2022-03-23 20:29:17.113
15.0, -6.85897651873529, -5.060084640048444, -15.150334720499814, -5.0900038396939635, -0.43200002051889896, 0.800000037997961, 0.49600002355873585, 0.0, 0.0, 0.0, 0.0, 0.0, 1.648085357113197E9, 0.0, 2022-03-23 20:29:17.113
16.0, -8.968280093744397, 1.8849095776677132, -2.0756444754078984, -3.2350134616717696, -0.43200002051889896, 0.800000037997961, 0.49600002355873585, 0.0, 0.0, 0.0, 0.0, 0.0, 1.648085357113799E9, 0.0, 2022-03-23 20:29:17.113
16.0, -4.192427850328386, -8.108103103935719, -14.959599822759628, -4.151288950815797, -0.43200002051889896, 0.800000037997961, 0.49600002355873585, 0.0, 0.0, 0.0, 0.0, 0.0, 1.648085357113799E9, 0.0, 2022-03-23 20:29:17.113
17.0, -2.5580915696918964, -12.06865715701133, -13.317783742211759, 5.134882639162242, -0.43200002051889896, 0.800000037997961, 0.49600002355873585, 0.0, 0.0, 0.0, 0.0, 0.0, 1.6480853571274073E9, 0.0, 2022-03-23 20:29:17.127
17.0, -13.351442841812968, -8.119322803802788, -7.580777210183442, 2.543131969869137, -0.43200002051889896, 0.800000037997961, 0.49600002355873585, 0.0, 0.0, 0.0, 0.0, 0.0, 1.6480853571274073E9, 0.0, 2022-03-23 20:29:17.127
18.0, -9.914474782533944, -10.359522877261043, -16.762231601402164, -5.071304339915514, -0.43200002051889896, 0.800000037997961, 0.49600002355873585, 0.0, 0.0, 0.0, 0.0, 0.0, 1.648085357143116E9, 0.0, 2022-03-23 20:29:17.143
18.0, 7.64809540938586, -7.034751816652715, -9.854636383242905, 3.863316654227674, -0.43200002051889896, 0.800000037997961, 0.49600002355873585, 0.0, 0.0, 0.0, 0.0, 0.0, 1.648085357143116E9, 0.0, 2022-03-23 20:29:17.143
19.0, -1.9784070765599608, -5.086263939738274, -7.3863024124875665, 5.834243930876255, -0.43200002051889896, 0.800000037997961, 0.49600002355873585, 0.0, 0.0, 0.0, 0.0, 0.0, 1.6480853571437476E9, 0.0, 2022-03-23 20:29:17.143
19.0, -1.5408387817442417, 2.576791069470346, 0.7778991907835007, 10.337083477526903, -0.43200002051889896, 0.800000037997961, 0.49600002355873585, 0.0, 0.0, 0.0, 0.0, 0.0, 1.6480853571437476E9, 0.0, 2022-03-23 20:29:17.143
20.0, 22.88070792891085, 2.01580607611686, 2.4047556715086102, 23.00038472749293, -0.43200002051889896, 0.800000037997961, 0.49600002355873585, 0.0, 0.0, 0.0, 0.0, 0.0, 1.6480853571574306E9, 0.0, 2022-03-23 20:29:17.157
20.0, 2.292558672837913, 3.6763216564431787, -1.4136821832507849, 13.927387434989214, -0.43200002051889896, 0.800000037997961, 0.49600002355873585, 0.0, 0.0, 0.0, 0.0, 0.0, 1.6480853571574306E9, 0.0, 2022-03-23 20:29:17.157
21.0, 0.7741592908278108, 9.551704486832023, 12.652081550098956, 2.3561369720846415, -0.43200002051889896, 0.800000037997961, 0.49600002355873585, 0.0, 0.0, 0.0, 0.0, 0.0, 1.648085357173139E9, 0.0, 2022-03-23 20:29:17.173
21.0, 13.69551363773644, 9.731219684705138, 9.604063086211681, 16.08530970942229, -0.43200002051889896, 0.800000037997961, 0.49600002355873585, 0.0, 0.0, 0.0, 0.0, 0.0, 1.648085357173139E9, 0.0, 2022-03-23 20:29:17.173
22.0, 14.765125025063753, 6.226933426223695, 9.888295482844114, 21.179053449071944, -0.43200002051889896, 0.800000037997961, 0.49600002355873585, 0.0, 0.0, 0.0, 0.0, 0.0, 1.6480853571737592E9, 0.0, 2022-03-23 20:29:17.173
22.0, 3.9717737529426813, 11.545071163214743, 19.956106163561344, 20.790103853680193, -0.43200002051889896, 0.800000037997961, 0.49600002355873585, 0.0, 0.0, 0.0, 0.0, 0.0, 1.6480853571737592E9, 0.0, 2022-03-23 20:29:17.173
23.0, 7.206787214614451, 11.27953826636076, 14.929680623114109, 27.880954169668257, -0.43200002051889896, 0.800000037997961, 0.49600002355873585, 0.0, 0.0, 0.0, 0.0, 0.0, 1.6480853571874115E9, 0.0, 2022-03-23 20:29:17.187
23.0, 24.462685610167682, 16.96418619900942, 17.207279696129262, 28.12778756674379, -0.43200002051889896, 0.800000037997961, 0.49600002355873585, 0.0, 0.0, 0.0, 0.0, 0.0, 1.6480853571874115E9, 0.0, 2022-03-23 20:29:17.187
24.0, 8.396075400523841, 17.027764498256147, 19.25300497189164, 22.12898803781718, -0.43200002051889896, 0.800000037997961, 0.49600002355873585, 0.0, 0.0, 0.0, 0.0, 0.0, 1.6480853572031307E9, 0.0, 2022-03-23 20:29:17.203
24.0, 2.6665486684069037, 16.642554802820086, 11.754505560733378, 15.898314711637795, -0.43200002051889896, 0.800000037997961, 0.49600002355873585, 0.0, 0.0, 0.0, 0.0, 0.0, 1.6480853572031307E9, 0.0, 2022-03-23 20:29:17.203
25.0, 26.60190838482231, 17.614928791299462, 2.5618314696475863, 22.98916502762586, -0.43200002051889896, 0.800000037997961, 0.49600002355873585, 0.0, 0.0, 0.0, 0.0, 0.0, 1.648085357203751E9, 0.0, 2022-03-23 20:29:17.203
25.0, 8.762585596181452, 11.114982668310404, 4.977806841023266, 3.2798922611400485, -0.43200002051889896, 0.800000037997961, 0.49600002355873585, 0.0, 0.0, 0.0, 0.0, 0.0, 1.648085357203751E9, 0.0, 2022-03-23 20:29:17.203
26.0, 0.564724893309176, 6.552304722368717, 3.1190765630453825, 16.52287800423801, -0.43200002051889896, 0.800000037997961, 0.49600002355873585, 0.0, 0.0, 0.0, 0.0, 0.0, 1.6480853572173896E9, 0.0, 2022-03-23 20:29:17.217
26.0, 17.446633293293417, 5.269519037567079, 7.562077710404992, 25.36400149948895, -0.43200002051889896, 0.800000037997961, 0.49600002355873585, 0.0, 0.0, 0.0, 0.0, 0.0, 1.6480853572173896E9, 0.0, 2022-03-23 20:29:17.217
27.0, 6.503686022944748, 2.9507810650393367, -1.6642554802820086, 8.010865705087781, -0.43200002051889896, 0.800000037997961, 0.49600002355873585, 0.0, 0.0, 0.0, 0.0, 0.0, 1.6480853572331648E9, 0.0, 2022-03-23 20:29:17.233
27.0, -7.6667949091643095, 5.909041929990053, -2.688988068141043, 4.682354744523764, -0.43200002051889896, 0.800000037997961, 0.49600002355873585, 0.0, 0.0, 0.0, 0.0, 0.0, 1.6480853572331648E9, 0.0, 2022-03-23 20:29:17.233
28.0, -0.19821469765156507, 0.4637475945055485, -2.659068868495524, 9.746179284527898, -0.43200002051889896, 0.800000037997961, 0.49600002355873585, 0.0, 0.0, 0.0, 0.0, 0.0, 1.648085357233755E9, 0.0, 2022-03-23 20:29:17.233
28.0, 8.665348197333515, 0.10097729880362749, -5.942701029591262, 13.564617139287293, -0.43200002051889896, 0.800000037997961, 0.49600002355873585, 0.0, 0.0, 0.0, 0.0, 0.0, 1.648085357233755E9, 0.0, 2022-03-23 20:29:17.233
29.0, 2.939561365172267, 4.338283948600292, 1.4548210827633739, 13.31404384225607, -0.43200002051889896, 0.800000037997961, 0.49600002355873585, 0.0, 0.0, 0.0, 0.0, 0.0, 1.6480853572473764E9, 0.0, 2022-03-23 20:29:17.247
29.0, -2.973220464773476, -0.9948133882135153, -3.0367987640202045, 12.360369353555143, -0.43200002051889896, 0.800000037997961, 0.49600002355873585, 0.0, 0.0, 0.0, 0.0, 0.0, 1.6480853572473764E9, 0.0, 2022-03-23 20:29:17.247
30.0, 13.964786434546113, -1.8662100778892636, -10.45676027610898, 16.9716659989208, -0.43200002051889896, 0.800000037997961, 0.4800000227987766, 0.0, 0.0, 0.0, 0.0, 0.0, 1.6480853572951648E9, 0.0, 2022-03-23 20:29:17.295
30.0, -3.62396305706352, -1.933528277091682, -17.098822597414255, 8.699007296934724, -0.43200002051889896, 0.800000037997961, 0.4800000227987766, 0.0, 0.0, 0.0, 0.0, 0.0, 1.6480853572951648E9, 0.0, 2022-03-23 20:29:17.295
31.0, -14.652928026393056, -2.00458637624979, -14.316337030380964, 8.119322803802788, -0.43200002051889896, 0.8160000387579203, 0.4800000227987766, 0.0, 0.0, 0.0, 0.0, 0.0, 1.6480853572959332E9, 0.0, 2022-03-23 20:29:17.295
31.0, 3.702500956133008, -0.8938360894098878, -2.7114274678751826, 11.24961906671524, -0.43200002051889896, 0.8160000387579203, 0.4800000227987766, 0.0, 0.0, 0.0, 0.0, 0.0, 1.6480853572959332E9, 0.0, 2022-03-23 20:29:17.295
32.0, 8.362416300922632, -1.686694880016148, -4.342023848555982, 8.152981903403997, -0.43200002051889896, 0.8160000387579203, 0.4800000227987766, 0.0, 0.0, 0.0, 0.0, 0.0, 1.6480853572966328E9, 0.0, 2022-03-23 20:29:17.296
32.0, -7.468580211512744, -9.529265087097883, -4.947887641377747, -1.7614928791299462, -0.43200002051889896, 0.8160000387579203, 0.4800000227987766, 0.0, 0.0, 0.0, 0.0, 0.0, 1.6480853572966328E9, 0.0, 2022-03-23 20:29:17.296
33.0, -4.001692952588201, -12.973712946288288, 4.43926124740392, 9.140315491706133, -0.43200002051889896, 0.8160000387579203, 0.4800000227987766, 0.0, 0.0, 0.0, 0.0, 0.0, 1.6480853572973597E9, 0.0, 2022-03-23 20:29:17.297
33.0, 4.6486956449225545, -17.854282388463616, -1.810111578553915, 17.74582528974861, -0.43200002051889896, 0.8160000387579203, 0.4800000227987766, 0.0, 0.0, 0.0, 0.0, 0.0, 1.6480853572973597E9, 0.0, 2022-03-23 20:29:17.297
34.0, -5.030165440402925, -16.276044607162476, 6.066117728129029, 13.807710636407137, -0.43200002051889896, 0.8160000387579203, 0.4800000227987766, 0.0, 0.0, 0.0, 0.0, 0.0, 1.648085357308108E9, 0.0, 2022-03-23 20:29:17.308
34.0, -10.681154273450375, -9.65642168559134, 3.137776062823832, 9.521785287186503, -0.43200002051889896, 0.8160000387579203, 0.4800000227987766, 0.0, 0.0, 0.0, 0.0, 0.0, 1.648085357308108E9, 0.0, 2022-03-23 20:29:17.308
35.0, 10.561477474868298, -7.117029615677893, 5.505132734775543, 21.556783344596624, -0.43200002051889896, 0.8160000387579203, 0.4800000227987766, 0.0, 0.0, 0.0, 0.0, 0.0, 1.6480853573088033E9, 0.0, 2022-03-23 20:29:17.308
35.0, 3.5529049579054117, -2.0681646754965186, 8.44469409994781, 23.557629820890725, -0.43200002051889896, 0.8160000387579203, 0.4800000227987766, 0.0, 0.0, 0.0, 0.0, 0.0, 1.6480853573088033E9, 0.0, 2022-03-23 20:29:17.308
36.0, -1.3388841841369867, -3.6464024567976594, 15.823516712523997, 12.270611754618585, -0.43200002051889896, 0.8160000387579203, 0.4800000227987766, 0.0, 0.0, 0.0, 0.0, 0.0, 1.648085357323146E9, 0.0, 2022-03-23 20:29:17.323
36.0, 23.553889920935035, 5.65098883304745, 19.533497468568385, 42.006556302309036, -0.43200002051889896, 0.8160000387579203, 0.4800000227987766, 0.0, 0.0, 0.0, 0.0, 0.0, 1.648085357323146E9, 0.0, 2022-03-23 20:29:17.323
37.0, 26.018483991734684, 9.394628688693047, 21.100515550002456, 42.80315499287099, -0.43200002051889896, 0.8160000387579203, 0.4800000227987766, 0.0, 0.0, 0.0, 0.0, 0.0, 1.6480853573237839E9, 0.0, 2022-03-23 20:29:17.323
37.0, 10.793351272121072, 10.744732572697103, 25.36026159953326, 37.06988836079836, -0.43200002051889896, 0.8160000387579203, 0.4800000227987766, 0.0, 0.0, 0.0, 0.0, 0.0, 1.6480853573237839E9, 0.0, 2022-03-23 20:29:17.323
38.0, -3.3920892598107457, -1.6231165807694197, 6.185794526711106, 1.0621315874159336, -0.43200002051889896, 0.8160000387579203, 0.4800000227987766, 0.0, 0.0, 0.0, 0.0, 0.0, 1.6480853573373766E9, 0.0, 2022-03-23 20:29:17.337
38.0, 14.563170427456498, -3.986733352765441, 2.247679873369634, 10.146348579786718, -0.43200002051889896, 0.8160000387579203, 0.4800000227987766, 0.0, 0.0, 0.0, 0.0, 0.0, 1.6480853573373766E9, 0.0, 2022-03-23 20:29:17.337
39.0, -3.4743670588359237, -16.53035780414939, -6.1783147267997265, 10.516598675400019, -0.43200002051889896, 0.8160000387579203, 0.4800000227987766, 0.0, 0.0, 0.0, 0.0, 0.0, 1.648085357353122E9, 0.0, 2022-03-23 20:29:17.353
39.0, -13.590796438977122, -13.867549035698175, -3.3098114607855678, 2.124263174831867, -0.43200002051889896, 0.8160000387579203, 0.4800000227987766, 0.0, 0.0, 0.0, 0.0, 0.0, 1.648085357353122E9, 0.0, 2022-03-23 20:29:17.353
40.0, 1.163108886219561, -21.837275841273367, -13.340223141945899, 4.659915344789624, -0.43200002051889896, 0.8160000387579203, 0.4800000227987766, 0.0, 0.0, 0.0, 0.0, 0.0, 1.648085357353773E9, 0.0, 2022-03-23 20:29:17.353
40.0, -12.625902250409126, -14.836183124221861, -13.497298940084875, 1.163108886219561, -0.43200002051889896, 0.8160000387579203, 0.4800000227987766, 0.0, 0.0, 0.0, 0.0, 0.0, 1.648085357353773E9, 0.0, 2022-03-23 20:29:17.353
41.0, -15.068056921474636, -12.274351654574275, -8.695267396979034, 3.3172912606969476, -0.43200002051889896, 0.8160000387579203, 0.4800000227987766, 0.0, 0.0, 0.0, 0.0, 0.0, 1.648085357367488E9, 0.0, 2022-03-23 20:29:17.367
41.0, 4.899268941953778, -10.146348579786718, -4.401862247847021, 17.409234293736517, -0.43200002051889896, 0.8160000387579203, 0.4800000227987766, 0.0, 0.0, 0.0, 0.0, 0.0, 1.648085357367488E9, 0.0, 2022-03-23 20:29:17.367
42.0, 4.248526349663734, -7.726633308455348, 1.1743285860866308, 15.28123121894896, -0.43200002051889896, 0.8160000387579203, 0.4800000227987766, 0.0, 0.0, 0.0, 0.0, 0.0, 1.6480853573831728E9, 0.0, 2022-03-23 20:29:17.383
42.0, -12.771758348681033, -11.189780667424202, -6.125956127420068, 10.88310887105763, -0.43200002051889896, 0.8160000387579203, 0.4800000227987766, 0.0, 0.0, 0.0, 0.0, 0.0, 1.6480853573831728E9, 0.0, 2022-03-23 20:29:17.383
43.0, -5.276998837478459, -7.4237014120444655, -5.950180829502642, 16.182547108270228, -0.43200002051889896, 0.8160000387579203, 0.4800000227987766, 0.0, 0.0, 0.0, 0.0, 0.0, 1.648085357383819E9, 0.0, 2022-03-23 20:29:17.383
43.0, 2.775005767121911, -15.778637913055718, -11.432874164544046, 12.09483645670116, -0.43200002051889896, 0.8160000387579203, 0.4800000227987766, 0.0, 0.0, 0.0, 0.0, 0.0, 1.648085357383819E9, 0.0, 2022-03-23 20:29:17.383
44.0, -11.806864160113037, -14.349996129982173, -8.523231999017298, 4.173728350549936, -0.43200002051889896, 0.8160000387579203, 0.4800000227987766, 0.0, 0.0, 0.0, 0.0, 0.0, 1.6480853574137955E9, 0.0, 2022-03-23 20:29:17.413
44.0, -16.799630600959063, -11.862962659448385, -3.4107887595891953, -3.22753366176039, -0.43200002051889896, 0.8160000387579203, 0.4800000227987766, 0.0, 0.0, 0.0, 0.0, 0.0, 1.6480853574137955E9, 0.0, 2022-03-23 20:29:17.413
45.0, 10.654974973760545, -4.457960747182369, 1.2266871854662895, 6.922554817982018, -0.43200002051889896, 0.8160000387579203, 0.4800000227987766, 0.0, 0.0, 0.0, 0.0, 0.0, 1.6480853574145868E9, 0.0, 2022-03-23 20:29:17.414
45.0, -4.869349742308259, -7.318984213285148, 0.17577529791742563, 5.123662939295173, -0.43200002051889896, 0.8160000387579203, 0.4800000227987766, 0.0, 0.0, 0.0, 0.0, 0.0, 1.6480853574145868E9, 0.0, 2022-03-23 20:29:17.414
46.0, -10.509118875488639, 0.5983839929103851, 11.791904560290277, 4.540238546207547, -0.43200002051889896, 0.8160000387579203, 0.4800000227987766, 0.0, 0.0, 0.0, 0.0, 0.0, 1.6480853574152672E9, 0.0, 2022-03-23 20:29:17.415
46.0, 15.808557112701237, 2.9881800645962358, 13.186887243762612, 23.894220816902816, -0.43200002051889896, 0.8160000387579203, 0.4800000227987766, 0.0, 0.0, 0.0, 0.0, 0.0, 1.6480853574152672E9, 0.0, 2022-03-23 20:29:17.415
47.0, 3.014359364286065, -0.3253712961450219, 0.3029318964108825, 19.039830674417317, -0.43200002051889896, 0.8160000387579203, 0.4800000227987766, 0.0, 0.0, 0.0, 0.0, 0.0, 1.6480853574274511E9, 0.0, 2022-03-23 20:29:17.427
47.0, -6.406448624096811, -4.0390919521451, -0.9798537883907557, 3.5566448578611016, -0.43200002051889896, 0.8160000387579203, 0.4800000227987766, 0.0, 0.0, 0.0, 0.0, 0.0, 1.6480853574274511E9, 0.0, 2022-03-23 20:29:17.427
48.0, 5.800584831275046, 4.506579446606338, 13.631935338489711, 17.977699087001383, -0.43200002051889896, 0.8160000387579203, 0.4800000227987766, 0.0, 0.0, 0.0, 0.0, 0.0, 1.6480853574431882E9, 0.0, 2022-03-23 20:29:17.443
48.0, 19.140807973220944, 7.068410916253924, 10.123909180052578, 26.313936088234186, -0.43200002051889896, 0.8160000387579203, 0.4800000227987766, 0.0, 0.0, 0.0, 0.0, 0.0, 1.6480853574431882E9, 0.0, 2022-03-23 20:29:17.443
49.0, 12.397768353112042, 18.12355518527329, 18.239492083899677, 33.06445550825447, -0.43200002051889896, 0.8160000387579203, 0.4800000227987766, 0.0, 0.0, 0.0, 0.0, 0.0, 1.6480853574438653E9, 0.0, 2022-03-23 20:29:17.443
49.0, 8.556891098618507, 16.84450940042734, 20.58066945616156, 23.643647519871593, -0.43200002051889896, 0.8160000387579203, 0.4800000227987766, 0.0, 0.0, 0.0, 0.0, 0.0, 1.6480853574438653E9, 0.0, 2022-03-23 20:29:17.443
50.0, 23.74462481867522, 15.71505961380899, 23.826902617700398, 30.65222003683448, -0.43200002051889896, 0.8160000387579203, 0.4800000227987766, 0.0, 0.0, 0.0, 0.0, 0.0, 1.6480853574574268E9, 0.0, 2022-03-23 20:29:17.457
50.0, 11.470273164100945, 17.835582888685167, 16.52287800423801, 25.947425892576575, -0.43200002051889896, 0.8160000387579203, 0.4800000227987766, 0.0, 0.0, 0.0, 0.0, 0.0, 1.6480853574574268E9, 0.0, 2022-03-23 20:29:17.457
51.0, -6.234413226135075, 14.05080413352698, 10.415621376596391, 13.067210445180535, -0.43200002051889896, 0.8160000387579203, 0.4800000227987766, 0.0, 0.0, 0.0, 0.0, 0.0, 1.648085357473146E9, 0.0, 2022-03-23 20:29:17.473
51.0, 16.13392840884626, 8.44469409994781, 8.224040002562106, 20.06830316223204, -0.43200002051889896, 0.8160000387579203, 0.4800000227987766, 0.0, 0.0, 0.0, 0.0, 0.0, 1.648085357473146E9, 0.0, 2022-03-23 20:29:17.473
52.0, 10.568957274779677, 3.22753366176039, 9.005679093301296, 18.733158878050745, -0.43200002051889896, 0.8160000387579203, 0.4800000227987766, 0.0, 0.0, 0.0, 0.0, 0.0, 1.64808535747391E9, 0.0, 2022-03-23 20:29:17.473
52.0, -0.12715659849345684, 1.653035780414939, 5.729526732116938, 8.680307797156274, -0.43200002051889896, 0.8160000387579203, 0.4800000227987766, 0.0, 0.0, 0.0, 0.0, 0.0, 1.64808535747391E9, 0.0, 2022-03-23 20:29:17.473
53.0, 9.529265087097883, 6.286771825514734, -1.0135128879919648, 13.228026143275201, -0.43200002051889896, 0.8160000387579203, 0.4800000227987766, 0.0, 0.0, 0.0, 0.0, 0.0, 1.6480853574874048E9, 0.0, 2022-03-23 20:29:17.487
53.0, 24.20837241318077, 4.921708341687918, 15.146594820544124, 30.824255434796214, -0.43200002051889896, 0.8160000387579203, 0.4800000227987766, 0.0, 0.0, 0.0, 0.0, 0.0, 1.6480853574874048E9, 0.0, 2022-03-23 20:29:17.487
54.0, 13.542177739553154, 6.03619852848351, 20.202939560636878, 17.3419160945341, -0.43200002051889896, 0.8160000387579203, 0.4800000227987766, 0.0, 0.0, 0.0, 0.0, 0.0, 1.6480853575031807E9, 0.0, 2022-03-23 20:29:17.503
54.0, 4.6075567454099655, 13.519738339819014, 39.36244703363627, 33.10933430772275, -0.43200002051889896, 0.8160000387579203, 0.4800000227987766, 0.0, 0.0, 0.0, 0.0, 0.0, 1.6480853575031807E9, 0.0, 2022-03-23 20:29:17.503
55.0, 20.46099265757948, -1.9522277768701315, 35.52156977914274, 32.828841811046004, -0.43200002051889896, 0.8160000387579203, 0.4800000227987766, 0.0, 0.0, 0.0, 0.0, 0.0, 1.6480853575038772E9, 0.0, 2022-03-23 20:29:17.503
55.0, 17.454113093204796, 6.114736427552998, 42.56380139570683, 27.637860672548413, -0.43200002051889896, 0.8160000387579203, 0.4800000227987766, 0.0, 0.0, 0.0, 0.0, 0.0, 1.6480853575038772E9, 0.0, 2022-03-23 20:29:17.503
56.0, 14.192920331843197, 18.658360878936946, 61.15110417548567, 28.329742164351046, -0.43200002051889896, 0.8160000387579203, 0.4800000227987766, 0.0, 0.0, 0.0, 0.0, 0.0, 1.648085357517403E9, 0.0, 2022-03-23 20:29:17.517
56.0, 27.118014578707516, 2.651589068584144, 55.387918343767524, 44.463670573197305, -0.43200002051889896, 0.8160000387579203, 0.4800000227987766, 0.0, 0.0, 0.0, 0.0, 0.0, 1.648085357517403E9, 0.0, 2022-03-23 20:29:17.517
57.0, 20.95091955177486, -0.643262792378664, 60.42556358408183, 46.516875648871064, -0.43200002051889896, 0.8160000387579203, 0.4800000227987766, 0.0, 0.0, 0.0, 0.0, 0.0, 1.6480853575331595E9, 0.0, 2022-03-23 20:29:17.533
57.0, 8.915921494364738, -7.999646005220711, 67.04144660569727, 39.631719830445945, -0.43200002051889896, 0.8160000387579203, 0.4800000227987766, 0.0, 0.0, 0.0, 0.0, 0.0, 1.6480853575331595E9, 0.0, 2022-03-23 20:29:17.533
58.0, 15.864655612036586, -13.755352037027478, 63.2529279505834, 43.36413998622447, -0.43200002051889896, 0.8160000387579203, 0.4800000227987766, 0.0, 0.0, 0.0, 0.0, 0.0, 1.6480853575339067E9, 0.0, 2022-03-23 20:29:17.533
58.0, 29.620007649064064, -13.403801441192627, 64.28514033835381, 45.671658258885145, -0.43200002051889896, 0.8160000387579203, 0.4800000227987766, 0.0, 0.0, 0.0, 0.0, 0.0, 1.6480853575339067E9, 0.0, 2022-03-23 20:29:17.533
59.0, 15.71505961380899, -14.08446323312819, 57.19802992232144, 41.217437411658466, -0.43200002051889896, 0.8160000387579203, 0.4800000227987766, 0.0, 0.0, 0.0, 0.0, 0.0, 1.6480853575473964E9, 0.0, 2022-03-23 20:29:17.547
59.0, 4.880569442175329, -14.305117330513895, 52.34363977983594, 28.91690645739436, -0.43200002051889896, 0.8160000387579203, 0.4800000227987766, 0.0, 0.0, 0.0, 0.0, 0.0, 1.6480853575473964E9, 0.0, 2022-03-23 20:29:17.547
60.0, 31.254343929700553, -13.179407443851233, 59.337252696976066, 48.28958822786808, -0.43200002051889896, 0.8160000387579203, 0.4800000227987766, 0.0, 0.0, 0.0, 0.0, 0.0, 1.6480853575631905E9, 0.0, 2022-03-23 20:29:17.563
60.0, 20.98457865137607, -6.537345122545958, 69.76783367339522, 45.96337045542896, -0.43200002051889896, 0.8160000387579203, 0.4800000227987766, 0.0, 0.0, 0.0, 0.0, 0.0, 1.6480853575631905E9, 0.0, 2022-03-23 20:29:17.563
61.0, 16.672474002465606, 3.388349359855056, 72.19128884468228, 45.84743355680257, -0.43200002051889896, 0.8160000387579203, 0.4800000227987766, 0.0, 0.0, 0.0, 0.0, 0.0, 1.648085357563928E9, 0.0, 2022-03-23 20:29:17.563
61.0, 27.39850707538426, -9.592843386344612, 62.920076854527, 48.18113112915307, -0.43200002051889896, 0.8160000387579203, 0.4800000227987766, 0.0, 0.0, 0.0, 0.0, 0.0, 1.648085357563928E9, 0.0, 2022-03-23 20:29:17.563
62.0, 16.979145798832178, -11.193520567379892, 52.62787217646837, 44.519769072532654, -0.43200002051889896, 0.8160000387579203, 0.4800000227987766, 0.0, 0.0, 0.0, 0.0, 0.0, 1.648085357577471E9, 0.0, 2022-03-23 20:29:17.577
62.0, 8.41851480025798, -9.802277783863246, 51.262808692641556, 34.73245088849217, -0.43200002051889896, 0.8160000387579203, 0.4800000227987766, 0.0, 0.0, 0.0, 0.0, 0.0, 1.648085357577471E9, 0.0, 2022-03-23 20:29:17.577
63.0, 6.615883021615446, -14.293897630646825, 54.33326655626297, 38.14697954803705, -0.43200002051889896, 0.8160000387579203, 0.4800000227987766, 0.0, 0.0, 0.0, 0.0, 0.0, 1.6480853575931647E9, 0.0, 2022-03-23 20:29:17.593
63.0, 25.442539398558438, -11.436614064499736, 55.18970364611596, 42.56754129566252, -0.43200002051889896, 0.8160000387579203, 0.4800000227987766, 0.0, 0.0, 0.0, 0.0, 0.0, 1.6480853575931647E9, 0.0, 2022-03-23 20:29:17.593
64.0, 13.156968044117093, -6.43262792378664, 51.77517498657107, 39.72521732933819, -0.43200002051889896, 0.8160000387579203, 0.4800000227987766, 0.0, 0.0, 0.0, 0.0, 0.0, 1.6480853575938325E9, 0.0, 2022-03-23 20:29:17.593
64.0, 8.85982299502939, -2.902162365615368, 58.81366670317948, 38.20681794732809, -0.43200002051889896, 0.8160000387579203, 0.4800000227987766, 0.0, 0.0, 0.0, 0.0, 0.0, 1.6480853575938325E9, 0.0, 2022-03-23 20:29:17.593
65.0, 31.112227731384337, -4.532758746296167, 48.61121962405741, 50.65694489981979, -0.43200002051889896, 0.8160000387579203, 0.4800000227987766, 0.0, 0.0, 0.0, 0.0, 0.0, 1.6480853576074483E9, 0.0, 2022-03-23 20:29:17.607
65.0, 18.14225468505174, -5.606110033579171, 49.62473251204938, 45.82499415706843, -0.43200002051889896, 0.8160000387579203, 0.4800000227987766, 0.0, 0.0, 0.0, 0.0, 0.0, 1.6480853576074483E9, 0.0, 2022-03-23 20:29:17.607
66.0, 10.767171972431242, -4.779592143371701, 56.65948432870209, 41.44931120891124, -0.43200002051889896, 0.8160000387579203, 0.4800000227987766, 0.0, 0.0, 0.0, 0.0, 0.0, 1.6480853576231835E9, 0.0, 2022-03-23 20:29:17.623
66.0, 15.206433219835162, -21.941993040032685, 32.94851860962808, 24.48138510994613, -0.43200002051889896, 0.8160000387579203, 0.4800000227987766, 0.0, 0.0, 0.0, 0.0, 0.0, 1.6480853576231835E9, 0.0, 2022-03-23 20:29:17.623
67.0, 17.379315094090998, -20.363755258731544, 39.631719830445945, 37.83656785171479, -0.43200002051889896, 0.8160000387579203, 0.4800000227987766, 0.0, 0.0, 0.0, 0.0, 0.0, 1.648085357623849E9, 0.0, 2022-03-23 20:29:17.623
67.0, -5.037645240314305, -17.962739487178624, 32.237937618047, 22.813389729708433, -0.43200002051889896, 0.8160000387579203, 0.4800000227987766, 0.0, 0.0, 0.0, 0.0, 0.0, 1.648085357623849E9, 0.0, 2022-03-23 20:29:17.623
68.0, 1.5595382815226912, -18.778037677519023, 23.101362026296556, 24.066256214864552, -0.43200002051889896, 0.8160000387579203, 0.4800000227987766, 0.0, 0.0, 0.0, 0.0, 0.0, 1.6480853576373768E9, 0.0, 2022-03-23 20:29:17.637
68.0, 15.221392819657922, -13.27664484269917, 35.962877973914146, 43.89894567988813, -0.43200002051889896, 0.8160000387579203, 0.4800000227987766, 0.0, 0.0, 0.0, 0.0, 0.0, 1.6480853576373768E9, 0.0, 2022-03-23 20:29:17.637
69.0, 2.1467025745660067, -10.153828379698098, 41.89809920359403, 30.56620233785361, -0.43200002051889896, 0.8160000387579203, 0.4800000227987766, 0.0, 0.0, 0.0, 0.0, 0.0, 1.6480853576531768E9, 0.0, 2022-03-23 20:29:17.653
69.0, -1.2640861850231886, -7.797691407613456, 41.52410920802504, 34.9044862864539, -0.43200002051889896, 0.8160000387579203, 0.4800000227987766, 0.0, 0.0, 0.0, 0.0, 0.0, 1.6480853576531768E9, 0.0, 2022-03-23 20:29:17.653
70.0, 25.33034239988774, -10.019191981293261, 40.63027311861515, 36.056375472806394, -0.43200002051889896, 0.8160000387579203, 0.4800000227987766, 0.0, 0.0, 0.0, 0.0, 0.0, 1.648085357653866E9, 0.0, 2022-03-23 20:29:17.653
70.0, 15.195213519968092, -6.238153126090765, 37.73559055291116, 34.58659479022026, -0.43200002051889896, 0.8160000387579203, 0.4800000227987766, 0.0, 0.0, 0.0, 0.0, 0.0, 1.648085357653866E9, 0.0, 2022-03-23 20:29:17.653
71.0, -2.9246017653495073, -9.996752581559122, 34.063008796423674, 29.077722155489028, -0.43200002051889896, 0.8160000387579203, 0.4800000227987766, 0.0, 0.0, 0.0, 0.0, 0.0, 1.6480853576673317E9, 0.0, 2022-03-23 20:29:17.667
71.0, 14.682847226038575, -13.504778739996254, 26.15686029009521, 24.1223547141999, -0.43200002051889896, 0.8160000387579203, 0.4800000227987766, 0.0, 0.0, 0.0, 0.0, 0.0, 1.6480853576673317E9, 0.0, 2022-03-23 20:29:17.667
72.0, 9.405848388560116, -15.845956112258136, 23.183639825321734, 35.83946127537638, -0.43200002051889896, 0.8160000387579203, 0.4800000227987766, 0.0, 0.0, 0.0, 0.0, 0.0, 1.6480853576831815E9, 0.0, 2022-03-23 20:29:17.683
72.0, -4.2859253492206335, -17.26337819546461, 34.818468587473035, 29.634967248886824, -0.43200002051889896, 0.8160000387579203, 0.4800000227987766, 0.0, 0.0, 0.0, 0.0, 0.0, 1.6480853576831815E9, 0.0, 2022-03-23 20:29:17.683
73.0, 14.619268926791847, -3.8745363540947437, 37.30924195796251, 38.053482049144804, -0.43200002051889896, 0.8160000387579203, 0.4800000227987766, 0.0, 0.0, 0.0, 0.0, 0.0, 1.6480853576838443E9, 0.0, 2022-03-23 20:29:17.683
73.0, 23.71844551898539, -5.426594835706055, 36.056375472806394, 45.19295106455684, -0.43200002051889896, 0.8160000387579203, 0.4800000227987766, 0.0, 0.0, 0.0, 0.0, 0.0, 1.6480853576838443E9, 0.0, 2022-03-23 20:29:17.683
74.0, 6.185794526711106, -13.530958039686084, 30.760677135549486, 27.83981527015567, -0.43200002051889896, 0.8160000387579203, 0.4800000227987766, 0.0, 0.0, 0.0, 0.0, 0.0, 1.648085357713781E9, 0.0, 2022-03-23 20:29:17.713
74.0, -5.564971134066582, -12.90639474708587, 26.94597918074578, 24.025117315351963, -0.43200002051889896, 0.8160000387579203, 0.4800000227987766, 0.0, 0.0, 0.0, 0.0, 0.0, 1.648085357713781E9, 0.0, 2022-03-23 20:29:17.713
75.0, 15.524324716068804, -16.88564829993993, 12.753058848902583, 33.87227389868349, -0.43200002051889896, 0.8160000387579203, 0.4800000227987766, 0.0, 0.0, 0.0, 0.0, 0.0, 1.648085357714517E9, 0.0, 2022-03-23 20:29:17.714
75.0, -3.2836321610957384, -17.057683697901666, 5.924001529812813, 13.194367043673992, -0.43200002051889896, 0.8160000387579203, 0.4800000227987766, 0.0, 0.0, 0.0, 0.0, 0.0, 1.648085357714517E9, 0.0, 2022-03-23 20:29:17.714
76.0, -7.887449006550014, -10.935467470437288, 21.979392039589584, 20.778884153813124, -0.43200002051889896, 0.8160000387579203, 0.4800000227987766, 0.0, 0.0, 0.0, 0.0, 0.0, 1.6480853577152712E9, 0.0, 2022-03-23 20:29:17.715
76.0, 19.454959569498897, -7.558337810449302, 23.80072331801057, 41.80086180474609, -0.43200002051889896, 0.8160000387579203, 0.4800000227987766, 0.0, 0.0, 0.0, 0.0, 0.0, 1.6480853577152712E9, 0.0, 2022-03-23 20:29:17.715
77.0, 13.575836839154363, 3.145255862735212, 29.945378945209086, 38.3152750460431, -0.43200002051889896, 0.8160000387579203, 0.4800000227987766, 0.0, 0.0, 0.0, 0.0, 0.0, 1.6480853577274897E9, 0.0, 2022-03-23 20:29:17.727
77.0, -0.4899268941953778, -4.330804148688912, 30.5699422378093, 32.70542511250824, -0.43200002051889896, 0.8160000387579203, 0.4800000227987766, 0.0, 0.0, 0.0, 0.0, 0.0, 1.6480853577274897E9, 0.0, 2022-03-23 20:29:17.727
78.0, 12.928834146820009, 1.929788377135992, 32.05842242017388, 23.482831821776927, -0.43200002051889896, 0.8160000387579203, 0.4800000227987766, 0.0, 0.0, 0.0, 0.0, 0.0, 1.648085357743143E9, 0.0, 2022-03-23 20:29:17.743
78.0, 21.39596764650196, -2.4084955714643, 24.821716005913913, 30.2370911417529, -0.43200002051889896, 0.8160000387579203, 0.4800000227987766, 0.0, 0.0, 0.0, 0.0, 0.0, 1.648085357743143E9, 0.0, 2022-03-23 20:29:17.743
79.0, -1.3089649844914675, -1.2304270854219794, 17.012804898433387, 18.08989608567208, -0.43200002051889896, 0.8160000387579203, 0.4800000227987766, 0.0, 0.0, 0.0, 0.0, 0.0, 1.6480853577438023E9, 0.0, 2022-03-23 20:29:17.743
79.0, 1.6044170809909701, 2.217760673724115, 30.21091184206307, 20.217899160459638, -0.43200002051889896, 0.8160000387579203, 0.4800000227987766, 0.0, 0.0, 0.0, 0.0, 0.0, 1.6480853577438023E9, 0.0, 2022-03-23 20:29:17.743
80.0, 20.363755258731544, -5.24707963783294, 24.96757210418582, 41.13515961263329, -0.43200002051889896, 0.8160000387579203, 0.4800000227987766, 0.0, 0.0, 0.0, 0.0, 0.0, 1.6480853577574656E9, 0.0, 2022-03-23 20:29:17.757
80.0, 2.6291496688500047, -5.781885331496596, 25.32660249993205, 22.054190038703382, -0.43200002051889896, 0.8160000387579203, 0.4800000227987766, 0.0, 0.0, 0.0, 0.0, 0.0, 1.6480853577574656E9, 0.0, 2022-03-23 20:29:17.757
81.0, -5.8940823301672935, -7.154428615234792, 18.97999227512628, 13.534697939641774, -0.43200002051889896, 0.8160000387579203, 0.4800000227987766, 0.0, 0.0, 0.0, 0.0, 0.0, 1.6480853577730808E9, 0.0, 2022-03-23 20:29:17.773
81.0, 14.09942283295095, -5.931481329724193, 16.754751801490784, 28.6064947610721, -0.43200002051889896, 0.8160000387579203, 0.4800000227987766, 0.0, 0.0, 0.0, 0.0, 0.0, 1.6480853577730808E9, 0.0, 2022-03-23 20:29:17.773
82.0, 6.473766823299229, -2.3224778724834323, 17.192320096306503, 25.28546360041946, -0.43200002051889896, 0.8160000387579203, 0.4800000227987766, 0.0, 0.0, 0.0, 0.0, 0.0, 1.6480853577737772E9, 0.0, 2022-03-23 20:29:17.773
82.0, -2.41597537137568, -5.673428232781589, 16.343362806364894, 15.27001151908189, -0.43200002051889896, 0.8160000387579203, 0.4800000227987766, 0.0, 0.0, 0.0, 0.0, 0.0, 1.6480853577737772E9, 0.0, 2022-03-23 20:29:17.773
83.0, 2.9507810650393367, -9.432027688249946, 18.991211974993348, 13.523478239774704, -0.43200002051889896, 0.8160000387579203, 0.4800000227987766, 0.0, 0.0, 0.0, 0.0, 0.0, 1.6480853577874415E9, 0.0, 2022-03-23 20:29:17.787
83.0, 23.497791421599686, 3.5977837573736906, 25.221885301172733, 24.776837206445634, -0.43200002051889896, 0.8160000387579203, 0.4800000227987766, 0.0, 0.0, 0.0, 0.0, 0.0, 1.6480853577874415E9, 0.0, 2022-03-23 20:29:17.787
84.0, 9.132835691794753, 3.9942131526768208, 21.73255864251405, 10.370742577128112, -0.43200002051889896, 0.8160000387579203, 0.4800000227987766, 0.0, 0.0, 0.0, 0.0, 0.0, 1.648085357803085E9, 0.0, 2022-03-23 20:29:17.803
84.0, -2.861023466102779, 6.645802221260965, 26.280276988632977, 19.795290465466678, -0.43200002051889896, 0.8160000387579203, 0.4800000227987766, 0.0, 0.0, 0.0, 0.0, 0.0, 1.648085357803085E9, 0.0, 2022-03-23 20:29:17.803
85.0, 24.234551712870598, 8.197860702872276, 28.11656786687672, 45.36872636247426, -0.43200002051889896, 0.8160000387579203, 0.4800000227987766, 0.0, 0.0, 0.0, 0.0, 0.0, 1.648085357803832E9, 0.0, 2022-03-23 20:29:17.803
85.0, 17.128741797059774, 9.981792981736362, 29.283416653051972, 35.48791067954153, -0.43200002051889896, 0.8160000387579203, 0.4800000227987766, 0.0, 0.0, 0.0, 0.0, 0.0, 1.648085357803832E9, 0.0, 2022-03-23 20:29:17.803
86.0, 10.535298175178468, 18.05623698607087, 32.66054631303996, 24.443986110389233, -0.43200002051889896, 0.8160000387579203, 0.4800000227987766, 0.0, 0.0, 0.0, 0.0, 0.0, 1.6480853578338027E9, 0.0, 2022-03-23 20:29:17.833
86.0, 32.851281210780144, 23.819422817789018, 45.59686025977135, 48.450403925962746, -0.43200002051889896, 0.8160000387579203, 0.4800000227987766, 0.0, 0.0, 0.0, 0.0, 0.0, 1.6480853578338027E9, 0.0, 2022-03-23 20:29:17.833
87.0, 22.48427853360772, 7.793951507657766, 29.590088449418545, 41.655005706474185, -0.43200002051889896, 0.8160000387579203, 0.4800000227987766, 0.0, 0.0, 0.0, 0.0, 0.0, 1.64808535783458E9, 0.0, 2022-03-23 20:29:17.834
87.0, 7.973466705530882, 8.938360894098878, 21.28751054778695, 22.319722935557365, -0.43200002051889896, 0.8160000387579203, 0.4800000227987766, 0.0, 0.0, 0.0, 0.0, 0.0, 1.64808535783458E9, 0.0, 2022-03-23 20:29:17.834
88.0, 10.935467470437288, 8.635428997687995, 14.604309326969087, 21.541823744773865, -0.43200002051889896, 0.8160000387579203, 0.4800000227987766, 0.0, 0.0, 0.0, 0.0, 0.0, 1.6480853578353531E9, 0.0, 2022-03-23 20:29:17.835
88.0, 11.414174664765596, -8.182901103049517, -11.870442459359765, 14.05080413352698, -0.43200002051889896, 0.8160000387579203, 0.4800000227987766, 0.0, 0.0, 0.0, 0.0, 0.0, 1.6480853578353531E9, 0.0, 2022-03-23 20:29:17.835
89.0, -8.06322430446744, -6.84027701895684, -11.447833764366806, -0.06357829924672842, -0.43200002051889896, 0.8160000387579203, 0.4800000227987766, 0.0, 0.0, 0.0, 0.0, 0.0, 1.6480853578474755E9, 0.0, 2022-03-23 20:29:17.847
89.0, -7.5882570100948215, -7.5471181105822325, -6.170834926888347, -0.08227779902517796, -0.43200002051889896, 0.8160000387579203, 0.4800000227987766, 0.0, 0.0, 0.0, 0.0, 0.0, 1.6480853578474755E9, 0.0, 2022-03-23 20:29:17.847
90.0, 13.078430145047605, -10.774651772342622, -6.3391304248943925, 20.99205845128745, -0.43200002051889896, 0.8160000387579203, 0.49600002355873585, 0.0, 0.0, 0.0, 0.0, 0.0, 1.6480853578632257E9, 0.0, 2022-03-23 20:29:17.863
90.0, 3.2088341619819403, -7.5845171101391315, 3.7735590552911162, 22.14394763763994, -0.43200002051889896, 0.8160000387579203, 0.49600002355873585, 0.0, 0.0, 0.0, 0.0, 0.0, 1.6480853578632257E9, 0.0, 2022-03-23 20:29:17.863
91.0, -8.339976901188493, -6.649542121216655, 3.702500956133008, 10.572697174735367, -0.43200002051889896, 0.8160000387579203, 0.49600002355873585, 0.0, 0.0, 0.0, 0.0, 0.0, 1.6480853578638844E9, 0.0, 2022-03-23 20:29:17.863
91.0, 8.298838001675904, -3.4893266586586833, 5.591150433756411, 13.085909944958985, -0.43200002051889896, 0.8160000387579203, 0.49600002355873585, 0.0, 0.0, 0.0, 0.0, 0.0, 1.6480853578638844E9, 0.0, 2022-03-23 20:29:17.863
92.0, -12.89891494717449, -13.108349344693124, -15.086756421253085, 6.956213917583227, -0.43200002051889896, 0.8160000387579203, 0.49600002355873585, 0.0, 0.0, 0.0, 0.0, 0.0, 1.6480853578773892E9, 0.0, 2022-03-23 20:29:17.877
92.0, -12.831596747972071, -22.775990730151534, -17.26337819546461, -3.5566448578611016, -0.43200002051889896, 0.8160000387579203, 0.49600002355873585, 0.0, 0.0, 0.0, 0.0, 0.0, 1.6480853578773892E9, 0.0, 2022-03-23 20:29:17.877
93.0, -6.5410850225016475, -17.6747671905905, -19.630734867416322, 5.63602923322469, -0.43200002051889896, 0.8160000387579203, 0.49600002355873585, 0.0, 0.0, 0.0, 0.0, 0.0, 1.6480853578931465E9, 0.0, 2022-03-23 20:29:17.893
93.0, 5.830504030920565, -11.545071163214743, -9.24503269046545, 12.88021544739604, -0.43200002051889896, 0.8160000387579203, 0.49600002355873585, 0.0, 0.0, 0.0, 0.0, 0.0, 1.6480853578931465E9, 0.0, 2022-03-23 20:29:17.893
94.0, -11.511412063613534, -19.503578268922865, -15.513105016201735, 0.8526971898972988, -0.43200002051889896, 0.8160000387579203, 0.49600002355873585, 0.0, 0.0, 0.0, 0.0, 0.0, 1.6480853578938484E9, 0.0, 2022-03-23 20:29:17.893
94.0, -13.69177373778075, -6.989873017184436, -7.479799911379814, 0.6208233926445246, -0.43200002051889896, 0.8160000387579203, 0.49600002355873585, 0.0, 0.0, 0.0, 0.0, 0.0, 1.6480853578938484E9, 0.0, 2022-03-23 20:29:17.893
95.0, 6.384009224362671, -7.341423613019288, -9.28617158997804, 13.448680240660906, -0.43200002051889896, 0.8160000387579203, 0.49600002355873585, 0.0, 0.0, 0.0, 0.0, 0.0, 1.6480853579073803E9, 0.0, 2022-03-23 20:29:17.907
95.0, -1.8063716785982251, -3.7922585550695658, 1.365063483826816, 13.71421313751489, -0.43200002051889896, 0.8160000387579203, 0.49600002355873585, 0.0, 0.0, 0.0, 0.0, 0.0, 1.6480853579073803E9, 0.0, 2022-03-23 20:29:17.907
96.0, -10.984086169861257, -7.371342812664807, -1.323924584314227, 15.139115020632744, -0.43200002051889896, 0.8160000387579203, 0.49600002355873585, 0.0, 0.0, 0.0, 0.0, 0.0, 1.6480853579232223E9, 0.0, 2022-03-23 20:29:17.923
96.0, 4.932928041554987, -9.304871089756489, -9.020638693124056, 17.66354749072343, -0.43200002051889896, 0.8160000387579203, 0.49600002355873585, 0.0, 0.0, 0.0, 0.0, 0.0, 1.6480853579232223E9, 0.0, 2022-03-23 20:29:17.923
97.0, 0.2730126967653632, -10.800831072032452, -8.42599460016936, 11.619869162328541, -0.43200002051889896, 0.8160000387579203, 0.49600002355873585, 0.0, 0.0, 0.0, 0.0, 0.0, 1.6480853579239247E9, 0.0, 2022-03-23 20:29:17.923
97.0, -21.73629854246974, -13.557137339375913, -14.125602132640779, 5.931481329724193, -0.43200002051889896, 0.8160000387579203, 0.49600002355873585, 0.0, 0.0, 0.0, 0.0, 0.0, 1.6480853579239247E9, 0.0, 2022-03-23 20:29:17.923
98.0, -4.805771443061531, -5.778145431540906, 0.38520969543606043, 16.635075002908707, -0.43200002051889896, 0.8160000387579203, 0.49600002355873585, 0.0, 0.0, 0.0, 0.0, 0.0, 1.6480853579375575E9, 0.0, 2022-03-23 20:29:17.937
98.0, -0.16829549800604582, -14.645448226481676, -9.016898793168366, 9.454467087984085, -0.43200002051889896, 0.8160000387579203, 0.49600002355873585, 0.0, 0.0, 0.0, 0.0, 0.0, 1.6480853579375575E9, 0.0, 2022-03-23 20:29:17.937
99.0, -16.91182759962976, -14.353736029937863, -8.347456701099873, -0.11967679858207703, -0.43200002051889896, 0.8160000387579203, 0.49600002355873585, 0.0, 0.0, 0.0, 0.0, 0.0, 1.6480853579531813E9, 0.0, 2022-03-23 20:29:17.953
99.0, -7.191827614791691, -12.820377048105001, -1.20798768568784, 5.63976913318038, -0.43200002051889896, 0.8160000387579203, 0.49600002355873585, 0.0, 0.0, 0.0, 0.0, 0.0, 1.6480853579531813E9, 0.0, 2022-03-23 20:29:17.953
100.0, 19.088449373841286, -2.1990611739456654, 4.966587141156197, 24.795536706224084, -0.43200002051889896, 0.8160000387579203, 0.49600002355873585, 0.0, 0.0, 0.0, 0.0, 0.0, 1.6480853579538398E9, 0.0, 2022-03-23 20:29:17.953
100.0, -7.838830307126045, -6.084817227907479, -6.268072325736284, -2.1616621743887663, -0.43200002051889896, 0.8160000387579203, 0.49600002355873585, 0.0, 0.0, 0.0, 0.0, 0.0, 1.6480853579538398E9, 0.0, 2022-03-23 20:29:17.953
0.0, 786.7702334783971, 375.50652500102296, 1524.373872189317, 793.9994600927457, -0.43200002051889896, 0.8160000387579203, 0.49600002355873585, 0.0, 0.0, 0.0, 0.0, 0.0, 1.6480853579681377E9, 0.0, 2022-03-23 20:29:17.968
1.0, 807.3322034347802, 365.43123452039436, 1520.2749418378808, 802.6498486902565, -0.43200002051889896, 0.8160000387579203, 0.49600002355873585, 0.0, 0.0, 0.0, 0.0, 0.0, 1.6480853579688716E9, 0.0, 2022-03-23 20:29:17.968
1.0, 806.8534962404519, 376.84166928520426, 1529.0786663335748, 811.1693407893181, -0.43200002051889896, 0.8160000387579203, 0.49600002355873585, 0.0, 0.0, 0.0, 0.0, 0.0, 1.6480853579688716E9, 0.0, 2022-03-23 20:29:17.968
2.0, 785.1358971977606, 376.2806842918508, 1519.9383508418687, 795.117690179497, -0.43200002051889896, 0.8160000387579203, 0.49600002355873585, 0.0, 0.0, 0.0, 0.0, 0.0, 1.6480853579824643E9, 0.0, 2022-03-23 20:29:17.982
2.0, 801.1164897084236, 379.0407304591499, 1529.1609441326, 809.2021534126252, -0.43200002051889896, 0.8160000387579203, 0.49600002355873585, 0.0, 0.0, 0.0, 0.0, 0.0, 1.6480853579824643E9, 0.0, 2022-03-23 20:29:17.982
3.0, 813.0318109672517, 379.95700594829395, 1531.7190357022919, 816.6744735240936, -0.43200002051889896, 0.8160000387579203, 0.49600002355873585, 0.0, 0.0, 0.0, 0.0, 0.0, 1.648085357998128E9, 0.0, 2022-03-23 20:29:17.998
3.0, 794.0630383919924, 376.7593914861791, 1527.1451380564831, 797.2531730541959, -0.43200002051889896, 0.8160000387579203, 0.49600002355873585, 0.0, 0.0, 0.0, 0.0, 0.0, 1.648085357998128E9, 0.0, 2022-03-23 20:29:17.998
4.0, 794.0031999927014, 378.51714446535334, 1531.5470003043301, 795.4056624760851, -0.43200002051889896, 0.8160000387579203, 0.49600002355873585, 0.0, 0.0, 0.0, 0.0, 0.0, 1.6480853579988143E9, 0.0, 2022-03-23 20:29:17.998
4.0, 801.3670630054548, 370.25196556327865, 1529.0225678342395, 803.4464473808184, -0.43200002051889896, 0.8160000387579203, 0.49600002355873585, 0.0, 0.0, 0.0, 0.0, 0.0, 1.6480853579988143E9, 0.0, 2022-03-23 20:29:17.998
5.0, 793.513273098506, 372.0770367416553, 1528.7233758377843, 796.8866628585383, -0.43200002051889896, 0.8160000387579203, 0.49600002355873585, 0.0, 0.0, 0.0, 0.0, 0.0, 1.648085358012431E9, 0.0, 2022-03-23 20:29:18.012
5.0, 795.7646928718314, 384.96473198896274, 1533.0579198864289, 799.0707644326612, -0.43200002051889896, 0.8160000387579203, 0.49600002355873585, 0.0, 0.0, 0.0, 0.0, 0.0, 1.648085358012431E9, 0.0, 2022-03-23 20:29:18.012
6.0, 801.9691868983209, 374.4219540138729, 1517.4812365709804, 792.2604066133499, -0.43200002051889896, 0.8160000387579203, 0.49600002355873585, 0.0, 0.0, 0.0, 0.0, 0.0, 1.64808535802818E9, 0.0, 2022-03-23 20:29:18.028
6.0, 798.060991444625, 373.419660825748, 1520.59657323407, 799.990779821761, -0.43200002051889896, 0.8160000387579203, 0.49600002355873585, 0.0, 0.0, 0.0, 0.0, 0.0, 1.64808535802818E9, 0.0, 2022-03-23 20:29:18.028
7.0, 783.1425305213779, 369.84431646810845, 1514.736150003504, 796.1162434676662, -0.43200002051889896, 0.8160000387579203, 0.49600002355873585, 0.0, 0.0, 0.0, 0.0, 0.0, 1.648085358028888E9, 0.0, 2022-03-23 20:29:18.028
7.0, 797.1447159554809, 372.3500494384207, 1520.9032450304367, 800.1141965202987, -0.43200002051889896, 0.8160000387579203, 0.49600002355873585, 0.0, 0.0, 0.0, 0.0, 0.0, 1.648085358028888E9, 0.0, 2022-03-23 20:29:18.028
8.0, 800.4694870160893, 372.3874484379776, 1515.7870618910529, 794.8222380829975, -0.43200002051889896, 0.8160000387579203, 0.49600002355873585, 0.0, 0.0, 0.0, 0.0, 0.0, 1.6480853580424724E9, 0.0, 2022-03-23 20:29:18.042
8.0, 789.5975978448987, 372.20793324010447, 1530.3838914181106, 794.2388136899099, -0.43200002051889896, 0.8160000387579203, 0.49600002355873585, 0.0, 0.0, 0.0, 0.0, 0.0, 1.6480853580424724E9, 0.0, 2022-03-23 20:29:18.042
9.0, 787.1404835740104, 372.36126913828775, 1526.6739106620662, 789.3619841476902, -0.43200002051889896, 0.8160000387579203, 0.49600002355873585, 0.0, 0.0, 0.0, 0.0, 0.0, 1.64808535805816E9, 0.0, 2022-03-23 20:29:18.058
9.0, 801.3109645061195, 361.4856400671415, 1516.1012134873308, 797.7505797483027, -0.43200002051889896, 0.8160000387579203, 0.49600002355873585, 0.0, 0.0, 0.0, 0.0, 0.0, 1.64808535805816E9, 0.0, 2022-03-23 20:29:18.058
10.0, 781.8821842363104, 363.95397403789684, 1517.137165775057, 792.2080480139703, -0.43200002051889896, 0.8160000387579203, 0.4800000227987766, 0.0, 0.0, 0.0, 0.0, 0.0, 1.6480853580588524E9, 0.0, 2022-03-23 20:29:18.058
10.0, 781.5455932402983, 380.43571314262226, 1532.5642530922778, 797.7169206487015, -0.43200002051889896, 0.8160000387579203, 0.4800000227987766, 0.0, 0.0, 0.0, 0.0, 0.0, 1.6480853580588524E9, 0.0, 2022-03-23 20:29:18.058
11.0, 801.3483635056764, 376.3854014906101, 1530.4212904176675, 810.1707875011489, -0.43200002051889896, 0.8160000387579203, 0.4800000227987766, 0.0, 0.0, 0.0, 0.0, 0.0, 1.6480853580723855E9, 0.0, 2022-03-23 20:29:18.072
11.0, 801.4942196039483, 366.58312370674685, 1534.2247686726041, 800.7424997128546, -0.43200002051889896, 0.8160000387579203, 0.4800000227987766, 0.0, 0.0, 0.0, 0.0, 0.0, 1.6480853580723855E9, 0.0, 2022-03-23 20:29:18.072
12.0, 786.313965683803, 373.32242342690006, 1533.9517559758388, 803.8204373763874, -0.43200002051889896, 0.8160000387579203, 0.4800000227987766, 0.0, 0.0, 0.0, 0.0, 0.0, 1.6480853580881295E9, 0.0, 2022-03-23 20:29:18.088
12.0, 796.5089329630136, 384.6019616932608, 1521.5689472225495, 804.934927563183, -0.43200002051889896, 0.8160000387579203, 0.4800000227987766, 0.0, 0.0, 0.0, 0.0, 0.0, 1.6480853580881295E9, 0.0, 2022-03-23 20:29:18.088
13.0, 797.5037463512272, 379.0968289584853, 1505.2480238159187, 791.2768129250035, -0.43200002051889896, 0.8160000387579203, 0.4800000227987766, 0.0, 0.0, 0.0, 0.0, 0.0, 1.648085358088782E9, 0.0, 2022-03-23 20:29:18.088
13.0, 781.1903027445078, 382.50761771807447, 1508.584014576394, 780.8686713483185, -0.43200002051889896, 0.8160000387579203, 0.4800000227987766, 0.0, 0.0, 0.0, 0.0, 0.0, 1.648085358088782E9, 0.0, 2022-03-23 20:29:18.088
14.0, 774.4323035245761, 379.0968289584853, 1504.0213366304524, 776.8669783957303, -0.43200002051889896, 0.8160000387579203, 0.4800000227987766, 0.0, 0.0, 0.0, 0.0, 0.0, 1.6480853581023948E9, 0.0, 2022-03-23 20:29:18.102
14.0, 799.6878479253501, 385.5032775825821, 1498.4862846960314, 795.2186674783006, -0.43200002051889896, 0.8160000387579203, 0.4800000227987766, 0.0, 0.0, 0.0, 0.0, 0.0, 1.6480853581023948E9, 0.0, 2022-03-23 20:29:18.102
15.0, 783.5240003168583, 385.6790528804995, 1490.5838760896586, 779.5522265639156, -0.43200002051889896, 0.8160000387579203, 0.4800000227987766, 0.0, 0.0, 0.0, 0.0, 0.0, 1.648085358118126E9, 0.0, 2022-03-23 20:29:18.118
15.0, 771.1374516636133, 388.77569004381076, 1481.9035682925023, 770.4530499717221, -0.43200002051889896, 0.8160000387579203, 0.4800000227987766, 0.0, 0.0, 0.0, 0.0, 0.0, 1.648085358118126E9, 0.0, 2022-03-23 20:29:18.118
16.0, 784.8030461017042, 382.10370852285996, 1481.0695706023835, 780.3039464550093, -0.43200002051889896, 0.8160000387579203, 0.4800000227987766, 0.0, 0.0, 0.0, 0.0, 0.0, 1.6480853581188183E9, 0.0, 2022-03-23 20:29:18.118
16.0, 780.3563050543889, 380.25245804479346, 1474.7865386768244, 770.1014993758872, -0.43200002051889896, 0.8160000387579203, 0.4800000227987766, 0.0, 0.0, 0.0, 0.0, 0.0, 1.6480853581188183E9, 0.0, 2022-03-23 20:29:18.118
17.0, 761.8849391732365, 371.3140971506946, 1468.1295167556964, 754.4088791618124, -0.43200002051889896, 0.8160000387579203, 0.4800000227987766, 0.0, 0.0, 0.0, 0.0, 0.0, 1.648085358132605E9, 0.0, 2022-03-23 20:29:18.132
17.0, 772.5025151474401, 371.0448243538849, 1470.377196629066, 764.4467706428841, -0.43200002051889896, 0.8160000387579203, 0.4800000227987766, 0.0, 0.0, 0.0, 0.0, 0.0, 1.648085358132605E9, 0.0, 2022-03-23 20:29:18.132
18.0, 783.3183058192953, 369.6012229709886, 1471.5403055152856, 764.218636745587, -0.43200002051889896, 0.8160000387579203, 0.4800000227987766, 0.0, 0.0, 0.0, 0.0, 0.0, 1.6480853581481438E9, 0.0, 2022-03-23 20:29:18.148
18.0, 782.6825228268281, 381.2659709327854, 1479.0275852265768, 779.3652315661311, -0.43200002051889896, 0.8160000387579203, 0.4800000227987766, 0.0, 0.0, 0.0, 0.0, 0.0, 1.6480853581481438E9, 0.0, 2022-03-23 20:29:18.148
19.0, 779.2305951677263, 386.0156438765116, 1485.5873697488569, 774.578159622848, -0.43200002051889896, 0.8160000387579203, 0.4800000227987766, 0.0, 0.0, 0.0, 0.0, 0.0, 1.6480853581488283E9, 0.0, 2022-03-23 20:29:18.148
19.0, 793.8573438944295, 378.88739456096664, 1481.3725024987943, 776.0516802053899, -0.43200002051889896, 0.8160000387579203, 0.4800000227987766, 0.0, 0.0, 0.0, 0.0, 0.0, 1.6480853581488283E9, 0.0, 2022-03-23 20:29:18.148
20.0, 779.8289791606367, 377.3428158792667, 1485.7631450467743, 776.7473015971482, -0.43200002051889896, 0.8160000387579203, 0.4800000227987766, 0.0, 0.0, 0.0, 0.0, 0.0, 1.648085358162471E9, 0.0, 2022-03-23 20:29:18.162
20.0, 784.0401065107435, 392.3809536010958, 1503.6548264347948, 784.5150738051161, -0.43200002051889896, 0.8160000387579203, 0.4800000227987766, 0.0, 0.0, 0.0, 0.0, 0.0, 1.648085358162471E9, 0.0, 2022-03-23 20:29:18.162
21.0, 797.7879787478596, 390.74287742050365, 1490.9466463853605, 792.6755355084315, -0.43200002051889896, 0.8160000387579203, 0.4800000227987766, 0.0, 0.0, 0.0, 0.0, 0.0, 1.648085358178184E9, 0.0, 2022-03-23 20:29:18.178
21.0, 793.393596299924, 392.15281970379874, 1490.9316867855377, 795.5253392746672, -0.43200002051889896, 0.8160000387579203, 0.4800000227987766, 0.0, 0.0, 0.0, 0.0, 0.0, 1.648085358178184E9, 0.0, 2022-03-23 20:29:18.178
22.0, 785.191995697096, 391.96956460596994, 1492.9100938620977, 786.9534885762259, -0.4480000212788582, 0.8160000387579203, 0.4800000227987766, 0.0, 0.0, 0.0, 0.0, 0.0, 1.648085358178806E9, 0.0, 2022-03-23 20:29:18.178
22.0, 791.1346967266873, 392.18273890344426, 1496.8070696159266, 791.1646159263328, -0.4480000212788582, 0.8160000387579203, 0.4800000227987766, 0.0, 0.0, 0.0, 0.0, 0.0, 1.648085358178806E9, 0.0, 2022-03-23 20:29:18.178
23.0, 798.2479864424095, 394.5800147750415, 1504.1858922285028, 800.4881865158677, -0.4480000212788582, 0.8160000387579203, 0.4800000227987766, 0.0, 0.0, 0.0, 0.0, 0.0, 1.648085358192381E9, 0.0, 2022-03-23 20:29:18.192
23.0, 779.9598756590858, 382.17476662201807, 1493.7702708519064, 778.5723727755249, -0.4480000212788582, 0.8160000387579203, 0.4800000227987766, 0.0, 0.0, 0.0, 0.0, 0.0, 1.648085358192381E9, 0.0, 2022-03-23 20:29:18.192
24.0, 769.9070245781913, 376.9015076844953, 1490.6811134885065, 761.8624997735023, -0.4480000212788582, 0.8160000387579203, 0.4800000227987766, 0.0, 0.0, 0.0, 0.0, 0.0, 1.6480853582081325E9, 0.0, 2022-03-23 20:29:18.208
24.0, 796.1087636677548, 383.1209613108076, 1492.6071619656868, 780.6293177511543, -0.4480000212788582, 0.8160000387579203, 0.4800000227987766, 0.0, 0.0, 0.0, 0.0, 0.0, 1.6480853582081325E9, 0.0, 2022-03-23 20:29:18.208
25.0, 786.4523419821635, 381.07149613508955, 1494.2489780462347, 784.6347506036982, -0.4480000212788582, 0.8160000387579203, 0.4800000227987766, 0.0, 0.0, 0.0, 0.0, 0.0, 1.6480853582088122E9, 0.0, 2022-03-23 20:29:18.208
25.0, 777.5962588870898, 381.66240032808855, 1498.0337568013929, 785.1059779981151, -0.4480000212788582, 0.8160000387579203, 0.4800000227987766, 0.0, 0.0, 0.0, 0.0, 0.0, 1.6480853582088122E9, 0.0, 2022-03-23 20:29:18.208
26.0, 797.6421226495877, 385.5331967822276, 1496.8519484153949, 789.750933743082, -0.4480000212788582, 0.8160000387579203, 0.4800000227987766, 0.0, 0.0, 0.0, 0.0, 0.0, 1.6480853582224436E9, 0.0, 2022-03-23 20:29:18.222
26.0, 798.9473477341235, 385.8249089787714, 1492.5248841666616, 791.2132346257567, -0.4480000212788582, 0.8160000387579203, 0.4800000227987766, 0.0, 0.0, 0.0, 0.0, 0.0, 1.6480853582224436E9, 0.0, 2022-03-23 20:29:18.222
27.0, 775.9918418060988, 381.25475123291835, 1480.7928180056624, 776.2498949030414, -0.4480000212788582, 0.8160000387579203, 0.4800000227987766, 0.0, 0.0, 0.0, 0.0, 0.0, 1.6480853582381492E9, 0.0, 2022-03-23 20:29:18.238
27.0, 789.4629614464939, 382.96762541262433, 1488.5306710139848, 785.5884250923991, -0.4480000212788582, 0.8160000387579203, 0.4800000227987766, 0.0, 0.0, 0.0, 0.0, 0.0, 1.6480853582381492E9, 0.0, 2022-03-23 20:29:18.238
28.0, 796.1237232675776, 385.5818154816516, 1490.120128495153, 793.7376670958474, -0.4480000212788582, 0.8160000387579203, 0.4800000227987766, 0.0, 0.0, 0.0, 0.0, 0.0, 1.6480853582387764E9, 0.0, 2022-03-23 20:29:18.238
28.0, 774.8137733200565, 373.045670830179, 1487.1244686306454, 774.5108414236456, -0.4480000212788582, 0.8160000387579203, 0.4800000227987766, 0.0, 0.0, 0.0, 0.0, 0.0, 1.6480853582387764E9, 0.0, 2022-03-23 20:29:18.238
29.0, 779.7579210614786, 375.614982099738, 1492.9961115610786, 777.2634077910334, -0.4480000212788582, 0.8160000387579203, 0.4800000227987766, 0.0, 0.0, 0.0, 0.0, 0.0, 1.648085358252382E9, 0.0, 2022-03-23 20:29:18.252
29.0, 789.0740118511021, 374.54163081245497, 1486.612102336716, 779.6120649632066, -0.4480000212788582, 0.8160000387579203, 0.4800000227987766, 0.0, 0.0, 0.0, 0.0, 0.0, 1.648085358252382E9, 0.0, 2022-03-23 20:29:18.252
30.0, 778.1983827799559, 369.40300827333704, 1488.2165194177069, 778.7818071730435, -0.4480000212788582, 0.8160000387579203, 0.4800000227987766, 0.0, 0.0, 0.0, 0.0, 0.0, 1.6480853582681851E9, 0.0, 2022-03-23 20:29:18.268
30.0, 775.9768822062761, 368.73730608122423, 1489.3085702047683, 774.6716571217403, -0.4480000212788582, 0.8160000387579203, 0.4800000227987766, 0.0, 0.0, 0.0, 0.0, 0.0, 1.6480853582681851E9, 0.0, 2022-03-23 20:29:18.268
31.0, 786.2354277847335, 363.6398224416189, 1489.2973505049013, 779.6345043629408, -0.4480000212788582, 0.8160000387579203, 0.4800000227987766, 0.0, 0.0, 0.0, 0.0, 0.0, 1.6480853582687926E9, 0.0, 2022-03-23 20:29:18.268
31.0, 777.5513800876215, 368.9654399785213, 1481.967146591749, 778.980021870695, -0.4480000212788582, 0.8160000387579203, 0.4800000227987766, 0.0, 0.0, 0.0, 0.0, 0.0, 1.6480853582687926E9, 0.0, 2022-03-23 20:29:18.268
32.0, 765.0114955361933, 370.73815255751833, 1481.570717196446, 770.393211572431, -0.43200002051889896, 0.8160000387579203, 0.4800000227987766, 0.0, 0.0, 0.0, 0.0, 0.0, 1.6480853582824812E9, 0.0, 2022-03-23 20:29:18.282
32.0, 780.2702873554081, 378.00103827146813, 1486.9786125323735, 771.0364743648097, -0.43200002051889896, 0.8160000387579203, 0.4800000227987766, 0.0, 0.0, 0.0, 0.0, 0.0, 1.6480853582824812E9, 0.0, 2022-03-23 20:29:18.282
33.0, 797.0437386566773, 380.4618924423121, 1498.5049841958098, 783.7895332137123, -0.43200002051889896, 0.8160000387579203, 0.4800000227987766, 0.0, 0.0, 0.0, 0.0, 0.0, 1.648085358298101E9, 0.0, 2022-03-23 20:29:18.298
33.0, 789.2759664487094, 385.6940124803223, 1511.9125255369581, 781.5904720397666, -0.43200002051889896, 0.8160000387579203, 0.4800000227987766, 0.0, 0.0, 0.0, 0.0, 0.0, 1.648085358298101E9, 0.0, 2022-03-23 20:29:18.298
34.0, 782.9218764239922, 390.29034952586517, 1512.1930180336349, 770.3558125728741, -0.43200002051889896, 0.8160000387579203, 0.4800000227987766, 0.0, 0.0, 0.0, 0.0, 0.0, 1.6480853582988024E9, 0.0, 2022-03-23 20:29:18.298
34.0, 796.5238925628364, 381.06401633517817, 1503.6099476353265, 785.734281190671, -0.43200002051889896, 0.8160000387579203, 0.4800000227987766, 0.0, 0.0, 0.0, 0.0, 0.0, 1.6480853582988024E9, 0.0, 2022-03-23 20:29:18.298
35.0, 792.2604066133499, 391.96582470601425, 1505.8688472085632, 789.6761357439682, -0.43200002051889896, 0.8160000387579203, 0.4800000227987766, 0.0, 0.0, 0.0, 0.0, 0.0, 1.6480853583124757E9, 0.0, 2022-03-23 20:29:18.312
35.0, 782.731141526252, 390.62694052187726, 1523.1135259042494, 785.5136270932853, -0.43200002051889896, 0.8160000387579203, 0.4800000227987766, 0.0, 0.0, 0.0, 0.0, 0.0, 1.6480853583124757E9, 0.0, 2022-03-23 20:29:18.312
36.0, 805.7988444529474, 392.56420869892463, 1523.4538568002172, 797.2980518536642, -0.43200002051889896, 0.8160000387579203, 0.4800000227987766, 0.0, 0.0, 0.0, 0.0, 0.0, 1.6480853583281014E9, 0.0, 2022-03-23 20:29:18.328
36.0, 802.7732653887942, 396.4724041526206, 1518.9472773536108, 794.3248313888907, -0.43200002051889896, 0.8160000387579203, 0.4800000227987766, 0.0, 0.0, 0.0, 0.0, 0.0, 1.6480853583281014E9, 0.0, 2022-03-23 20:29:18.328
37.0, 790.7233077315614, 401.0238623986952, 1524.7964808843099, 798.0759510444477, -0.43200002051889896, 0.8160000387579203, 0.4800000227987766, 0.0, 0.0, 0.0, 0.0, 0.0, 1.6480853583288531E9, 0.0, 2022-03-23 20:29:18.328
37.0, 798.6705951374024, 403.0583679745905, 1523.9400437944569, 801.5839772028849, -0.43200002051889896, 0.8160000387579203, 0.4800000227987766, 0.0, 0.0, 0.0, 0.0, 0.0, 1.6480853583288531E9, 0.0, 2022-03-23 20:29:18.328
38.0, 799.7925651241094, 392.33981470158324, 1511.4151188428514, 799.8150045238435, -0.43200002051889896, 0.8160000387579203, 0.4800000227987766, 0.0, 0.0, 0.0, 0.0, 0.0, 1.6480853583424144E9, 0.0, 2022-03-23 20:29:18.342
38.0, 777.8655316838995, 385.48083818284795, 1514.2312635094859, 786.3326651835814, -0.43200002051889896, 0.8160000387579203, 0.4800000227987766, 0.0, 0.0, 0.0, 0.0, 0.0, 1.6480853583424144E9, 0.0, 2022-03-23 20:29:18.342
39.0, 787.8473246656358, 385.9819847769104, 1516.6360191809945, 785.8651776891202, -0.43200002051889896, 0.8160000387579203, 0.4800000227987766, 0.0, 0.0, 0.0, 0.0, 0.0, 1.6480853583580587E9, 0.0, 2022-03-23 20:29:18.358
39.0, 809.4003681102768, 387.1637931629084, 1510.7830757503398, 797.9375747460872, -0.43200002051889896, 0.8160000387579203, 0.4800000227987766, 0.0, 0.0, 0.0, 0.0, 0.0, 1.6480853583580587E9, 0.0, 2022-03-23 20:29:18.358
40.0, 798.9810068337247, 389.942538829986, 1519.2763885497116, 800.1254162201658, -0.43200002051889896, 0.8160000387579203, 0.4800000227987766, 0.0, 0.0, 0.0, 0.0, 0.0, 1.6480853583588188E9, 0.0, 2022-03-23 20:29:18.358
40.0, 790.5924112331122, 398.4769905288704, 1522.0513943168335, 788.4307490587234, -0.43200002051889896, 0.8160000387579203, 0.4800000227987766, 0.0, 0.0, 0.0, 0.0, 0.0, 1.6480853583588188E9, 0.0, 2022-03-23 20:29:18.358
41.0, 816.4089406272396, 396.12085355678573, 1516.6734181805514, 798.1769283432513, -0.43200002051889896, 0.8160000387579203, 0.4800000227987766, 0.0, 0.0, 0.0, 0.0, 0.0, 1.648085358388759E9, 0.0, 2022-03-23 20:29:18.388
41.0, 798.6705951374024, 391.8798070070334, 1503.9988972307183, 790.49891373422, -0.43200002051889896, 0.8160000387579203, 0.4800000227987766, 0.0, 0.0, 0.0, 0.0, 0.0, 1.648085358388759E9, 0.0, 2022-03-23 20:29:18.388
42.0, 791.7143812198192, 397.7963287369348, 1515.4579506949522, 791.1421765265986, -0.43200002051889896, 0.8160000387579203, 0.4800000227987766, 0.0, 0.0, 0.0, 0.0, 0.0, 1.6480853583895547E9, 0.0, 2022-03-23 20:29:18.389
42.0, 802.0365050975233, 390.11457422794774, 1509.0215828712098, 787.86976406537, -0.43200002051889896, 0.8160000387579203, 0.4800000227987766, 0.0, 0.0, 0.0, 0.0, 0.0, 1.6480853583895547E9, 0.0, 2022-03-23 20:29:18.389
43.0, 800.8210376119241, 378.74153846269473, 1502.6226140470244, 787.2938194721937, -0.43200002051889896, 0.8160000387579203, 0.4800000227987766, 0.0, 0.0, 0.0, 0.0, 0.0, 1.6480853583902938E9, 0.0, 2022-03-23 20:29:18.390
43.0, 778.643430874683, 376.0899493941106, 1490.9391665854491, 766.9899026127532, -0.43200002051889896, 0.8160000387579203, 0.4800000227987766, 0.0, 0.0, 0.0, 0.0, 0.0, 1.6480853583902938E9, 0.0, 2022-03-23 20:29:18.390
44.0, 772.6221919460222, 382.3430621200241, 1501.119174264837, 785.0124804992229, -0.43200002051889896, 0.8160000387579203, 0.4800000227987766, 0.0, 0.0, 0.0, 0.0, 0.0, 1.648085358402547E9, 0.0, 2022-03-23 20:29:18.402
44.0, 796.1461626673117, 383.5323503059335, 1507.69391838694, 790.5550122335553, -0.43200002051889896, 0.8160000387579203, 0.4800000227987766, 0.0, 0.0, 0.0, 0.0, 0.0, 1.648085358402547E9, 0.0, 2022-03-23 20:29:18.402
45.0, 796.6959279607981, 383.5772291054018, 1507.103014193941, 784.0849853102118, -0.43200002051889896, 0.8160000387579203, 0.4800000227987766, 0.0, 0.0, 0.0, 0.0, 0.0, 1.6480853584181952E9, 0.0, 2022-03-23 20:29:18.418
45.0, 782.1103181336075, 384.73659809166566, 1509.320774867665, 782.7236617263407, -0.43200002051889896, 0.8160000387579203, 0.4800000227987766, 0.0, 0.0, 0.0, 0.0, 0.0, 1.6480853584181952E9, 0.0, 2022-03-23 20:29:18.418
46.0, 798.8426305353642, 386.3410151726566, 1513.6216598167084, 776.3359126020223, -0.43200002051889896, 0.8160000387579203, 0.4800000227987766, 0.0, 0.0, 0.0, 0.0, 0.0, 1.6480853584188871E9, 0.0, 2022-03-23 20:29:18.418
46.0, 802.0776439970359, 388.9514653417282, 1520.476896435488, 797.7356201484799, -0.43200002051889896, 0.8160000387579203, 0.4800000227987766, 0.0, 0.0, 0.0, 0.0, 0.0, 1.6480853584188871E9, 0.0, 2022-03-23 20:29:18.418
47.0, 794.7399602839723, 396.86135374801233, 1526.928223859053, 798.3564435411245, -0.43200002051889896, 0.8160000387579203, 0.4800000227987766, 0.0, 0.0, 0.0, 0.0, 0.0, 1.6480853584325137E9, 0.0, 2022-03-23 20:29:18.432
47.0, 811.8874015808105, 398.45081122918054, 1530.5035682166927, 805.6679479544982, -0.43200002051889896, 0.8160000387579203, 0.4800000227987766, 0.0, 0.0, 0.0, 0.0, 0.0, 1.6480853584325137E9, 0.0, 2022-03-23 20:29:18.432
48.0, 810.2792445998639, 394.3556207777001, 1523.7231295970269, 806.2513723475859, -0.43200002051889896, 0.8160000387579203, 0.4800000227987766, 0.0, 0.0, 0.0, 0.0, 0.0, 1.6480853584481504E9, 0.0, 2022-03-23 20:29:18.448
48.0, 800.9706336101517, 395.2756361667998, 1527.6238452508114, 800.9481942104176, -0.43200002051889896, 0.8160000387579203, 0.4800000227987766, 0.0, 0.0, 0.0, 0.0, 0.0, 1.6480853584481504E9, 0.0, 2022-03-23 20:29:18.448
49.0, 789.4816609462723, 395.2531967670657, 1526.5168348639272, 790.7868860308081, -0.43200002051889896, 0.8160000387579203, 0.4800000227987766, 0.0, 0.0, 0.0, 0.0, 0.0, 1.648085358448888E9, 0.0, 2022-03-23 20:29:18.448
49.0, 810.7467320943251, 400.7171906023286, 1531.3113866071217, 802.6947274897248, -0.43200002051889896, 0.8160000387579203, 0.4800000227987766, 0.0, 0.0, 0.0, 0.0, 0.0, 1.648085358448888E9, 0.0, 2022-03-23 20:29:18.448
50.0, 799.5494716269895, 408.52984160976484, 1537.037173439283, 792.8700103061274, -0.43200002051889896, 0.8160000387579203, 0.49600002355873585, 0.0, 0.0, 0.0, 0.0, 0.0, 1.6480853584625971E9, 0.0, 2022-03-23 20:29:18.462
50.0, 802.0439848974347, 420.467602268327, 1547.4789741155691, 793.1916417023167, -0.43200002051889896, 0.8160000387579203, 0.49600002355873585, 0.0, 0.0, 0.0, 0.0, 0.0, 1.6480853584625971E9, 0.0, 2022-03-23 20:29:18.462
51.0, 823.0210837488994, 432.0425926311873, 1565.8157035983168, 804.7965512648225, -0.43200002051889896, 0.8160000387579203, 0.49600002355873585, 0.0, 0.0, 0.0, 0.0, 0.0, 1.6480853584782138E9, 0.0, 2022-03-23 20:29:18.478
51.0, 822.9388059498742, 451.7817845973186, 1580.2704169270582, 803.3978286813945, -0.43200002051889896, 0.8160000387579203, 0.49600002355873585, 0.0, 0.0, 0.0, 0.0, 0.0, 1.6480853584782138E9, 0.0, 2022-03-23 20:29:18.478
52.0, 822.5535962544382, 483.1745048253797, 1607.16777740838, 806.1578748486936, -0.43200002051889896, 0.8160000387579203, 0.49600002355873585, 0.0, 0.0, 0.0, 0.0, 0.0, 1.648085358478818E9, 0.0, 2022-03-23 20:29:18.478
52.0, 848.328986749053, 503.8037929809652, 1622.4751879270189, 819.8122495869175, -0.43200002051889896, 0.8160000387579203, 0.49600002355873585, 0.0, 0.0, 0.0, 0.0, 0.0, 1.648085358478818E9, 0.0, 2022-03-23 20:29:18.478
53.0, 868.7525804070756, 527.9785062945448, 1655.6144414343871, 840.9875631360337, -0.43200002051889896, 0.8160000387579203, 0.49600002355873585, 0.0, 0.0, 0.0, 0.0, 0.0, 1.6480853584924932E9, 0.0, 2022-03-23 20:29:18.492
53.0, 861.0596061982214, 527.8625693959184, 1676.950570681598, 839.3046081559733, -0.43200002051889896, 0.8160000387579203, 0.49600002355873585, 0.0, 0.0, 0.0, 0.0, 0.0, 1.6480853584924932E9, 0.0, 2022-03-23 20:29:18.492
54.0, 849.3275400372222, 535.6565209035762, 1678.3792124646716, 833.3319879267365, -0.43200002051889896, 0.8160000387579203, 0.49600002355873585, 0.0, 0.0, 0.0, 0.0, 0.0, 1.648085358508185E9, 0.0, 2022-03-23 20:29:18.508
54.0, 873.1394830550998, 544.0600761040114, 1674.115726515185, 845.808294178918, -0.43200002051889896, 0.8160000387579203, 0.49600002355873585, 0.0, 0.0, 0.0, 0.0, 0.0, 1.648085358508185E9, 0.0, 2022-03-23 20:29:18.508
55.0, 859.7095023142174, 541.9470326290466, 1684.3032139944844, 840.176004845649, -0.43200002051889896, 0.8160000387579203, 0.49600002355873585, 0.0, 0.0, 0.0, 0.0, 0.0, 1.6480853585089524E9, 0.0, 2022-03-23 20:29:18.508
55.0, 857.1850698441267, 543.2522577135824, 1698.6681697242893, 842.9697101125494, -0.43200002051889896, 0.8160000387579203, 0.49600002355873585, 0.0, 0.0, 0.0, 0.0, 0.0, 1.6480853585089524E9, 0.0, 2022-03-23 20:29:18.508
56.0, 879.6656084777787, 534.4298337181099, 1696.4616287504323, 855.3375592660159, -0.43200002051889896, 0.8160000387579203, 0.49600002355873585, 0.0, 0.0, 0.0, 0.0, 0.0, 1.64808535852244E9, 0.0, 2022-03-23 20:29:18.522
56.0, 864.3993368586525, 513.5911111650057, 1681.6104860263877, 850.0568205285817, -0.43200002051889896, 0.8160000387579203, 0.49600002355873585, 0.0, 0.0, 0.0, 0.0, 0.0, 1.64808535852244E9, 0.0, 2022-03-23 20:29:18.522
57.0, 842.3900256194174, 512.7982523743995, 1672.017642640043, 840.3966589430347, -0.43200002051889896, 0.8160000387579203, 0.49600002355873585, 0.0, 0.0, 0.0, 0.0, 0.0, 1.648085358538136E9, 0.0, 2022-03-23 20:29:18.538
57.0, 845.4866627827287, 494.5961592900567, 1642.928700784687, 818.3162896046415, -0.43200002051889896, 0.8160000387579203, 0.49600002355873585, 0.0, 0.0, 0.0, 0.0, 0.0, 1.648085358538136E9, 0.0, 2022-03-23 20:29:18.538
58.0, 853.0300409933552, 481.19609774881974, 1631.0582583253272, 825.6016147183254, -0.43200002051889896, 0.8160000387579203, 0.49600002355873585, 0.0, 0.0, 0.0, 0.0, 0.0, 1.6480853585389197E9, 0.0, 2022-03-23 20:29:18.538
58.0, 836.7951352857053, 473.8097953363322, 1630.975980526302, 818.8510952983052, -0.43200002051889896, 0.8160000387579203, 0.49600002355873585, 0.0, 0.0, 0.0, 0.0, 0.0, 1.6480853585389197E9, 0.0, 2022-03-23 20:29:18.538
59.0, 824.6516801295802, 455.91811394831166, 1608.555280291941, 806.3972284458578, -0.43200002051889896, 0.8160000387579203, 0.49600002355873585, 0.0, 0.0, 0.0, 0.0, 0.0, 1.6480853585524085E9, 0.0, 2022-03-23 20:29:18.552
59.0, 844.5890867933631, 445.2033005752601, 1602.1413518679328, 823.4923111433163, -0.43200002051889896, 0.8160000387579203, 0.49600002355873585, 0.0, 0.0, 0.0, 0.0, 0.0, 1.6480853585524085E9, 0.0, 2022-03-23 20:29:18.552
60.0, 818.9296331973746, 429.65653645945713, 1596.65117873298, 810.2268860004842, -0.43200002051889896, 0.8160000387579203, 0.49600002355873585, 0.0, 0.0, 0.0, 0.0, 0.0, 1.6480853585681484E9, 0.0, 2022-03-23 20:29:18.568
60.0, 805.8212838526815, 424.6562902186997, 1579.862767831888, 797.9001757465303, -0.43200002051889896, 0.8160000387579203, 0.49600002355873585, 0.0, 0.0, 0.0, 0.0, 0.0, 1.6480853585681484E9, 0.0, 2022-03-23 20:29:18.568
61.0, 827.6099409945309, 416.72396241268143, 1578.778196844738, 812.448386574164, -0.43200002051889896, 0.8160000387579203, 0.49600002355873585, 0.0, 0.0, 0.0, 0.0, 0.0, 1.6480853585688832E9, 0.0, 2022-03-23 20:29:18.568
61.0, 821.3605681685731, 413.7731813476421, 1572.2445916221477, 805.1107028611004, -0.43200002051889896, 0.8160000387579203, 0.49600002355873585, 0.0, 0.0, 0.0, 0.0, 0.0, 1.6480853585688832E9, 0.0, 2022-03-23 20:29:18.568
62.0, 799.0558048328385, 406.12134603830054, 1556.9671003031544, 790.016466639936, -0.43200002051889896, 0.8160000387579203, 0.49600002355873585, 0.0, 0.0, 0.0, 0.0, 0.0, 1.64808535858255E9, 0.0, 2022-03-23 20:29:18.582
62.0, 805.3388367583975, 398.12170003307983, 1550.9122022748925, 785.3864704947919, -0.43200002051889896, 0.8160000387579203, 0.49600002355873585, 0.0, 0.0, 0.0, 0.0, 0.0, 1.64808535858255E9, 0.0, 2022-03-23 20:29:18.582
63.0, 806.2476324476302, 390.18189242715016, 1534.538920268882, 778.9575824709609, -0.43200002051889896, 0.8160000387579203, 0.49600002355873585, 0.0, 0.0, 0.0, 0.0, 0.0, 1.648085358598143E9, 0.0, 2022-03-23 20:29:18.598
63.0, 793.8012453950942, 394.96148457052186, 1532.4034373941831, 783.5501796165481, -0.43200002051889896, 0.8160000387579203, 0.49600002355873585, 0.0, 0.0, 0.0, 0.0, 0.0, 1.648085358598143E9, 0.0, 2022-03-23 20:29:18.598
64.0, 785.5547659927979, 390.26417022617534, 1521.8008210198022, 781.3473785426468, -0.43200002051889896, 0.8160000387579203, 0.49600002355873585, 0.0, 0.0, 0.0, 0.0, 0.0, 1.6480853585988412E9, 0.0, 2022-03-23 20:29:18.598
64.0, 803.2594523830339, 388.3942202483304, 1519.837373543065, 785.4949275935069, -0.43200002051889896, 0.8160000387579203, 0.49600002355873585, 0.0, 0.0, 0.0, 0.0, 0.0, 1.6480853585988412E9, 0.0, 2022-03-23 20:29:18.598
65.0, 795.6038771737367, 392.69884509732947, 1522.7507556085475, 788.9992138519883, -0.43200002051889896, 0.8160000387579203, 0.49600002355873585, 0.0, 0.0, 0.0, 0.0, 0.0, 1.6480853586125066E9, 0.0, 2022-03-23 20:29:18.612
65.0, 778.908963771537, 380.92190013686195, 1518.958497053478, 778.2470014793798, -0.43200002051889896, 0.8160000387579203, 0.49600002355873585, 0.0, 0.0, 0.0, 0.0, 0.0, 1.6480853586125066E9, 0.0, 2022-03-23 20:29:18.612
66.0, 801.4343812046573, 379.7887104502879, 1524.5683469870128, 788.5953046567738, -0.43200002051889896, 0.8160000387579203, 0.49600002355873585, 0.0, 0.0, 0.0, 0.0, 0.0, 1.648085358628145E9, 0.0, 2022-03-23 20:29:18.628
66.0, 803.7718186769634, 388.712111744564, 1536.9922946398146, 791.475027622655, -0.43200002051889896, 0.8160000387579203, 0.49600002355873585, 0.0, 0.0, 0.0, 0.0, 0.0, 1.648085358628145E9, 0.0, 2022-03-23 20:29:18.628
67.0, 789.1562896501273, 389.6508266334422, 1528.738335437607, 786.4112030826509, -0.43200002051889896, 0.8160000387579203, 0.49600002355873585, 0.0, 0.0, 0.0, 0.0, 0.0, 1.6480853586288297E9, 0.0, 2022-03-23 20:29:18.628
67.0, 797.8403373472393, 387.3844472602941, 1531.4497629054822, 788.6140041565523, -0.43200002051889896, 0.8160000387579203, 0.49600002355873585, 0.0, 0.0, 0.0, 0.0, 0.0, 1.6480853586288297E9, 0.0, 2022-03-23 20:29:18.628
68.0, 802.2945581944659, 382.9863249124028, 1531.4983816049062, 786.4897409817204, -0.43200002051889896, 0.8160000387579203, 0.49600002355873585, 0.0, 0.0, 0.0, 0.0, 0.0, 1.64808535864241E9, 0.0, 2022-03-23 20:29:18.642
68.0, 792.6979749081656, 386.04182317620143, 1529.5985124274157, 785.8502180892974, -0.43200002051889896, 0.8160000387579203, 0.49600002355873585, 0.0, 0.0, 0.0, 0.0, 0.0, 1.64808535864241E9, 0.0, 2022-03-23 20:29:18.642
69.0, 796.5538117624819, 391.2702033142559, 1530.6045455154963, 784.7207683026791, -0.43200002051889896, 0.8160000387579203, 0.49600002355873585, 0.0, 0.0, 0.0, 0.0, 0.0, 1.6480853586582105E9, 0.0, 2022-03-23 20:29:18.658
69.0, 816.7866705227643, 388.0164903528057, 1533.8320791772567, 796.9427613578737, -0.43200002051889896, 0.8160000387579203, 0.49600002355873585, 0.0, 0.0, 0.0, 0.0, 0.0, 1.6480853586582105E9, 0.0, 2022-03-23 20:29:18.658
70.0, 796.7482865601778, 383.9399994011037, 1524.2616751906462, 790.5662319334224, -0.43200002051889896, 0.8160000387579203, 0.4800000227987766, 0.0, 0.0, 0.0, 0.0, 0.0, 1.648085358658872E9, 0.0, 2022-03-23 20:29:18.658
70.0, 782.2673939317465, 374.44439341360703, 1517.9823831650428, 774.7801142204553, -0.43200002051889896, 0.8160000387579203, 0.4800000227987766, 0.0, 0.0, 0.0, 0.0, 0.0, 1.648085358658872E9, 0.0, 2022-03-23 20:29:18.658
71.0, 795.9329883698374, 371.46743304887787, 1502.5403362479992, 781.7849468374625, -0.43200002051889896, 0.8160000387579203, 0.4800000227987766, 0.0, 0.0, 0.0, 0.0, 0.0, 1.6480853586724303E9, 0.0, 2022-03-23 20:29:18.672
71.0, 793.9882403928787, 371.2392991515808, 1503.037742942106, 776.0778595050797, -0.43200002051889896, 0.8160000387579203, 0.4800000227987766, 0.0, 0.0, 0.0, 0.0, 0.0, 1.6480853586724303E9, 0.0, 2022-03-23 20:29:18.672
72.0, 779.4063704656437, 363.17607484711334, 1502.3159422506578, 770.7372823683545, -0.43200002051889896, 0.8160000387579203, 0.4800000227987766, 0.0, 0.0, 0.0, 0.0, 0.0, 1.6480853586881375E9, 0.0, 2022-03-23 20:29:18.688
72.0, 788.7411607550457, 364.8178909276612, 1506.4709711014293, 779.4699487648904, -0.43200002051889896, 0.8160000387579203, 0.4800000227987766, 0.0, 0.0, 0.0, 0.0, 0.0, 1.6480853586881375E9, 0.0, 2022-03-23 20:29:18.688
73.0, 800.6078633144498, 364.99366622557864, 1509.477850665804, 775.5093947118148, -0.43200002051889896, 0.8160000387579203, 0.4800000227987766, 0.0, 0.0, 0.0, 0.0, 0.0, 1.6480853586888466E9, 0.0, 2022-03-23 20:29:18.688
73.0, 781.055666346103, 362.43931455584243, 1497.1847995114513, 767.1207991112024, -0.43200002051889896, 0.8160000387579203, 0.4800000227987766, 0.0, 0.0, 0.0, 0.0, 0.0, 1.6480853586888466E9, 0.0, 2022-03-23 20:29:18.688
74.0, 781.0893254457042, 367.95566699048504, 1500.7264847694896, 762.2514493688941, -0.43200002051889896, 0.8160000387579203, 0.4800000227987766, 0.0, 0.0, 0.0, 0.0, 0.0, 1.6480853587024329E9, 0.0, 2022-03-23 20:29:18.702
74.0, 793.1991215022281, 360.3748897803016, 1498.9388125906698, 762.2664089687169, -0.43200002051889896, 0.8160000387579203, 0.4800000227987766, 0.0, 0.0, 0.0, 0.0, 0.0, 1.6480853587024329E9, 0.0, 2022-03-23 20:29:18.702
75.0, 792.2005682140589, 367.80607099225745, 1513.0756344231777, 781.0781057458371, -0.43200002051889896, 0.8160000387579203, 0.4800000227987766, 0.0, 0.0, 0.0, 0.0, 0.0, 1.6480853587181852E9, 0.0, 2022-03-23 20:29:18.718
75.0, 781.7699872376397, 370.7979909568094, 1514.9156652013771, 777.2708875909448, -0.43200002051889896, 0.8160000387579203, 0.4800000227987766, 0.0, 0.0, 0.0, 0.0, 0.0, 1.6480853587181852E9, 0.0, 2022-03-23 20:29:18.718
76.0, 801.7260934012011, 373.46827952517197, 1509.418012266513, 789.2123881494626, -0.43200002051889896, 0.8160000387579203, 0.4800000227987766, 0.0, 0.0, 0.0, 0.0, 0.0, 1.6480853587188492E9, 0.0, 2022-03-23 20:29:18.718
76.0, 788.688802155666, 375.240992104169, 1509.21231776895, 783.8231923133135, -0.43200002051889896, 0.8160000387579203, 0.4800000227987766, 0.0, 0.0, 0.0, 0.0, 0.0, 1.6480853587188492E9, 0.0, 2022-03-23 20:29:18.718
77.0, 783.8905105125159, 370.9662864548154, 1512.1481392341666, 771.9602296538651, -0.43200002051889896, 0.8160000387579203, 0.4800000227987766, 0.0, 0.0, 0.0, 0.0, 0.0, 1.6480853587324095E9, 0.0, 2022-03-23 20:29:18.732
77.0, 793.1205836031586, 372.7240394339897, 1513.9919099123217, 785.7155816908926, -0.43200002051889896, 0.8160000387579203, 0.4800000227987766, 0.0, 0.0, 0.0, 0.0, 0.0, 1.6480853587324095E9, 0.0, 2022-03-23 20:29:18.732
78.0, 804.5085789682344, 372.4884257367812, 1517.7318098680116, 795.5776978740469, -0.43200002051889896, 0.8160000387579203, 0.4800000227987766, 0.0, 0.0, 0.0, 0.0, 0.0, 1.6480853587481768E9, 0.0, 2022-03-23 20:29:18.748
78.0, 786.3588444832712, 370.7830313569866, 1509.743383562658, 780.3488252544776, -0.43200002051889896, 0.8160000387579203, 0.4800000227987766, 0.0, 0.0, 0.0, 0.0, 0.0, 1.6480853587481768E9, 0.0, 2022-03-23 20:29:18.748
79.0, 780.2254085559398, 369.4179678731598, 1503.4304324374534, 763.253742557019, -0.43200002051889896, 0.8160000387579203, 0.4800000227987766, 0.0, 0.0, 0.0, 0.0, 0.0, 1.6480853587488408E9, 0.0, 2022-03-23 20:29:18.748
79.0, 799.8748429231346, 376.1161286938004, 1513.483283518348, 783.636197315529, -0.43200002051889896, 0.8160000387579203, 0.4800000227987766, 0.0, 0.0, 0.0, 0.0, 0.0, 1.6480853587488408E9, 0.0, 2022-03-23 20:29:18.748
80.0, 776.350872201845, 372.0059786424972, 1506.2615367039107, 764.1064397469163, -0.43200002051889896, 0.8160000387579203, 0.4800000227987766, 0.0, 0.0, 0.0, 0.0, 0.0, 1.6480853587625983E9, 0.0, 2022-03-23 20:29:18.762
80.0, 781.706408938393, 372.66046113474295, 1507.368547090795, 766.0063089244068, -0.43200002051889896, 0.8160000387579203, 0.4800000227987766, 0.0, 0.0, 0.0, 0.0, 0.0, 1.6480853587625983E9, 0.0, 2022-03-23 20:29:18.762
81.0, 796.8941426584497, 369.3319501741789, 1509.1674389694817, 781.5642927400768, -0.43200002051889896, 0.8160000387579203, 0.4800000227987766, 0.0, 0.0, 0.0, 0.0, 0.0, 1.6480853587781098E9, 0.0, 2022-03-23 20:29:18.778
81.0, 783.0153739228845, 362.87688285065815, 1497.8093628040515, 767.2068168101832, -0.43200002051889896, 0.8160000387579203, 0.4800000227987766, 0.0, 0.0, 0.0, 0.0, 0.0, 1.6480853587781098E9, 0.0, 2022-03-23 20:29:18.778
82.0, 780.3824843540788, 368.65128838224337, 1505.5247764126398, 776.8520187959075, -0.43200002051889896, 0.8160000387579203, 0.4800000227987766, 0.0, 0.0, 0.0, 0.0, 0.0, 1.6480853587788427E9, 0.0, 2022-03-23 20:29:18.778
82.0, 791.5311261219904, 368.1538816881366, 1509.3357344674878, 780.2927267551422, -0.43200002051889896, 0.8160000387579203, 0.4800000227987766, 0.0, 0.0, 0.0, 0.0, 0.0, 1.6480853587788427E9, 0.0, 2022-03-23 20:29:18.778
83.0, 795.3757432764396, 368.1950205876492, 1506.620567099657, 780.2141888560727, -0.43200002051889896, 0.8160000387579203, 0.4800000227987766, 0.0, 0.0, 0.0, 0.0, 0.0, 1.6480853587923822E9, 0.0, 2022-03-23 20:29:18.792
83.0, 778.2170822797343, 364.3055246337317, 1505.0198899186216, 770.5166282709688, -0.43200002051889896, 0.8160000387579203, 0.4800000227987766, 0.0, 0.0, 0.0, 0.0, 0.0, 1.6480853587923822E9, 0.0, 2022-03-23 20:29:18.792
84.0, 781.4371361415833, 367.2712652985938, 1507.6004208880477, 771.6647775573656, -0.43200002051889896, 0.8160000387579203, 0.4800000227987766, 0.0, 0.0, 0.0, 0.0, 0.0, 1.6480853588078537E9, 0.0, 2022-03-23 20:29:18.807
84.0, 802.245939495042, 369.0738970772363, 1514.953064200934, 787.0507259750739, -0.43200002051889896, 0.8160000387579203, 0.4800000227987766, 0.0, 0.0, 0.0, 0.0, 0.0, 1.6480853588078537E9, 0.0, 2022-03-23 20:29:18.807
85.0, 783.576358916238, 371.5235315482132, 1510.1435528579168, 776.7847005967051, -0.43200002051889896, 0.8160000387579203, 0.4800000227987766, 0.0, 0.0, 0.0, 0.0, 0.0, 1.6480853588231907E9, 0.0, 2022-03-23 20:29:18.823
85.0, 771.5413608588278, 371.28417795104906, 1506.8636605967768, 764.4729499425739, -0.43200002051889896, 0.8160000387579203, 0.4800000227987766, 0.0, 0.0, 0.0, 0.0, 0.0, 1.6480853588231907E9, 0.0, 2022-03-23 20:29:18.823
86.0, 797.9300949461758, 372.6342818350531, 1512.8288010261022, 773.7815609322861, -0.43200002051889896, 0.8160000387579203, 0.4800000227987766, 0.0, 0.0, 0.0, 0.0, 0.0, 1.648085358823805E9, 0.0, 2022-03-23 20:29:18.823
86.0, 793.3150584008545, 380.824662738014, 1516.3143877848051, 780.7340349499136, -0.43200002051889896, 0.8160000387579203, 0.4800000227987766, 0.0, 0.0, 0.0, 0.0, 0.0, 1.648085358823805E9, 0.0, 2022-03-23 20:29:18.823
87.0, 775.3710184134543, 369.25715217506513, 1508.3745801788755, 771.4777825595811, -0.43200002051889896, 0.8160000387579203, 0.4800000227987766, 0.0, 0.0, 0.0, 0.0, 0.0, 1.6480853588381765E9, 0.0, 2022-03-23 20:29:18.838
87.0, 777.6860164860263, 367.36476279748604, 1516.3480468844064, 773.6506644338369, -0.43200002051889896, 0.8160000387579203, 0.4800000227987766, 0.0, 0.0, 0.0, 0.0, 0.0, 1.6480853588381765E9, 0.0, 2022-03-23 20:29:18.838
88.0, 781.489494740963, 366.46344690816477, 1516.4303246834315, 765.3219072325155, -0.43200002051889896, 0.8160000387579203, 0.4800000227987766, 0.0, 0.0, 0.0, 0.0, 0.0, 1.6480853588387482E9, 0.0, 2022-03-23 20:29:18.838
88.0, 769.7836078796536, 356.4180756271817, 1502.760990345385, 759.1959511050954, -0.43200002051889896, 0.8160000387579203, 0.4800000227987766, 0.0, 0.0, 0.0, 0.0, 0.0, 1.6480853588387482E9, 0.0, 2022-03-23 20:29:18.838
89.0, 775.0680865170434, 373.7225927221589, 1508.1726255812682, 776.6799833979458, -0.43200002051889896, 0.8160000387579203, 0.4800000227987766, 0.0, 0.0, 0.0, 0.0, 0.0, 1.648085358852462E9, 0.0, 2022-03-23 20:29:18.852
89.0, 792.0808914154768, 374.40325451409444, 1515.3532334961928, 781.1977825444192, -0.43200002051889896, 0.8160000387579203, 0.4800000227987766, 0.0, 0.0, 0.0, 0.0, 0.0, 1.648085358852462E9, 0.0, 2022-03-23 20:29:18.852
90.0, 782.9218764239922, 377.4849320775829, 1519.1193127515726, 773.4412300363183, -0.43200002051889896, 0.8160000387579203, 0.4800000227987766, 0.0, 0.0, 0.0, 0.0, 0.0, 1.6480853588680935E9, 0.0, 2022-03-23 20:29:18.868
90.0, 775.2812608145177, 373.0419309302233, 1519.0931334518827, 769.2413223860785, -0.43200002051889896, 0.8160000387579203, 0.4800000227987766, 0.0, 0.0, 0.0, 0.0, 0.0, 1.6480853588680935E9, 0.0, 2022-03-23 20:29:18.868
91.0, 799.7177671249956, 378.92853346047923, 1526.1877236678265, 781.2426613438874, -0.43200002051889896, 0.7840000372380018, 0.4800000227987766, 0.0, 0.0, 0.0, 0.0, 0.0, 1.648085358868878E9, 0.0, 2022-03-23 20:29:18.868
91.0, 789.3993831472471, 383.1321810106747, 1523.6034527984448, 778.3217994784936, -0.43200002051889896, 0.7840000372380018, 0.4800000227987766, 0.0, 0.0, 0.0, 0.0, 0.0, 1.648085358868878E9, 0.0, 2022-03-23 20:29:18.868
92.0, 771.9826690535992, 373.10550922947004, 1511.5460153413005, 764.5552277415991, -0.4640000220388174, 0.7840000372380018, 0.4800000227987766, 0.0, 0.0, 0.0, 0.0, 0.0, 1.648085358882481E9, 0.0, 2022-03-23 20:29:18.882
92.0, 786.7590137785301, 376.7556515862234, 1521.7409826205112, 781.4520957414061, -0.4640000220388174, 0.7840000372380018, 0.4800000227987766, 0.0, 0.0, 0.0, 0.0, 0.0, 1.648085358882481E9, 0.0, 2022-03-23 20:29:18.882
93.0, 794.3397909887135, 375.7458785981871, 1519.6503785452805, 783.7708337139338, -0.4640000220388174, 0.7840000372380018, 0.4800000227987766, 0.0, 0.0, 0.0, 0.0, 0.0, 1.6480853588980713E9, 0.0, 2022-03-23 20:29:18.898
93.0, 778.643430874683, 366.87109600333497, 1519.6840376448818, 770.98411576543, -0.4640000220388174, 0.7840000372380018, 0.4800000227987766, 0.0, 0.0, 0.0, 0.0, 0.0, 1.6480853588980713E9, 0.0, 2022-03-23 20:29:18.898
94.0, 777.2297486914322, 375.62246189964935, 1526.4495166647248, 773.6992831332609, -0.4640000220388174, 0.7840000372380018, 0.4800000227987766, 0.0, 0.0, 0.0, 0.0, 0.0, 1.6480853588989766E9, 0.0, 2022-03-23 20:29:18.898
94.0, 805.0396447619423, 379.1155284582637, 1526.471956064459, 787.1591830737889, -0.4640000220388174, 0.7840000372380018, 0.4800000227987766, 0.0, 0.0, 0.0, 0.0, 0.0, 1.6480853588989766E9, 0.0, 2022-03-23 20:29:18.898
95.0, 789.6574362441897, 375.0427774065174, 1517.668231568765, 784.2458010083064, -0.4640000220388174, 0.7840000372380018, 0.4800000227987766, 0.0, 0.0, 0.0, 0.0, 0.0, 1.648085358912392E9, 0.0, 2022-03-23 20:29:18.912
95.0, 774.9371900185943, 380.4656323422678, 1519.777535143774, 768.8972515901551, -0.4640000220388174, 0.7840000372380018, 0.4800000227987766, 0.0, 0.0, 0.0, 0.0, 0.0, 1.648085358912392E9, 0.0, 2022-03-23 20:29:18.912
96.0, 805.0733038615435, 384.32894899649546, 1533.925576676149, 792.3127652127296, -0.4640000220388174, 0.7840000372380018, 0.4800000227987766, 0.0, 0.0, 0.0, 0.0, 0.0, 1.6480853589444673E9, 0.0, 2022-03-23 20:29:18.944
96.0, 805.899821751751, 388.6073945458047, 1545.1714558429085, 796.8006451595575, -0.4640000220388174, 0.7840000372380018, 0.4800000227987766, 0.0, 0.0, 0.0, 0.0, 0.0, 1.6480853589444673E9, 0.0, 2022-03-23 20:29:18.944
97.0, 786.639336979948, 379.3922810549848, 1531.5021215048619, 782.7835001256317, -0.4640000220388174, 0.7840000372380018, 0.4800000227987766, 0.0, 0.0, 0.0, 0.0, 0.0, 1.6480853589451735E9, 0.0, 2022-03-23 20:29:18.945
97.0, 806.6365820430219, 383.0985219110735, 1545.455688239541, 799.1979210311547, -0.4640000220388174, 0.7840000372380018, 0.4800000227987766, 0.0, 0.0, 0.0, 0.0, 0.0, 1.6480853589451735E9, 0.0, 2022-03-23 20:29:18.945
98.0, 810.8364896932617, 383.40893360739574, 1541.4726947867312, 797.324231153354, -0.4640000220388174, 0.7840000372380018, 0.4800000227987766, 0.0, 0.0, 0.0, 0.0, 0.0, 1.6480853589459832E9, 0.0, 2022-03-23 20:29:18.945
98.0, 785.7529806904495, 384.96473198896274, 1534.0602130745538, 780.0720726577565, -0.4640000220388174, 0.7840000372380018, 0.4800000227987766, 0.0, 0.0, 0.0, 0.0, 0.0, 1.6480853589459832E9, 0.0, 2022-03-23 20:29:18.945
99.0, 790.2109414376318, 395.81792166037485, 1539.3746109115891, 780.0982519574463, -0.4640000220388174, 0.7840000372380018, 0.4800000227987766, 0.0, 0.0, 0.0, 0.0, 0.0, 1.6480853589466648E9, 0.0, 2022-03-23 20:29:18.946
99.0, 808.9590599155053, 396.7603764492087, 1541.6970887840725, 794.5716647859663, -0.4640000220388174, 0.7840000372380018, 0.4800000227987766, 0.0, 0.0, 0.0, 0.0, 0.0, 1.6480853589466648E9, 0.0, 2022-03-23 20:29:18.946
100.0, 791.2805528249592, 392.5081101995893, 1542.8078390709125, 783.3033462194726, -0.4640000220388174, 0.7840000372380018, 0.5120000243186951, 0.0, 0.0, 0.0, 0.0, 0.0, 1.6480853589574225E9, 0.0, 2022-03-23 20:29:18.957
100.0, 786.0297332871705, 399.0903341216035, 1546.1700091310777, 789.2236078493297, -0.4640000220388174, 0.7840000372380018, 0.5120000243186951, 0.0, 0.0, 0.0, 0.0, 0.0, 1.6480853589574225E9, 0.0, 2022-03-23 20:29:18.957
0.0, 811.2852776879445, 391.0476792668924, 1544.417866001837, 799.242799830623, -0.4640000220388174, 0.7840000372380018, 0.5120000243186951, 0.0, 0.0, 0.0, 0.0, 0.0, 1.6480853589731767E9, 0.0, 2022-03-23 20:29:18.973
1.0, 801.9243080988526, 391.83679815754294, 1544.2084316043183, 781.8298256369308, -0.4640000220388174, 0.7840000372380018, 0.5120000243186951, 0.0, 0.0, 0.0, 0.0, 0.0, 1.6480853589738562E9, 0.0, 2022-03-23 20:29:18.973
1.0, 785.9175362884998, 390.83076506946236, 1542.5067771244794, 778.2657009791583, -0.4640000220388174, 0.7840000372380018, 0.5120000243186951, 0.0, 0.0, 0.0, 0.0, 0.0, 1.6480853589738562E9, 0.0, 2022-03-23 20:29:18.973
2.0, 796.8193446593359, 398.6434160768986, 1553.8274542903528, 796.4191753640771, -0.4480000212788582, 0.7840000372380018, 0.5120000243186951, 0.0, 0.0, 0.0, 0.0, 0.0, 1.648085359003806E9, 0.0, 2022-03-23 20:29:19.003
2.0, 800.2413531187922, 397.79445878695697, 1543.6998052103445, 792.6194370090961, -0.4480000212788582, 0.7840000372380018, 0.5120000243186951, 0.0, 0.0, 0.0, 0.0, 0.0, 1.648085359003806E9, 0.0, 2022-03-23 20:29:19.003
3.0, 785.7155816908926, 388.56812559626997, 1542.656373122707, 781.9195832358673, -0.4480000212788582, 0.7840000372380018, 0.5120000243186951, 0.0, 0.0, 0.0, 0.0, 0.0, 1.64808535900453E9, 0.0, 2022-03-23 20:29:19.004
3.0, 775.759968008846, 383.6538970544934, 1537.5252303835005, 773.6955432333052, -0.4480000212788582, 0.7840000372380018, 0.5120000243186951, 0.0, 0.0, 0.0, 0.0, 0.0, 1.64808535900453E9, 0.0, 2022-03-23 20:29:19.004
4.0, 810.9748659916222, 404.28318521007895, 1557.2419829498976, 805.1331422608346, -0.4480000212788582, 0.7840000372380018, 0.5120000243186951, 0.0, 0.0, 0.0, 0.0, 0.0, 1.6480853590052986E9, 0.0, 2022-03-23 20:29:19.005
4.0, 799.5494716269895, 410.03141144197434, 1557.4813365470618, 797.7169206487015, -0.4480000212788582, 0.7840000372380018, 0.5120000243186951, 0.0, 0.0, 0.0, 0.0, 0.0, 1.6480853590052986E9, 0.0, 2022-03-23 20:29:19.005
5.0, 780.3750045541674, 398.4078023796901, 1540.2852765507996, 782.1851161327213, -0.4480000212788582, 0.7840000372380018, 0.5120000243186951, 0.0, 0.0, 0.0, 0.0, 0.0, 1.648085359017484E9, 0.0, 2022-03-23 20:29:19.017
5.0, 806.9095947397873, 398.20958768203855, 1546.2317174803466, 794.9232153818011, -0.4480000212788582, 0.7840000372380018, 0.5120000243186951, 0.0, 0.0, 0.0, 0.0, 0.0, 1.648085359017484E9, 0.0, 2022-03-23 20:29:19.017
6.0, 794.1340964911506, 390.2510805763304, 1551.6919714156538, 788.4681480582803, -0.4480000212788582, 0.7840000372380018, 0.5120000243186951, 0.0, 0.0, 0.0, 0.0, 0.0, 1.6480853590331054E9, 0.0, 2022-03-23 20:29:19.033
6.0, 784.7918264018372, 384.4317962452769, 1550.267069532536, 782.0841388339177, -0.4480000212788582, 0.7840000372380018, 0.5120000243186951, 0.0, 0.0, 0.0, 0.0, 0.0, 1.6480853590331054E9, 0.0, 2022-03-23 20:29:19.033
7.0, 801.0005528097972, 390.6961286710575, 1549.1488394457847, 796.4752738634124, -0.4480000212788582, 0.7840000372380018, 0.5120000243186951, 0.0, 0.0, 0.0, 0.0, 0.0, 1.6480853590338666E9, 0.0, 2022-03-23 20:29:19.033
7.0, 803.9775131745264, 384.94790243916214, 1545.816588585265, 789.3320649480447, -0.4480000212788582, 0.7840000372380018, 0.5120000243186951, 0.0, 0.0, 0.0, 0.0, 0.0, 1.6480853590338666E9, 0.0, 2022-03-23 20:29:19.033
8.0, 780.1805297564715, 379.83171929977834, 1532.6521407412365, 779.4849083647132, -0.4480000212788582, 0.7840000372380018, 0.5120000243186951, 0.0, 0.0, 0.0, 0.0, 0.0, 1.648085359063794E9, 0.0, 2022-03-23 20:29:19.063
8.0, 792.2005682140589, 378.4778755158186, 1531.9639991493896, 776.0815994050354, -0.4480000212788582, 0.7840000372380018, 0.5120000243186951, 0.0, 0.0, 0.0, 0.0, 0.0, 1.648085359063794E9, 0.0, 2022-03-23 20:29:19.063
9.0, 800.5779441148043, 368.8700725296512, 1520.7330795824528, 778.0787059813738, -0.4480000212788582, 0.7840000372380018, 0.5120000243186951, 0.0, 0.0, 0.0, 0.0, 0.0, 1.6480853590645204E9, 0.0, 2022-03-23 20:29:19.064
9.0, 791.041199227795, 375.9235238460824, 1519.3754958985373, 776.4406298007816, -0.4480000212788582, 0.7840000372380018, 0.5120000243186951, 0.0, 0.0, 0.0, 0.0, 0.0, 1.6480853590645204E9, 0.0, 2022-03-23 20:29:19.064
10.0, 781.5904720397666, 375.34009945299476, 1524.480459338054, 768.994488989003, -0.4480000212788582, 0.7840000372380018, 0.49600002355873585, 0.0, 0.0, 0.0, 0.0, 0.0, 1.648085359065318E9, 0.0, 2022-03-23 20:29:19.065
10.0, 795.7759125716984, 365.70611716713756, 1518.4106017099693, 786.9759279759601, -0.4480000212788582, 0.7840000372380018, 0.49600002355873585, 0.0, 0.0, 0.0, 0.0, 0.0, 1.648085359065318E9, 0.0, 2022-03-23 20:29:19.065
11.0, 797.9749737456441, 368.79153463058174, 1520.7854381818324, 791.0299795279279, -0.4480000212788582, 0.800000037997961, 0.49600002355873585, 0.0, 0.0, 0.0, 0.0, 0.0, 1.6480853590774388E9, 0.0, 2022-03-23 20:29:19.077
11.0, 793.1467629028484, 379.3978909049183, 1525.879181921482, 785.0311799990013, -0.4480000212788582, 0.800000037997961, 0.49600002355873585, 0.0, 0.0, 0.0, 0.0, 0.0, 1.6480853590774388E9, 0.0, 2022-03-23 20:29:19.077
12.0, 805.5781903555617, 381.60817177873105, 1535.311209609732, 792.6755355084315, -0.4480000212788582, 0.800000037997961, 0.49600002355873585, 0.0, 0.0, 0.0, 0.0, 0.0, 1.648085359093177E9, 0.0, 2022-03-23 20:29:19.093
12.0, 810.3390829991549, 382.5057477680966, 1533.0373504366726, 791.9051161175594, -0.4480000212788582, 0.800000037997961, 0.49600002355873585, 0.0, 0.0, 0.0, 0.0, 0.0, 1.648085359093177E9, 0.0, 2022-03-23 20:29:19.093
13.0, 788.1913954615593, 374.4724426632747, 1518.2273466121405, 776.8183596963063, -0.4480000212788582, 0.800000037997961, 0.49600002355873585, 0.0, 0.0, 0.0, 0.0, 0.0, 1.6480853590938325E9, 0.0, 2022-03-23 20:29:19.093
13.0, 790.7681865310296, 372.9877023808658, 1526.7393589112908, 782.8321188250557, -0.4480000212788582, 0.800000037997961, 0.49600002355873585, 0.0, 0.0, 0.0, 0.0, 0.0, 1.6480853590938325E9, 0.0, 2022-03-23 20:29:19.093
14.0, 805.997059150599, 376.01702134497464, 1525.1050226306543, 783.4903412172571, -0.4480000212788582, 0.800000037997961, 0.49600002355873585, 0.0, 0.0, 0.0, 0.0, 0.0, 1.6480853591074862E9, 0.0, 2022-03-23 20:29:19.107
14.0, 789.4667013464496, 376.8173599354923, 1526.8777352096513, 771.9564897539094, -0.4480000212788582, 0.800000037997961, 0.49600002355873585, 0.0, 0.0, 0.0, 0.0, 0.0, 1.6480853591074862E9, 0.0, 2022-03-23 20:29:19.107
15.0, 791.8826767178252, 385.5836854316294, 1529.981852172874, 777.039013793692, -0.4480000212788582, 0.800000037997961, 0.49600002355873585, 0.0, 0.0, 0.0, 0.0, 0.0, 1.648085359123113E9, 0.0, 2022-03-23 20:29:19.123
15.0, 811.6742272833362, 382.3636315697804, 1533.1458075353876, 789.810772142373, -0.4480000212788582, 0.800000037997961, 0.49600002355873585, 0.0, 0.0, 0.0, 0.0, 0.0, 1.648085359123113E9, 0.0, 2022-03-23 20:29:19.123
16.0, 805.2303796596825, 386.0062941266224, 1538.7743569687009, 793.5469321981072, -0.4480000212788582, 0.800000037997961, 0.49600002355873585, 0.0, 0.0, 0.0, 0.0, 0.0, 1.6480853591239305E9, 0.0, 2022-03-23 20:29:19.123
16.0, 794.1228767912835, 389.9967673793435, 1540.7191049456596, 785.0610991986468, -0.4480000212788582, 0.800000037997961, 0.49600002355873585, 0.0, 0.0, 0.0, 0.0, 0.0, 1.6480853591239305E9, 0.0, 2022-03-23 20:29:19.123
17.0, 801.2286867070943, 396.6762287002057, 1537.012864089571, 792.5221996102482, -0.4480000212788582, 0.800000037997961, 0.49600002355873585, 0.0, 0.0, 0.0, 0.0, 0.0, 1.6480853591375356E9, 0.0, 2022-03-23 20:29:19.137
17.0, 802.3244773941115, 393.61699053645134, 1534.806323115714, 786.9385289764032, -0.4480000212788582, 0.800000037997961, 0.49600002355873585, 0.0, 0.0, 0.0, 0.0, 0.0, 1.6480853591375356E9, 0.0, 2022-03-23 20:29:19.137
18.0, 780.9621688472107, 385.9539355272427, 1533.358981832862, 775.0793062169105, -0.4480000212788582, 0.800000037997961, 0.49600002355873585, 0.0, 0.0, 0.0, 0.0, 0.0, 1.6480853591531606E9, 0.0, 2022-03-23 20:29:19.153
18.0, 784.444015705958, 387.0646858140826, 1535.419666708447, 777.78699378483, -0.4480000212788582, 0.800000037997961, 0.49600002355873585, 0.0, 0.0, 0.0, 0.0, 0.0, 1.6480853591531606E9, 0.0, 2022-03-23 20:29:19.153
19.0, 795.5552584743127, 379.4465096043423, 1529.4582661790773, 780.4385828534141, -0.4480000212788582, 0.800000037997961, 0.49600002355873585, 0.0, 0.0, 0.0, 0.0, 0.0, 1.648085359153818E9, 0.0, 2022-03-23 20:29:19.153
19.0, 774.892311219126, 386.4139432217926, 1532.0649764481932, 774.8399526197463, -0.4480000212788582, 0.800000037997961, 0.49600002355873585, 0.0, 0.0, 0.0, 0.0, 0.0, 1.648085359153818E9, 0.0, 2022-03-23 20:29:19.153
20.0, 772.6745505454019, 392.6707958476618, 1533.5085778310895, 775.3635386135429, -0.4480000212788582, 0.800000037997961, 0.4480000212788582, 0.0, 0.0, 0.0, 0.0, 0.0, 1.6480853591674912E9, 0.0, 2022-03-23 20:29:19.167
20.0, 782.465608629398, 380.56473969109356, 1528.7551649874076, 779.9299564594403, -0.4480000212788582, 0.800000037997961, 0.4480000212788582, 0.0, 0.0, 0.0, 0.0, 0.0, 1.6480853591674912E9, 0.0, 2022-03-23 20:29:19.167
21.0, 777.7645543850958, 382.8460786640644, 1534.275257322006, 780.6517571508884, -0.4480000212788582, 0.800000037997961, 0.4480000212788582, 0.0, 0.0, 0.0, 0.0, 0.0, 1.6480853591831648E9, 0.0, 2022-03-23 20:29:19.183
21.0, 766.9300642134622, 379.0426004091278, 1524.1737875416875, 768.4073246959597, -0.4480000212788582, 0.800000037997961, 0.4480000212788582, 0.0, 0.0, 0.0, 0.0, 0.0, 1.6480853591831648E9, 0.0, 2022-03-23 20:29:19.183
22.0, 773.5422073351219, 375.8749051466584, 1519.3268771991134, 768.343746396713, -0.4480000212788582, 0.800000037997961, 0.4480000212788582, 0.0, 0.0, 0.0, 0.0, 0.0, 1.6480853591838443E9, 0.0, 2022-03-23 20:29:19.183
22.0, 773.011141541414, 365.2386296726763, 1518.2759653115645, 767.0796602116898, -0.4480000212788582, 0.800000037997961, 0.4480000212788582, 0.0, 0.0, 0.0, 0.0, 0.0, 1.6480853591838443E9, 0.0, 2022-03-23 20:29:19.183
23.0, 764.3607529439032, 371.41320449952036, 1525.5388510255143, 770.5802065702155, -0.4480000212788582, 0.800000037997961, 0.4480000212788582, 0.0, 0.0, 0.0, 0.0, 0.0, 1.6480853591974783E9, 0.0, 2022-03-23 20:29:19.197
23.0, 756.6677787350491, 380.86393168754876, 1521.6605747714639, 758.8219611095265, -0.4480000212788582, 0.800000037997961, 0.4480000212788582, 0.0, 0.0, 0.0, 0.0, 0.0, 1.6480853591974783E9, 0.0, 2022-03-23 20:29:19.197
24.0, 771.5937194582075, 376.7014230368659, 1516.9632604271173, 763.0891869589686, -0.4480000212788582, 0.800000037997961, 0.4480000212788582, 0.0, 0.0, 0.0, 0.0, 0.0, 1.6480853592132058E9, 0.0, 2022-03-23 20:29:19.213
24.0, 759.1660319054499, 379.86911829933524, 1524.4168810388073, 772.2856009500101, -0.4480000212788582, 0.800000037997961, 0.4480000212788582, 0.0, 0.0, 0.0, 0.0, 0.0, 1.6480853592132058E9, 0.0, 2022-03-23 20:29:19.213
25.0, 756.4097256381065, 378.5414538150653, 1522.7376659587026, 767.5733270058408, -0.4480000212788582, 0.800000037997961, 0.4480000212788582, 0.0, 0.0, 0.0, 0.0, 0.0, 1.648085359213875E9, 0.0, 2022-03-23 20:29:19.213
25.0, 777.0577132934704, 382.8535584639758, 1520.946253879927, 769.9294639779255, -0.4480000212788582, 0.800000037997961, 0.4480000212788582, 0.0, 0.0, 0.0, 0.0, 0.0, 1.648085359213875E9, 0.0, 2022-03-23 20:29:19.213
26.0, 773.5459472350776, 385.1797762364149, 1531.0252842605114, 775.1167052164674, -0.4480000212788582, 0.800000037997961, 0.4480000212788582, 0.0, 0.0, 0.0, 0.0, 0.0, 1.6480853592274349E9, 0.0, 2022-03-23 20:29:19.227
26.0, 759.2109107049182, 386.6271175192669, 1535.251371210441, 773.5160280354321, -0.4480000212788582, 0.800000037997961, 0.4480000212788582, 0.0, 0.0, 0.0, 0.0, 0.0, 1.6480853592274349E9, 0.0, 2022-03-23 20:29:19.227
27.0, 777.9029306834564, 397.46160769090056, 1542.9742646189407, 786.8487713774666, -0.4480000212788582, 0.800000037997961, 0.4480000212788582, 0.0, 0.0, 0.0, 0.0, 0.0, 1.6480853592431965E9, 0.0, 2022-03-23 20:29:19.243
27.0, 795.6113569736481, 402.58527063019574, 1552.7204439034685, 804.886308863759, -0.4480000212788582, 0.800000037997961, 0.4480000212788582, 0.0, 0.0, 0.0, 0.0, 0.0, 1.6480853592431965E9, 0.0, 2022-03-23 20:29:19.243
28.0, 866.8227920299396, 501.51310425810516, 1655.096465290524, 883.2259932355955, -0.4480000212788582, 0.800000037997961, 0.4480000212788582, 0.0, 0.0, 0.0, 0.0, 0.0, 1.648085359243826E9, 0.0, 2022-03-23 20:29:19.243
28.0, 898.9560124492273, 546.9154897201806, 1696.8337487960234, 901.2897100215778, -0.4480000212788582, 0.800000037997961, 0.4480000212788582, 0.0, 0.0, 0.0, 0.0, 0.0, 1.648085359243826E9, 0.0, 2022-03-23 20:29:19.243
29.0, 939.0440000742674, 582.055589703843, 1728.3910246221349, 928.6620377972722, -0.4480000212788582, 0.800000037997961, 0.4480000212788582, 0.0, 0.0, 0.0, 0.0, 0.0, 1.6480853592574227E9, 0.0, 2022-03-23 20:29:19.257
29.0, 937.2563278954476, 594.2027847599238, 1736.734741423279, 934.7244156254455, -0.4480000212788582, 0.800000037997961, 0.4480000212788582, 0.0, 0.0, 0.0, 0.0, 0.0, 1.6480853592574227E9, 0.0, 2022-03-23 20:29:19.257
30.0, 934.0848927330226, 587.6317805377766, 1730.3993508983403, 934.1559508321807, -0.4480000212788582, 0.800000037997961, 0.3840000182390213, 0.0, 0.0, 0.0, 0.0, 0.0, 1.6480853592731562E9, 0.0, 2022-03-23 20:29:19.273
30.0, 956.8459238633513, 589.2025385191664, 1732.5049145733938, 947.8626841697842, -0.4480000212788582, 0.800000037997961, 0.3840000182390213, 0.0, 0.0, 0.0, 0.0, 0.0, 1.6480853592731562E9, 0.0, 2022-03-23 20:29:19.273
31.0, 961.2926649106666, 600.231503488496, 1739.8538179863244, 955.1405294835567, -0.4480000212788582, 0.8160000387579203, 0.3840000182390213, 0.0, 0.0, 0.0, 0.0, 0.0, 1.6480853592738156E9, 0.0, 2022-03-23 20:29:19.273
31.0, 957.586424054578, 612.5956127420068, 1752.6966344341636, 961.2664856109768, -0.4480000212788582, 0.8160000387579203, 0.3840000182390213, 0.0, 0.0, 0.0, 0.0, 0.0, 1.6480853592738156E9, 0.0, 2022-03-23 20:29:19.273
32.0, 957.0366587610915, 607.3410533042625, 1756.8217440852895, 951.8269781228155, -0.4480000212788582, 0.8160000387579203, 0.3840000182390213, 0.0, 0.0, 0.0, 0.0, 0.0, 1.6480853592874951E9, 0.0, 2022-03-23 20:29:19.287
32.0, 970.4853390017524, 613.9232772262767, 1762.3941950192675, 967.8935883324593, -0.4480000212788582, 0.8160000387579203, 0.3840000182390213, 0.0, 0.0, 0.0, 0.0, 0.0, 1.6480853592874951E9, 0.0, 2022-03-23 20:29:19.287
33.0, 959.0786441368982, 610.8004607632756, 1753.3997356258333, 962.4295944971964, -0.4480000212788582, 0.8160000387579203, 0.3840000182390213, 0.0, 0.0, 0.0, 0.0, 0.0, 1.6480853593032684E9, 0.0, 2022-03-23 20:29:19.303
33.0, 944.0629458148032, 612.7414688402787, 1761.78459132649, 962.6091096950695, -0.4480000212788582, 0.8160000387579203, 0.3840000182390213, 0.0, 0.0, 0.0, 0.0, 0.0, 1.6480853593032684E9, 0.0, 2022-03-23 20:29:19.303
34.0, 975.5117645421997, 614.2262091226876, 1773.6737332856283, 984.1247541401535, -0.4480000212788582, 0.8160000387579203, 0.3840000182390213, 0.0, 0.0, 0.0, 0.0, 0.0, 1.6480853593038676E9, 0.0, 2022-03-23 20:29:19.303
34.0, 949.8859700458124, 602.6586985597387, 1753.4483543252572, 958.5513182431459, -0.4480000212788582, 0.8160000387579203, 0.3840000182390213, 0.0, 0.0, 0.0, 0.0, 0.0, 1.6480853593038676E9, 0.0, 2022-03-23 20:29:19.303
35.0, 946.647216684185, 601.1178597779945, 1750.4377348609269, 956.4083555685356, -0.4480000212788582, 0.8160000387579203, 0.3840000182390213, 0.0, 0.0, 0.0, 0.0, 0.0, 1.648085359317514E9, 0.0, 2022-03-23 20:29:19.317
35.0, 973.1593674700707, 600.6578520834446, 1746.3649838091806, 962.5230919960886, -0.4480000212788582, 0.8160000387579203, 0.3840000182390213, 0.0, 0.0, 0.0, 0.0, 0.0, 1.648085359317514E9, 0.0, 2022-03-23 20:29:19.317
36.0, 955.1068703839555, 598.1296797133982, 1748.5528252832592, 954.3364509930834, -0.4480000212788582, 0.8160000387579203, 0.3840000182390213, 0.0, 0.0, 0.0, 0.0, 0.0, 1.6480853593331523E9, 0.0, 2022-03-23 20:29:19.333
36.0, 934.7281555254012, 592.3029155824333, 1731.801813381724, 939.7994598653167, -0.4480000212788582, 0.8160000387579203, 0.3840000182390213, 0.0, 0.0, 0.0, 0.0, 0.0, 1.6480853593331523E9, 0.0, 2022-03-23 20:29:19.333
37.0, 943.9769281158224, 583.9330194815993, 1726.435056945309, 938.8495252765715, -0.4480000212788582, 0.8160000387579203, 0.3840000182390213, 0.0, 0.0, 0.0, 0.0, 0.0, 1.64808535933382E9, 0.0, 2022-03-23 20:29:19.333
37.0, 952.6011374136433, 592.4076327811927, 1732.0748260784894, 945.6711027957499, -0.4480000212788582, 0.8160000387579203, 0.3840000182390213, 0.0, 0.0, 0.0, 0.0, 0.0, 1.64808535933382E9, 0.0, 2022-03-23 20:29:19.333
38.0, 932.0690866569057, 582.8858474940062, 1721.0720404088497, 928.1085326038301, -0.4480000212788582, 0.8160000387579203, 0.3840000182390213, 0.0, 0.0, 0.0, 0.0, 0.0, 1.6480853593474712E9, 0.0, 2022-03-23 20:29:19.347
38.0, 929.9934421814978, 566.6733811860904, 1701.927492535673, 925.5317415343598, -0.4480000212788582, 0.8160000387579203, 0.3840000182390213, 0.0, 0.0, 0.0, 0.0, 0.0, 1.6480853593474712E9, 0.0, 2022-03-23 20:29:19.347
39.0, 948.6144040608779, 573.1172288097441, 1702.2566037317738, 936.8000601008534, -0.4480000212788582, 0.8160000387579203, 0.3840000182390213, 0.0, 0.0, 0.0, 0.0, 0.0, 1.6480853593632352E9, 0.0, 2022-03-23 20:29:19.363
39.0, 939.8218992650509, 570.2038467442617, 1711.022929227911, 935.7304487135261, -0.4480000212788582, 0.8160000387579203, 0.3840000182390213, 0.0, 0.0, 0.0, 0.0, 0.0, 1.6480853593632352E9, 0.0, 2022-03-23 20:29:19.363
40.0, 938.6213913792744, 571.2622384317219, 1712.5488084098324, 937.5592597918585, -0.4480000212788582, 0.8160000387579203, 0.3680000174790621, 0.0, 0.0, 0.0, 0.0, 0.0, 1.648085359363871E9, 0.0, 2022-03-23 20:29:19.363
40.0, 951.1313567310572, 564.7024539094418, 1708.8911862531677, 943.2177284248173, -0.4480000212788582, 0.8160000387579203, 0.3680000174790621, 0.0, 0.0, 0.0, 0.0, 0.0, 1.648085359363871E9, 0.0, 2022-03-23 20:29:19.363
41.0, 948.3413913641125, 556.0371057121083, 1702.6679927268997, 939.9640154633671, -0.4480000212788582, 0.7680000364780426, 0.3680000174790621, 0.0, 0.0, 0.0, 0.0, 0.0, 1.6480853593774288E9, 0.0, 2022-03-23 20:29:19.377
41.0, 945.947855392471, 569.0108186583966, 1704.2499704081565, 945.7496406948194, -0.4480000212788582, 0.7680000364780426, 0.3680000174790621, 0.0, 0.0, 0.0, 0.0, 0.0, 1.6480853593774288E9, 0.0, 2022-03-23 20:29:19.377
42.0, 954.8488172870129, 572.2233927203342, 1697.7238449854776, 940.8728111525998, -0.4640000220388174, 0.7680000364780426, 0.3680000174790621, 0.0, 0.0, 0.0, 0.0, 0.0, 1.6480853593931012E9, 0.0, 2022-03-23 20:29:19.393
42.0, 958.5513182431459, 568.1282022688538, 1699.5563959637657, 946.0787518909201, -0.4640000220388174, 0.7680000364780426, 0.3680000174790621, 0.0, 0.0, 0.0, 0.0, 0.0, 1.6480853593931012E9, 0.0, 2022-03-23 20:29:19.393
43.0, 942.256574136205, 568.4124346654862, 1708.7041912553832, 931.9643694581464, -0.4640000220388174, 0.7680000364780426, 0.3680000174790621, 0.0, 0.0, 0.0, 0.0, 0.0, 1.6480853593937807E9, 0.0, 2022-03-23 20:29:19.393
43.0, 937.8135729888454, 564.2985447142273, 1708.4461381584406, 928.9687095936388, -0.4640000220388174, 0.7680000364780426, 0.3680000174790621, 0.0, 0.0, 0.0, 0.0, 0.0, 1.6480853593937807E9, 0.0, 2022-03-23 20:29:19.393
44.0, 961.9172282032669, 562.4622538359836, 1702.3127022311091, 950.1552428426221, -0.4640000220388174, 0.7680000364780426, 0.3680000174790621, 0.0, 0.0, 0.0, 0.0, 0.0, 1.6480853594238365E9, 0.0, 2022-03-23 20:29:19.423
44.0, 943.7300947187468, 560.7381599564105, 1697.4882312882692, 944.9717415040359, -0.4640000220388174, 0.7680000364780426, 0.3680000174790621, 0.0, 0.0, 0.0, 0.0, 0.0, 1.6480853594238365E9, 0.0, 2022-03-23 20:29:19.423
45.0, 929.6456314856187, 547.828025309369, 1693.7707707323134, 931.3435460655019, -0.4640000220388174, 0.7680000364780426, 0.3680000174790621, 0.0, 0.0, 0.0, 0.0, 0.0, 1.6480853594245107E9, 0.0, 2022-03-23 20:29:19.424
45.0, 959.2880785344169, 548.6283638998866, 1699.8107091607526, 943.6141578201205, -0.4640000220388174, 0.7680000364780426, 0.3680000174790621, 0.0, 0.0, 0.0, 0.0, 0.0, 1.6480853594245107E9, 0.0, 2022-03-23 20:29:19.424
46.0, 960.5110258199275, 549.6942353872582, 1696.5083774998784, 940.0388134624809, -0.4640000220388174, 0.7680000364780426, 0.3680000174790621, 0.0, 0.0, 0.0, 0.0, 0.0, 1.6480853594252748E9, 0.0, 2022-03-23 20:29:19.425
46.0, 947.3129188762978, 551.1041776705533, 1690.6554340692237, 924.8585595423356, -0.4640000220388174, 0.7680000364780426, 0.3680000174790621, 0.0, 0.0, 0.0, 0.0, 0.0, 1.6480853594252748E9, 0.0, 2022-03-23 20:29:19.425
47.0, 933.718382537365, 550.094404682517, 1686.2086930219084, 932.4318569526076, -0.4640000220388174, 0.7680000364780426, 0.3680000174790621, 0.0, 0.0, 0.0, 0.0, 0.0, 1.6480853594373784E9, 0.0, 2022-03-23 20:29:19.437
47.0, 939.9602755634114, 552.2074481574818, 1693.0826291404665, 938.8831843761727, -0.4640000220388174, 0.7680000364780426, 0.3680000174790621, 0.0, 0.0, 0.0, 0.0, 0.0, 1.6480853594373784E9, 0.0, 2022-03-23 20:29:19.437
48.0, 931.5305410632864, 545.6140045356005, 1689.4025675840676, 928.2244695024565, -0.4640000220388174, 0.7680000364780426, 0.3680000174790621, 0.0, 0.0, 0.0, 0.0, 0.0, 1.6480853594531112E9, 0.0, 2022-03-23 20:29:19.453
48.0, 923.3177207605913, 544.7949664453045, 1679.7424059985206, 920.0976668987423, -0.4640000220388174, 0.7680000364780426, 0.3680000174790621, 0.0, 0.0, 0.0, 0.0, 0.0, 1.6480853594531112E9, 0.0, 2022-03-23 20:29:19.453
49.0, 947.8701639696956, 549.1594296935946, 1689.4549261834472, 949.2015683539212, -0.4640000220388174, 0.7680000364780426, 0.3680000174790621, 0.0, 0.0, 0.0, 0.0, 0.0, 1.6480853594538367E9, 0.0, 2022-03-23 20:29:19.453
49.0, 910.0896946173161, 530.7030234122649, 1675.4751801490784, 915.4489712538198, -0.4640000220388174, 0.7680000364780426, 0.3680000174790621, 0.0, 0.0, 0.0, 0.0, 0.0, 1.6480853594538367E9, 0.0, 2022-03-23 20:29:19.453
50.0, 889.5015453612432, 520.6052935319021, 1669.3080851221457, 922.5772205693647, -0.4640000220388174, 0.7680000364780426, 0.43200002051889896, 0.0, 0.0, 0.0, 0.0, 0.0, 1.6480853594673903E9, 0.0, 2022-03-23 20:29:19.467
50.0, 910.9536115070805, 524.1731580896303, 1671.3351108981296, 938.8046464771032, -0.4640000220388174, 0.7680000364780426, 0.43200002051889896, 0.0, 0.0, 0.0, 0.0, 0.0, 1.6480853594673903E9, 0.0, 2022-03-23 20:29:19.467
51.0, 914.5513952644542, 519.8498337408528, 1671.0807977011427, 937.263807695359, -0.4640000220388174, 0.7360000349581242, 0.43200002051889896, 0.0, 0.0, 0.0, 0.0, 0.0, 1.648085359482823E9, 0.0, 2022-03-23 20:29:19.482
51.0, 921.8890789775178, 526.2899414645508, 1673.0816441774368, 928.3890251005068, -0.4640000220388174, 0.7360000349581242, 0.43200002051889896, 0.0, 0.0, 0.0, 0.0, 0.0, 1.648085359482823E9, 0.0, 2022-03-23 20:29:19.482
52.0, 922.2256699735299, 513.1554128201678, 1663.709454888478, 935.6032921150327, -0.5440000258386135, 0.7360000349581242, 0.43200002051889896, 0.0, 0.0, 0.0, 0.0, 0.0, 1.6480853594981284E9, 0.0, 2022-03-23 20:29:19.498
52.0, 926.9117646180093, 513.9594913106412, 1666.6564960535616, 942.5595060326159, -0.5440000258386135, 0.7360000349581242, 0.43200002051889896, 0.0, 0.0, 0.0, 0.0, 0.0, 1.6480853594981284E9, 0.0, 2022-03-23 20:29:19.498
53.0, 904.9996907776222, 499.8301492780447, 1657.0225137677044, 925.5205218344927, -0.5440000258386135, 0.7360000349581242, 0.43200002051889896, 0.0, 0.0, 0.0, 0.0, 0.0, 1.648085359498904E9, 0.0, 2022-03-23 20:29:19.498
53.0, 900.3248158330098, 497.197259709239, 1646.3263998944312, 914.6523725632578, -0.5440000258386135, 0.7360000349581242, 0.43200002051889896, 0.0, 0.0, 0.0, 0.0, 0.0, 1.648085359498904E9, 0.0, 2022-03-23 20:29:19.498
54.0, 904.8463548794389, 491.5350511763245, 1636.3333872128278, 907.8681940436363, -0.5440000258386135, 0.7360000349581242, 0.43200002051889896, 0.0, 0.0, 0.0, 0.0, 0.0, 1.6480853595131285E9, 0.0, 2022-03-23 20:29:19.513
54.0, 890.5337577490136, 480.4948665071279, 1629.4781505940482, 894.1801602058113, -0.5440000258386135, 0.7360000349581242, 0.43200002051889896, 0.0, 0.0, 0.0, 0.0, 0.0, 1.6480853595131285E9, 0.0, 2022-03-23 20:29:19.513
55.0, 894.5017916020006, 482.7949049798772, 1642.156411443837, 904.603261382319, -0.5440000258386135, 0.7360000349581242, 0.43200002051889896, 0.0, 0.0, 0.0, 0.0, 0.0, 1.6480853595138783E9, 0.0, 2022-03-23 20:29:19.513
55.0, 910.5833614114672, 482.4096952844411, 1635.716303720139, 906.4358123606071, -0.5440000258386135, 0.7360000349581242, 0.43200002051889896, 0.0, 0.0, 0.0, 0.0, 0.0, 1.6480853595138783E9, 0.0, 2022-03-23 20:29:19.513
56.0, 893.0207912195474, 480.0872174119577, 1634.556934733875, 886.6554814949632, -0.5440000258386135, 0.7360000349581242, 0.43200002051889896, 0.0, 0.0, 0.0, 0.0, 0.0, 1.6480853595273468E9, 0.0, 2022-03-23 20:29:19.527
56.0, 879.2990982821211, 480.79779840353876, 1629.5753879928961, 878.1172898961231, -0.5440000258386135, 0.7360000349581242, 0.43200002051889896, 0.0, 0.0, 0.0, 0.0, 0.0, 1.6480853595273468E9, 0.0, 2022-03-23 20:29:19.527
57.0, 871.665962472558, 465.98031477909535, 1608.7591048395261, 868.4870475102216, -0.5440000258386135, 0.7360000349581242, 0.43200002051889896, 0.0, 0.0, 0.0, 0.0, 0.0, 1.6480853595431013E9, 0.0, 2022-03-23 20:29:19.543
57.0, 867.5221533216536, 460.08997234888375, 1613.7443914804608, 851.7921341080219, -0.5440000258386135, 0.7360000349581242, 0.43200002051889896, 0.0, 0.0, 0.0, 0.0, 0.0, 1.6480853595431013E9, 0.0, 2022-03-23 20:29:19.543
58.0, 855.6778901619837, 463.53816010802984, 1624.9304322479293, 843.7176901036873, -0.5440000258386135, 0.7360000349581242, 0.43200002051889896, 0.0, 0.0, 0.0, 0.0, 0.0, 1.6480853595438156E9, 0.0, 2022-03-23 20:29:19.543
58.0, 847.3940117601305, 458.8034467641264, 1618.542683123611, 841.9786366242915, -0.5440000258386135, 0.7360000349581242, 0.43200002051889896, 0.0, 0.0, 0.0, 0.0, 0.0, 1.6480853595438156E9, 0.0, 2022-03-23 20:29:19.543
59.0, 848.9049313422292, 453.6910035246983, 1613.404060584493, 839.7720956504345, -0.5440000258386135, 0.7360000349581242, 0.43200002051889896, 0.0, 0.0, 0.0, 0.0, 0.0, 1.648085359557352E9, 0.0, 2022-03-23 20:29:19.557
59.0, 831.5330960480496, 441.89909896440804, 1601.6345954239368, 823.9410991379991, -0.5440000258386135, 0.7360000349581242, 0.43200002051889896, 0.0, 0.0, 0.0, 0.0, 0.0, 1.648085359557352E9, 0.0, 2022-03-23 20:29:19.557
60.0, 817.1980595178902, 448.19709048978984, 1586.5029602032155, 811.3937347866595, -0.5440000258386135, 0.7360000349581242, 0.4640000220388174, 0.0, 0.0, 0.0, 0.0, 0.0, 1.648085359573158E9, 0.0, 2022-03-23 20:29:19.573
60.0, 842.3862857194617, 450.56444716174155, 1585.5044069150463, 820.2236385820433, -0.5440000258386135, 0.7360000349581242, 0.4640000220388174, 0.0, 0.0, 0.0, 0.0, 0.0, 1.648085359573158E9, 0.0, 2022-03-23 20:29:19.573
61.0, 819.3559817923233, 440.1039469856769, 1582.505007150583, 815.3879479393363, -0.5440000258386135, 0.800000037997961, 0.4640000220388174, 0.0, 0.0, 0.0, 0.0, 0.0, 1.6480853595738714E9, 0.0, 2022-03-23 20:29:19.573
61.0, 818.7912568990141, 444.8835391290486, 1578.5182737978175, 810.1221688017249, -0.5440000258386135, 0.800000037997961, 0.4640000220388174, 0.0, 0.0, 0.0, 0.0, 0.0, 1.6480853595738714E9, 0.0, 2022-03-23 20:29:19.573
62.0, 825.5118571193889, 447.78944139461964, 1576.3977505229414, 822.5087174549699, -0.576000027358532, 0.800000037997961, 0.4640000220388174, 0.0, 0.0, 0.0, 0.0, 0.0, 1.648085359587344E9, 0.0, 2022-03-23 20:29:19.587
62.0, 824.2851699339226, 432.23145757894963, 1565.933510446921, 817.7814839109778, -0.576000027358532, 0.800000037997961, 0.4640000220388174, 0.0, 0.0, 0.0, 0.0, 0.0, 1.648085359587344E9, 0.0, 2022-03-23 20:29:19.587
63.0, 816.3004835285246, 434.5389758516103, 1568.3607055181637, 819.9057470858097, -0.576000027358532, 0.800000037997961, 0.4640000220388174, 0.0, 0.0, 0.0, 0.0, 0.0, 1.6480853596031244E9, 0.0, 2022-03-23 20:29:19.603
63.0, 809.071256914176, 426.0905418517068, 1548.6065539522097, 812.6503411717713, -0.576000027358532, 0.800000037997961, 0.4640000220388174, 0.0, 0.0, 0.0, 0.0, 0.0, 1.6480853596031244E9, 0.0, 2022-03-23 20:29:19.603
64.0, 812.9270937684923, 408.58033025916666, 1529.4657459789887, 799.9047621227801, -0.576000027358532, 0.800000037997961, 0.4640000220388174, 0.0, 0.0, 0.0, 0.0, 0.0, 1.6480853596038952E9, 0.0, 2022-03-23 20:29:19.603
64.0, 801.9018686991185, 393.0672252429649, 1512.8119714763016, 799.9945197217166, -0.576000027358532, 0.800000037997961, 0.4640000220388174, 0.0, 0.0, 0.0, 0.0, 0.0, 1.6480853596038952E9, 0.0, 2022-03-23 20:29:19.603
65.0, 788.6738425558433, 375.67295054905117, 1499.673702931963, 781.2651007436216, -0.576000027358532, 0.800000037997961, 0.4640000220388174, 0.0, 0.0, 0.0, 0.0, 0.0, 1.6480853596173637E9, 0.0, 2022-03-23 20:29:19.617
65.0, 770.6624843692407, 339.3884411789477, 1474.6687318282202, 768.078213499859, -0.576000027358532, 0.800000037997961, 0.4640000220388174, 0.0, 0.0, 0.0, 0.0, 0.0, 1.6480853596173637E9, 0.0, 2022-03-23 20:29:19.617
66.0, 720.8058780599385, 282.33252745494246, 1410.6491243867204, 722.6047699386254, -0.576000027358532, 0.800000037997961, 0.4640000220388174, 0.0, 0.0, 0.0, 0.0, 0.0, 1.6480853596331725E9, 0.0, 2022-03-23 20:29:19.633
66.0, 720.0878172684461, 247.0016925735399, 1378.5196438673884, 716.5124729108065, -0.576000027358532, 0.800000037997961, 0.4640000220388174, 0.0, 0.0, 0.0, 0.0, 0.0, 1.6480853596331725E9, 0.0, 2022-03-23 20:29:19.633
67.0, 697.3529654378071, 222.4006306650117, 1361.4320409698412, 697.764354432933, -0.576000027358532, 0.800000037997961, 0.4640000220388174, 0.0, 0.0, 0.0, 0.0, 0.0, 1.6480853596338325E9, 0.0, 2022-03-23 20:29:19.633
67.0, 682.89451220911, 218.05112701654434, 1340.978528112173, 676.4282251857221, -0.576000027358532, 0.800000037997961, 0.4640000220388174, 0.0, 0.0, 0.0, 0.0, 0.0, 1.6480853596338325E9, 0.0, 2022-03-23 20:29:19.633
68.0, 676.7685560816899, 222.59884536266327, 1341.2964196084067, 674.2403837116435, -0.576000027358532, 0.800000037997961, 0.4640000220388174, 0.0, 0.0, 0.0, 0.0, 0.0, 1.648085359647402E9, 0.0, 2022-03-23 20:29:19.647
68.0, 683.32834060397, 214.24016896169633, 1347.022206440568, 671.0278096497059, -0.576000027358532, 0.800000037997961, 0.4640000220388174, 0.0, 0.0, 0.0, 0.0, 0.0, 1.648085359647402E9, 0.0, 2022-03-23 20:29:19.647
69.0, 677.2884021755308, 211.30060759652406, 1344.983960964717, 667.5459627909586, -0.576000027358532, 0.800000037997961, 0.4640000220388174, 0.0, 0.0, 0.0, 0.0, 0.0, 1.6480853596632204E9, 0.0, 2022-03-23 20:29:19.663
69.0, 746.5924882544205, 301.2452015308663, 1437.8344571646303, 738.5591831495985, -0.576000027358532, 0.800000037997961, 0.4640000220388174, 0.0, 0.0, 0.0, 0.0, 0.0, 1.6480853596632204E9, 0.0, 2022-03-23 20:29:19.663
70.0, 823.8850006386638, 383.7810536529869, 1518.620036107488, 806.0194985503331, -0.576000027358532, 0.800000037997961, 0.43200002051889896, 0.0, 0.0, 0.0, 0.0, 0.0, 1.6480853596638372E9, 0.0, 2022-03-23 20:29:19.663
70.0, 852.7532883966342, 412.69422021042556, 1549.6200668402016, 838.0966204702854, -0.576000027358532, 0.800000037997961, 0.43200002051889896, 0.0, 0.0, 0.0, 0.0, 0.0, 1.6480853596638372E9, 0.0, 2022-03-23 20:29:19.663
71.0, 851.6500179097056, 429.56116901058704, 1556.8193742549047, 838.3023149678484, -0.576000027358532, 0.8960000425577164, 0.43200002051889896, 0.0, 0.0, 0.0, 0.0, 0.0, 1.6480853596774411E9, 0.0, 2022-03-23 20:29:19.677
