%OpenBCI Raw EEG Data
%Number of channels = 4
%Sample Rate = 200 Hz
%Board = OpenBCI_GUI$BoardGanglionBLE
Sample Index, EXG Channel 0, EXG Channel 1, EXG Channel 2, EXG Channel 3, Accel Channel 0, Accel Channel 1, Accel Channel 2, Other, Other, Other, Other, Other, Timestamp, Other, Timestamp (Formatted)
2.0, -6.694420920684934, 11.70588686130941, 1.2977452846243978, -11.515151963569224, 0.3200000151991844, 0.0, 0.0, 0.0, 0.0, 0.0, 0.0, 0.0, 1.6506678899737136E9, 0.0, 2022-04-22 17:51:29.973
2.0, 1.9784070765599608, 8.07444400433451, 9.835936883464456, 4.663655244745314, 0.3200000151991844, 0.0, 0.0, 0.0, 0.0, 0.0, 0.0, 0.0, 1.6506678899737136E9, 0.0, 2022-04-22 17:51:29.973
3.0, -13.616975738666952, -3.0293189641088247, 4.3682031482458115, -33.199091906659305, 0.3200000151991844, 0.0, 0.0, 0.0, 0.0, 0.0, 0.0, 0.0, 1.6506678899882224E9, 0.0, 2022-04-22 17:51:29.988
3.0, -10.823270471766591, -4.330804148688912, -0.605863792821765, -11.006525569595397, 0.3200000151991844, 0.0, 0.0, 0.0, 0.0, 0.0, 0.0, 0.0, 1.6506678899882224E9, 0.0, 2022-04-22 17:51:29.988
4.0, -0.8639168897643685, 15.509365116246045, 8.351196601055562, -14.331296630203724, 0.3200000151991844, 0.0, 0.0, 0.0, 0.0, 0.0, 0.0, 0.0, 1.6506678899889405E9, 0.0, 2022-04-22 17:51:29.988
4.0, -3.938114653341472, 7.917368206195533, 9.817237383686006, -6.915075018070638, 0.3200000151991844, 0.0, 0.0, 0.0, 0.0, 0.0, 0.0, 0.0, 1.6506678899889405E9, 0.0, 2022-04-22 17:51:29.988
5.0, -14.421054229140282, -4.211127350106835, 9.005679093301296, -8.45591379981488, 0.3200000151991844, 0.0, 0.0, 0.0, 0.0, 0.0, 0.0, 0.0, 1.6506678900025706E9, 0.0, 2022-04-22 17:51:30.002
5.0, -16.264824907295406, -8.530711798928678, 1.4996998822316527, -1.649295880459249, 0.3200000151991844, 0.0, 0.0, 0.0, 0.0, 0.0, 0.0, 0.0, 1.6506678900025706E9, 0.0, 2022-04-22 17:51:30.002
6.0, -5.62106963340193, 5.258299337700009, 3.055498263798654, -4.001692952588201, 0.3200000151991844, 0.0, 0.0, 0.0, 0.0, 0.0, 0.0, 0.0, 1.6506678900182383E9, 0.0, 2022-04-22 17:51:30.018
6.0, -7.25914581399411, -0.564724893309176, 1.4623008826747537, -0.6395228924229741, 0.3200000151991844, 0.0, 0.0, 0.0, 0.0, 0.0, 0.0, 0.0, 1.6506678900182383E9, 0.0, 2022-04-22 17:51:30.018
7.0, -12.233212755061686, -1.7128741797059774, -0.34033089596778154, -10.426841076463461, 0.3200000151991844, 0.0, 0.0, 0.0, 0.0, 0.0, 0.0, 0.0, 1.6506678900189097E9, 0.0, 2022-04-22 17:51:30.018
7.0, -14.88480182364583, -1.406202383339405, 3.3509503602981567, -27.189072677865624, 0.3200000151991844, 0.0, 0.0, 0.0, 0.0, 0.0, 0.0, 0.0, 1.6506678900189097E9, 0.0, 2022-04-22 17:51:30.018
8.0, -10.45302037615329, 3.096637163311243, 5.415375135838985, -11.814343960024416, 0.3200000151991844, 0.0, 0.0, 0.0, 0.0, 0.0, 0.0, 0.0, 1.6506678900326338E9, 0.0, 2022-04-22 17:51:30.032
8.0, -20.95465945173055, -8.384855700656772, -3.904455553740263, -19.73545206617564, 0.3200000151991844, 0.0, 0.0, 0.0, 0.0, 0.0, 0.0, 0.0, 1.6506678900326338E9, 0.0, 2022-04-22 17:51:30.032
9.0, -12.09857635665685, 9.27121199015528, 11.631088862195611, -2.5057329703122377, 0.3200000151991844, 0.0, 0.0, 0.0, 0.0, 0.0, 0.0, 0.0, 1.650667890048264E9, 0.0, 2022-04-22 17:51:30.048
9.0, -18.15347438491881, 6.881415918469429, 6.563524422235787, 0.6096036927774549, 0.3200000151991844, 0.0, 0.0, 0.0, 0.0, 0.0, 0.0, 0.0, 1.650667890048264E9, 0.0, 2022-04-22 17:51:30.048
10.0, -21.511904545128345, -16.623855303041637, -5.8940823301672935, -20.042123862542212, 0.3200000151991844, 0.0, 0.9280000440776348, 0.0, 0.0, 0.0, 0.0, 0.0, 1.6506678900489805E9, 0.0, 2022-04-22 17:51:30.048
10.0, -19.204386272467673, -11.66848786175251, -6.881415918469429, -14.49585222825408, 0.3200000151991844, 0.0, 0.9280000440776348, 0.0, 0.0, 0.0, 0.0, 0.0, 1.6506678900489805E9, 0.0, 2022-04-22 17:51:30.048
11.0, -24.12609461415559, -13.542177739553154, -12.584763350896537, -15.116675620898604, 0.3200000151991844, -0.20800000987946987, 0.9280000440776348, 0.0, 0.0, 0.0, 0.0, 0.0, 1.6506678900625477E9, 0.0, 2022-04-22 17:51:30.062
11.0, -18.05623698607087, -0.28049249667674303, 4.00917275249958, -9.25625239033252, 0.3200000151991844, -0.20800000987946987, 0.9280000440776348, 0.0, 0.0, 0.0, 0.0, 0.0, 1.6506678900625477E9, 0.0, 2022-04-22 17:51:30.062
12.0, -15.771158113144338, -1.3388841841369867, -5.2134205382317305, -11.488972663879395, 0.3200000151991844, -0.20800000987946987, 0.9280000440776348, 0.0, 0.0, 0.0, 0.0, 0.0, 1.6506678900782897E9, 0.0, 2022-04-22 17:51:30.078
12.0, -19.507318168878555, -5.8155444310978055, -2.5206925701349974, -24.645940707996488, 0.3200000151991844, -0.20800000987946987, 0.9280000440776348, 0.0, 0.0, 0.0, 0.0, 0.0, 1.6506678900782897E9, 0.0, 2022-04-22 17:51:30.078
13.0, -22.338422435335815, -8.194120802916586, -7.322724113240838, -28.303562864661217, 0.3200000151991844, -0.20800000987946987, 0.9280000440776348, 0.0, 0.0, 0.0, 0.0, 0.0, 1.6506678900789924E9, 0.0, 2022-04-22 17:51:30.078
13.0, -26.867441281676292, -5.389195836149156, -7.610696409828961, -37.608433954417706, 0.3200000151991844, -0.20800000987946987, 0.9280000440776348, 0.0, 0.0, 0.0, 0.0, 0.0, 1.6506678900789924E9, 0.0, 2022-04-22 17:51:30.078
14.0, -12.659561350010335, 9.738699484616518, 4.921708341687918, 5.026425540447235, 0.3200000151991844, -0.20800000987946987, 0.9280000440776348, 0.0, 0.0, 0.0, 0.0, 0.0, 1.6506678900925672E9, 0.0, 2022-04-22 17:51:30.092
14.0, -15.976852610707283, 2.9657406648620963, 6.170834926888347, -14.316337030380964, 0.3200000151991844, -0.20800000987946987, 0.9280000440776348, 0.0, 0.0, 0.0, 0.0, 0.0, 1.6506678900925672E9, 0.0, 2022-04-22 17:51:30.092
15.0, -16.94922659918666, -7.532158510759473, 1.5146594820544124, -16.90808769967407, 0.3200000151991844, -0.20800000987946987, 0.9280000440776348, 0.0, 0.0, 0.0, 0.0, 0.0, 1.6506678901081722E9, 0.0, 2022-04-22 17:51:30.108
15.0, -17.28955749515444, 5.329357436858118, 3.0854174634441733, -17.562570191919804, 0.3200000151991844, -0.20800000987946987, 0.9280000440776348, 0.0, 0.0, 0.0, 0.0, 0.0, 1.6506678901081722E9, 0.0, 2022-04-22 17:51:30.108
16.0, -27.570542473345995, -5.146102339029312, 5.62106963340193, -9.203893790952861, 0.3200000151991844, -0.20800000987946987, 0.9280000440776348, 0.0, 0.0, 0.0, 0.0, 0.0, 1.65066789010893E9, 0.0, 2022-04-22 17:51:30.108
16.0, -28.243724465370178, -19.986025363206863, -6.795398219488561, -29.76960364729166, 0.3200000151991844, -0.20800000987946987, 0.9280000440776348, 0.0, 0.0, 0.0, 0.0, 0.0, 1.65066789010893E9, 0.0, 2022-04-22 17:51:30.108
17.0, -34.28366289380938, -19.7130126664415, -3.466887258924544, -35.07652168441564, 0.3200000151991844, -0.20800000987946987, 0.9280000440776348, 0.0, 0.0, 0.0, 0.0, 0.0, 1.650667890122533E9, 0.0, 2022-04-22 17:51:30.122
17.0, -22.96298572793603, -11.881662159226835, -1.3987225834280252, -11.055144269019365, 0.3200000151991844, -0.20800000987946987, 0.9280000440776348, 0.0, 0.0, 0.0, 0.0, 0.0, 1.650667890122533E9, 0.0, 2022-04-22 17:51:30.122
18.0, -31.04864943213761, -11.111242768354714, -3.335990760475397, -43.40153898578137, 0.3200000151991844, -0.20800000987946987, 0.9280000440776348, 0.0, 0.0, 0.0, 0.0, 0.0, 1.6506678901382556E9, 0.0, 2022-04-22 17:51:30.138
18.0, -34.14528659544885, -8.88974219467491, -4.659915344789624, -31.650773325003684, 0.3200000151991844, -0.20800000987946987, 0.9280000440776348, 0.0, 0.0, 0.0, 0.0, 0.0, 1.6506678901382556E9, 0.0, 2022-04-22 17:51:30.138
19.0, -26.1979991896078, -11.077583668753505, -4.371943048201501, -11.23465946689248, 0.3200000151991844, -0.20800000987946987, 0.9280000440776348, 0.0, 0.0, 0.0, 0.0, 0.0, 1.6506678901390784E9, 0.0, 2022-04-22 17:51:30.139
19.0, -35.641246577724814, -16.171327408403158, -6.140915727242827, -19.29414387140423, 0.3200000151991844, -0.20800000987946987, 0.9280000440776348, 0.0, 0.0, 0.0, 0.0, 0.0, 1.6506678901390784E9, 0.0, 2022-04-22 17:51:30.139
20.0, -37.178345459513366, -25.132127702236176, -5.363016536459327, -19.77659096568823, 0.3200000151991844, -0.20800000987946987, 0.9280000440776348, 0.0, 0.0, 0.0, 0.0, 0.0, 1.6506678901525578E9, 0.0, 2022-04-22 17:51:30.152
20.0, -18.96129277534783, -3.941854553297162, -1.567018081434071, -21.070596350356936, 0.3200000151991844, -0.20800000987946987, 0.9280000440776348, 0.0, 0.0, 0.0, 0.0, 0.0, 1.6506678901525578E9, 0.0, 2022-04-22 17:51:30.152
21.0, -44.21309727616608, -40.67889181803912, -17.820623288862407, -31.243124229833484, 0.3200000151991844, -0.2240000106394291, 0.9280000440776348, 0.0, 0.0, 0.0, 0.0, 0.0, 1.6506678901682029E9, 0.0, 2022-04-22 17:51:30.168
21.0, -48.42796452622861, -42.59372059535235, -23.247218124568462, -46.932004543952644, 0.3200000151991844, -0.2240000106394291, 0.9280000440776348, 0.0, 0.0, 0.0, 0.0, 0.0, 1.6506678901682029E9, 0.0, 2022-04-22 17:51:30.168
22.0, -31.168326230719686, -29.919199645519257, -9.428287788294256, -26.803862982429564, 0.3200000151991844, -0.2240000106394291, 0.9280000440776348, 0.0, 0.0, 0.0, 0.0, 0.0, 1.650667890168927E9, 0.0, 2022-04-22 17:51:30.168
22.0, -23.7147056190297, -22.734851830638945, -16.04791070986539, -27.129234278574586, 0.3200000151991844, -0.2240000106394291, 0.9280000440776348, 0.0, 0.0, 0.0, 0.0, 0.0, 1.650667890168927E9, 0.0, 2022-04-22 17:51:30.168
23.0, -24.630981108173728, -22.312243135645986, -13.156968044117093, -36.063855272717774, 0.3200000151991844, -0.2240000106394291, 0.9280000440776348, 0.0, 0.0, 0.0, 0.0, 0.0, 1.6506678901824856E9, 0.0, 2022-04-22 17:51:30.182
23.0, -30.59238163754344, -36.314428569749, -19.458699469454587, -38.14323964808136, 0.3200000151991844, -0.2240000106394291, 0.9280000440776348, 0.0, 0.0, 0.0, 0.0, 0.0, 1.6506678901824856E9, 0.0, 2022-04-22 17:51:30.182
24.0, -20.446033057756722, -23.28835702408105, -12.203293555416167, -20.51335125695914, 0.3200000151991844, -0.2240000106394291, 0.9280000440776348, 0.0, 0.0, 0.0, 0.0, 0.0, 1.6506678902145915E9, 0.0, 2022-04-22 17:51:30.214
24.0, -5.7370065320283175, -21.39970754645765, -3.021839164197445, -8.317537501454353, 0.3200000151991844, -0.2240000106394291, 0.9280000440776348, 0.0, 0.0, 0.0, 0.0, 0.0, 1.6506678902145915E9, 0.0, 2022-04-22 17:51:30.214
25.0, -8.126802603714168, -23.890480916947126, -2.1429626746103168, -8.272658701986074, 0.3200000151991844, -0.2240000106394291, 0.9280000440776348, 0.0, 0.0, 0.0, 0.0, 0.0, 1.6506678902153463E9, 0.0, 2022-04-22 17:51:30.215
25.0, -6.290511725470424, -30.809295834973454, -10.789611372165382, -29.515290450304747, 0.3200000151991844, -0.2240000106394291, 0.9280000440776348, 0.0, 0.0, 0.0, 0.0, 0.0, 1.6506678902153463E9, 0.0, 2022-04-22 17:51:30.215
26.0, 4.861869942396879, -21.72133894264698, -3.537945358082652, -20.17302036099136, 0.3200000151991844, -0.2240000106394291, 0.9280000440776348, 0.0, 0.0, 0.0, 0.0, 0.0, 1.650667890216048E9, 0.0, 2022-04-22 17:51:30.216
26.0, 6.245632926002145, -6.799138119444251, 0.6769218919798732, -22.13646783772856, 0.3200000151991844, -0.2240000106394291, 0.9280000440776348, 0.0, 0.0, 0.0, 0.0, 0.0, 1.650667890216048E9, 0.0, 2022-04-22 17:51:30.216
27.0, 17.102562497369945, 0.11593689862638712, 12.341669853776693, -12.607202750630677, 0.3200000151991844, -0.2240000106394291, 0.9280000440776348, 0.0, 0.0, 0.0, 0.0, 0.0, 1.650667890216788E9, 0.0, 2022-04-22 17:51:30.216
27.0, 17.985178886912763, -9.024378593079746, 4.9703270411118865, -21.036937250755727, 0.3200000151991844, -0.2240000106394291, 0.9280000440776348, 0.0, 0.0, 0.0, 0.0, 0.0, 1.650667890216788E9, 0.0, 2022-04-22 17:51:30.216
28.0, 23.198599425144494, -8.332497101277113, 6.9823932172730565, -18.0450172862038, 0.3200000151991844, -0.2240000106394291, 0.9280000440776348, 0.0, 0.0, 0.0, 0.0, 0.0, 1.6506678902275488E9, 0.0, 2022-04-22 17:51:30.227
28.0, 16.08904960937798, -17.29329739511013, 4.297145049087703, -31.38898032810539, 0.3200000151991844, -0.2240000106394291, 0.9280000440776348, 0.0, 0.0, 0.0, 0.0, 0.0, 1.6506678902275488E9, 0.0, 2022-04-22 17:51:30.227
29.0, 27.76501727104187, -3.8109580548480153, 2.969480564817786, 1.8849095776677132, 0.3200000151991844, -0.2240000106394291, 0.9280000440776348, 0.0, 0.0, 0.0, 0.0, 0.0, 1.650667890242577E9, 0.0, 2022-04-22 17:51:30.242
29.0, 24.343008811585605, -8.302577901631594, 1.4772604824975133, -3.1976144621148705, 0.3200000151991844, -0.2240000106394291, 0.9280000440776348, 0.0, 0.0, 0.0, 0.0, 0.0, 1.650667890242577E9, 0.0, 2022-04-22 17:51:30.242
30.0, 26.029703691601753, -13.30656404234469, 5.060084640048444, -4.7272335439920425, 0.3200000151991844, -0.2240000106394291, 0.944000044837594, 0.0, 0.0, 0.0, 0.0, 0.0, 1.6506678902582192E9, 0.0, 2022-04-22 17:51:30.258
30.0, 22.56281643267721, -20.85742205288261, 1.3613235838711262, -1.6156367808580399, 0.3200000151991844, -0.2240000106394291, 0.944000044837594, 0.0, 0.0, 0.0, 0.0, 0.0, 1.6506678902582192E9, 0.0, 2022-04-22 17:51:30.258
31.0, 11.28701806627214, -35.53278947900981, -1.4959599822759628, -15.124155420809984, 0.3200000151991844, -0.2240000106394291, 0.944000044837594, 0.0, 0.0, 0.0, 0.0, 0.0, 1.6506678902589316E9, 0.0, 2022-04-22 17:51:30.258
31.0, 2.939561365172267, -51.22540969308466, -4.42056174762547, -31.00377063266933, 0.3200000151991844, -0.2240000106394291, 0.944000044837594, 0.0, 0.0, 0.0, 0.0, 0.0, 1.6506678902589316E9, 0.0, 2022-04-22 17:51:30.258
32.0, 0.029919199645519257, -53.19259706977755, -3.9306348534300923, -34.10040779598057, 0.3200000151991844, -0.2240000106394291, 0.944000044837594, 0.0, 0.0, 0.0, 0.0, 0.0, 1.6506678902725284E9, 0.0, 2022-04-22 17:51:30.272
32.0, 4.615036545321345, -48.891712120734155, -3.1639553625136614, -20.46847245749086, 0.3200000151991844, -0.2240000106394291, 0.944000044837594, 0.0, 0.0, 0.0, 0.0, 0.0, 1.6506678902725284E9, 0.0, 2022-04-22 17:51:30.272
33.0, -1.7502731792628765, -54.520261554047465, -11.507672163657844, -24.90399380493909, 0.3200000151991844, -0.2240000106394291, 0.944000044837594, 0.0, 0.0, 0.0, 0.0, 0.0, 1.6506678902882428E9, 0.0, 2022-04-22 17:51:30.288
33.0, -0.5535051934421062, -53.85081946197897, -16.9342669993639, -35.13262018375099, 0.3200000151991844, -0.2240000106394291, 0.944000044837594, 0.0, 0.0, 0.0, 0.0, 0.0, 1.6506678902882428E9, 0.0, 2022-04-22 17:51:30.288
34.0, 5.119923039339483, -38.835121139883995, -5.434074635617435, -23.39307422284037, 0.3200000151991844, -0.2240000106394291, 0.944000044837594, 0.0, 0.0, 0.0, 0.0, 0.0, 1.6506678902890248E9, 0.0, 2022-04-22 17:51:30.289
34.0, 4.573897645808756, -41.221177311614156, 0.1533358981832862, -13.411281241104007, 0.3200000151991844, -0.2240000106394291, 0.944000044837594, 0.0, 0.0, 0.0, 0.0, 0.0, 1.6506678902890248E9, 0.0, 2022-04-22 17:51:30.289
35.0, -7.210527114570141, -56.491188830696046, -3.7959984550252557, -25.936206192709506, 0.3200000151991844, -0.2240000106394291, 0.944000044837594, 0.0, 0.0, 0.0, 0.0, 0.0, 1.6506678903024366E9, 0.0, 2022-04-22 17:51:30.302
35.0, -6.3391304248943925, -56.898837925866246, -10.673674473538995, -10.662454773671925, 0.3200000151991844, -0.2240000106394291, 0.944000044837594, 0.0, 0.0, 0.0, 0.0, 0.0, 1.6506678903024366E9, 0.0, 2022-04-22 17:51:30.302
36.0, 8.287618301808834, -32.761523611843586, -1.810111578553915, -14.701546725817025, 0.3200000151991844, -0.2240000106394291, 0.944000044837594, 0.0, 0.0, 0.0, 0.0, 0.0, 1.650667890318206E9, 0.0, 2022-04-22 17:51:30.318
36.0, 1.847510578110814, -40.099207324907184, -4.981546740978956, -37.630873354151845, 0.3200000151991844, -0.2240000106394291, 0.944000044837594, 0.0, 0.0, 0.0, 0.0, 0.0, 1.650667890318206E9, 0.0, 2022-04-22 17:51:30.318
37.0, 6.526125422678888, -43.88398608006537, -5.8566833306103945, -13.852589435875416, 0.3200000151991844, -0.2240000106394291, 0.944000044837594, 0.0, 0.0, 0.0, 0.0, 0.0, 1.650667890318988E9, 0.0, 2022-04-22 17:51:30.318
37.0, -7.25914581399411, -49.46391681395471, -13.026071545667946, -22.323462835513055, 0.3200000151991844, -0.2240000106394291, 0.944000044837594, 0.0, 0.0, 0.0, 0.0, 0.0, 1.650667890318988E9, 0.0, 2022-04-22 17:51:30.318
38.0, -3.6763216564431787, -42.73957669362426, 0.8900961894541979, -23.826902617700398, 0.3200000151991844, -0.2240000106394291, 0.944000044837594, 0.0, 0.0, 0.0, 0.0, 0.0, 1.6506678903324823E9, 0.0, 2022-04-22 17:51:30.332
38.0, -1.0621315874159336, -51.62183908838779, -5.497652934864163, -18.381608282215893, 0.3200000151991844, -0.2240000106394291, 0.944000044837594, 0.0, 0.0, 0.0, 0.0, 0.0, 1.6506678903324823E9, 0.0, 2022-04-22 17:51:30.332
39.0, -3.175175062380731, -45.00221616681665, -7.954767205752432, -17.603709091432393, 0.3200000151991844, -0.2240000106394291, 0.944000044837594, 0.0, 0.0, 0.0, 0.0, 0.0, 1.6506678903482172E9, 0.0, 2022-04-22 17:51:30.348
39.0, 1.690434779971838, -33.88723349850625, -2.6029703691601753, -29.676106148399413, 0.3200000151991844, -0.2240000106394291, 0.944000044837594, 0.0, 0.0, 0.0, 0.0, 0.0, 1.6506678903482172E9, 0.0, 2022-04-22 17:51:30.348
40.0, -2.621669868938625, -34.54171599075198, -13.789011136628687, -18.751858377829194, 0.3200000151991844, -0.2240000106394291, 0.9280000440776348, 0.0, 0.0, 0.0, 0.0, 0.0, 1.6506678903489585E9, 0.0, 2022-04-22 17:51:30.348
40.0, -3.945594453252852, -42.485263496637344, -13.493559040129185, -4.050311652012169, 0.3200000151991844, -0.2240000106394291, 0.9280000440776348, 0.0, 0.0, 0.0, 0.0, 0.0, 1.6506678903489585E9, 0.0, 2022-04-22 17:51:30.348
41.0, -12.225732955150306, -35.40189298056066, -3.9942131526768208, -19.71675256639719, 0.3200000151991844, -0.2240000106394291, 0.9280000440776348, 0.0, 0.0, 0.0, 0.0, 0.0, 1.6506678903624313E9, 0.0, 2022-04-22 17:51:30.362
41.0, -9.028118493035436, -38.786502440460026, -8.0781839042902, -27.847295070067048, 0.3200000151991844, -0.2240000106394291, 0.9280000440776348, 0.0, 0.0, 0.0, 0.0, 0.0, 1.6506678903624313E9, 0.0, 2022-04-22 17:51:30.362
42.0, -12.420207752846181, -40.798568616621196, -6.85897651873529, -17.985178886912763, 0.3200000151991844, -0.2240000106394291, 0.9280000440776348, 0.0, 0.0, 0.0, 0.0, 0.0, 1.6506678903782074E9, 0.0, 2022-04-22 17:51:30.378
42.0, -8.179161203093827, -41.10150051303208, -11.017745269462466, -20.09074256196618, 0.3200000151991844, -0.2240000106394291, 0.9280000440776348, 0.0, 0.0, 0.0, 0.0, 0.0, 1.6506678903782074E9, 0.0, 2022-04-22 17:51:30.378
43.0, -17.899161187931895, -51.57322038896382, -24.48138510994613, -25.72677179519087, 0.3200000151991844, -0.2240000106394291, 0.9280000440776348, 0.0, 0.0, 0.0, 0.0, 0.0, 1.6506678903790052E9, 0.0, 2022-04-22 17:51:30.379
43.0, -12.637121950276196, -36.819315063767135, -7.479799911379814, -28.771050359122455, 0.3200000151991844, -0.2240000106394291, 0.9280000440776348, 0.0, 0.0, 0.0, 0.0, 0.0, 1.6506678903790052E9, 0.0, 2022-04-22 17:51:30.379
44.0, -5.112443239428103, -28.883247357793152, -1.3875028835609555, -13.527218139730394, 0.3200000151991844, -0.2240000106394291, 0.9280000440776348, 0.0, 0.0, 0.0, 0.0, 0.0, 1.6506678903924642E9, 0.0, 2022-04-22 17:51:30.392
44.0, -7.793951507657766, -32.006063820794225, 0.29545209649950266, -10.415621376596391, 0.3200000151991844, -0.2240000106394291, 0.9280000440776348, 0.0, 0.0, 0.0, 0.0, 0.0, 1.6506678903924642E9, 0.0, 2022-04-22 17:51:30.392
45.0, 1.892389377579093, -26.426133086904883, 0.5198460938408971, -13.863809135742486, 0.3200000151991844, -0.2240000106394291, 0.9280000440776348, 0.0, 0.0, 0.0, 0.0, 0.0, 1.6506678904082243E9, 0.0, 2022-04-22 17:51:30.408
45.0, -18.935113475658, -44.863839868456125, -21.511904545128345, -26.635567484423518, 0.3200000151991844, -0.2240000106394291, 0.9280000440776348, 0.0, 0.0, 0.0, 0.0, 0.0, 1.6506678904082243E9, 0.0, 2022-04-22 17:51:30.408
46.0, -15.434567117132246, -35.48043087963015, -23.28835702408105, -30.472704838961363, 0.3200000151991844, -0.2240000106394291, 0.9280000440776348, 0.0, 0.0, 0.0, 0.0, 0.0, 1.6506678904089231E9, 0.0, 2022-04-22 17:51:30.408
46.0, -20.281477459706366, -32.67176601290703, -9.031858392991126, -24.238291612826288, 0.3200000151991844, -0.2240000106394291, 0.9280000440776348, 0.0, 0.0, 0.0, 0.0, 0.0, 1.6506678904089231E9, 0.0, 2022-04-22 17:51:30.408
47.0, -1.8213312784209847, -9.417068088427186, 13.70299343764782, -9.177714491263032, 0.3200000151991844, -0.2240000106394291, 0.9280000440776348, 0.0, 0.0, 0.0, 0.0, 0.0, 1.6506678904224522E9, 0.0, 2022-04-22 17:51:30.422
47.0, -5.467733735218644, -32.50721041485667, -5.015205840580165, -10.198707179166377, 0.3200000151991844, -0.2240000106394291, 0.9280000440776348, 0.0, 0.0, 0.0, 0.0, 0.0, 1.6506678904224522E9, 0.0, 2022-04-22 17:51:30.422
48.0, -20.677906855009496, -43.1696651885286, -3.8371373545378447, -30.053836043924093, 0.3200000151991844, -0.2240000106394291, 0.9280000440776348, 0.0, 0.0, 0.0, 0.0, 0.0, 1.650667890438246E9, 0.0, 2022-04-22 17:51:30.438
48.0, 2.7563062673434615, -19.843909164890647, 9.880815682932734, -9.506825687363744, 0.3200000151991844, -0.2240000106394291, 0.9280000440776348, 0.0, 0.0, 0.0, 0.0, 0.0, 1.650667890438246E9, 0.0, 2022-04-22 17:51:30.438
49.0, -16.421900705434382, -30.693358936347067, -3.7324201557785273, -31.243124229833484, 0.3200000151991844, -0.2240000106394291, 0.9280000440776348, 0.0, 0.0, 0.0, 0.0, 0.0, 1.6506678904389582E9, 0.0, 2022-04-22 17:51:30.438
49.0, -26.052143091335893, -39.51952283177525, -20.019684462808073, -41.48297030851245, 0.3200000151991844, -0.2240000106394291, 0.9280000440776348, 0.0, 0.0, 0.0, 0.0, 0.0, 1.6506678904389582E9, 0.0, 2022-04-22 17:51:30.438
50.0, -20.09822236187756, -40.884586315602064, -16.739792201668024, -35.9067794745788, 0.3200000151991844, -0.2240000106394291, 0.9280000440776348, 0.0, 0.0, 0.0, 0.0, 0.0, 1.6506678904524443E9, 0.0, 2022-04-22 17:51:30.452
50.0, -6.9823932172730565, -44.74042316991836, -9.705040385015309, -3.665101956576109, 0.3200000151991844, -0.2240000106394291, 0.9280000440776348, 0.0, 0.0, 0.0, 0.0, 0.0, 1.6506678904524443E9, 0.0, 2022-04-22 17:51:30.452
51.0, -18.366648682393134, -42.444124597124755, -13.893728335388005, -28.12778756674379, 0.3200000151991844, -0.2240000106394291, 0.9280000440776348, 0.0, 0.0, 0.0, 0.0, 0.0, 1.6506678904682496E9, 0.0, 2022-04-22 17:51:30.468
51.0, -24.19341281335801, -38.7229241412133, -32.09582141973078, -37.89640625100583, 0.3200000151991844, -0.2240000106394291, 0.9280000440776348, 0.0, 0.0, 0.0, 0.0, 0.0, 1.6506678904682496E9, 0.0, 2022-04-22 17:51:30.468
52.0, -11.144901867955923, -28.19510576594621, -17.450373193249106, -23.40429392270744, 0.3200000151991844, -0.2240000106394291, 0.9280000440776348, 0.0, 0.0, 0.0, 0.0, 0.0, 1.6506678904689968E9, 0.0, 2022-04-22 17:51:30.468
52.0, -14.91472102329135, -29.44049245119095, -13.134528644382954, -11.107502868399024, 0.3200000151991844, -0.2240000106394291, 0.9280000440776348, 0.0, 0.0, 0.0, 0.0, 0.0, 1.6506678904689968E9, 0.0, 2022-04-22 17:51:30.468
53.0, -10.793351272121072, -29.81074254680425, -11.429134264588356, -22.06540973857045, 0.3200000151991844, -0.2240000106394291, 0.9280000440776348, 0.0, 0.0, 0.0, 0.0, 0.0, 1.6506678904824648E9, 0.0, 2022-04-22 17:51:30.482
53.0, -15.576683315448463, -25.928726392798126, -7.019792216829956, -38.087141148746014, 0.3200000151991844, -0.2240000106394291, 0.9280000440776348, 0.0, 0.0, 0.0, 0.0, 0.0, 1.6506678904824648E9, 0.0, 2022-04-22 17:51:30.482
54.0, -30.18847244232893, -52.489495878107846, -32.29777601733804, -50.503609001636505, 0.3200000151991844, -0.2240000106394291, 0.9280000440776348, 0.0, 0.0, 0.0, 0.0, 0.0, 1.6506678904982245E9, 0.0, 2022-04-22 17:51:30.498
54.0, -2.703947667963803, -7.678014609031379, 0.2543131969869137, -34.67635238915682, 0.3200000151991844, -0.2240000106394291, 0.9280000440776348, 0.0, 0.0, 0.0, 0.0, 0.0, 1.6506678904982245E9, 0.0, 2022-04-22 17:51:30.498
55.0, -27.80615617055446, -32.71290491241962, -25.132127702236176, -42.14119270071387, 0.3200000151991844, -0.2240000106394291, 0.9280000440776348, 0.0, 0.0, 0.0, 0.0, 0.0, 1.6506678904989822E9, 0.0, 2022-04-22 17:51:30.498
55.0, -1.9671873766928911, -13.085909944958985, -8.627949197776616, -0.9873335883021355, 0.3200000151991844, -0.2240000106394291, 0.9280000440776348, 0.0, 0.0, 0.0, 0.0, 0.0, 1.6506678904989822E9, 0.0, 2022-04-22 17:51:30.498
56.0, -16.186287008225918, -32.54460941441357, -12.270611754618585, -8.351196601055562, 0.3200000151991844, -0.2240000106394291, 0.9280000440776348, 0.0, 0.0, 0.0, 0.0, 0.0, 1.65066789051258E9, 0.0, 2022-04-22 17:51:30.512
56.0, -13.164447844028473, -29.3469949522987, -18.92763367574662, -26.1606001900509, 0.3200000151991844, -0.2240000106394291, 0.9280000440776348, 0.0, 0.0, 0.0, 0.0, 0.0, 1.65066789051258E9, 0.0, 2022-04-22 17:51:30.512
57.0, -18.359168882481754, -32.72412461228669, -25.846448593772948, -25.39766059909016, 0.3200000151991844, -0.2240000106394291, 0.9280000440776348, 0.0, 0.0, 0.0, 0.0, 0.0, 1.650667890528335E9, 0.0, 2022-04-22 17:51:30.528
57.0, -22.719892230816185, -30.20717194210738, -18.44892648141831, -60.67613688111305, 0.3200000151991844, -0.2240000106394291, 0.9280000440776348, 0.0, 0.0, 0.0, 0.0, 0.0, 1.650667890528335E9, 0.0, 2022-04-22 17:51:30.528
58.0, -14.828703324310482, -19.971065763384104, -7.801431307569146, -35.40189298056066, 0.3200000151991844, -0.2240000106394291, 0.9280000440776348, 0.0, 0.0, 0.0, 0.0, 0.0, 1.650667890528986E9, 0.0, 2022-04-22 17:51:30.528
58.0, -26.018483991734684, -32.66802611295134, -25.087248902767897, -32.5333897145465, 0.3200000151991844, -0.2240000106394291, 0.9280000440776348, 0.0, 0.0, 0.0, 0.0, 0.0, 1.650667890528986E9, 0.0, 2022-04-22 17:51:30.528
59.0, -28.453158862888813, -39.42228543292731, -26.321415888145566, -34.63895338959992, 0.3200000151991844, -0.2240000106394291, 0.9280000440776348, 0.0, 0.0, 0.0, 0.0, 0.0, 1.6506678905425377E9, 0.0, 2022-04-22 17:51:30.542
59.0, -24.227071912959218, -28.774790259078145, -15.483185816556215, -43.08738738950342, 0.3200000151991844, -0.2240000106394291, 0.9280000440776348, 0.0, 0.0, 0.0, 0.0, 0.0, 1.6506678905425377E9, 0.0, 2022-04-22 17:51:30.542
60.0, -25.629534396342933, -35.82076177559793, -21.32864944729954, -31.721831424161792, 0.3200000151991844, -0.2240000106394291, 0.9280000440776348, 0.0, 0.0, 0.0, 0.0, 0.0, 1.6506678905582852E9, 0.0, 2022-04-22 17:51:30.558
60.0, -28.318522464483976, -44.415051873773336, -35.4243323802948, -30.270750241354108, 0.3200000151991844, -0.2240000106394291, 0.9280000440776348, 0.0, 0.0, 0.0, 0.0, 0.0, 1.6506678905582852E9, 0.0, 2022-04-22 17:51:30.558
61.0, -27.71265867166221, -31.224424730055034, -28.266163865104318, -41.49045010842383, 0.3200000151991844, -0.2240000106394291, 0.9280000440776348, 0.0, 0.0, 0.0, 0.0, 0.0, 1.6506678905589461E9, 0.0, 2022-04-22 17:51:30.558
61.0, -26.298976488411427, -26.403693687170744, -25.143347402103245, -38.50600994378328, 0.3200000151991844, -0.2240000106394291, 0.9280000440776348, 0.0, 0.0, 0.0, 0.0, 0.0, 1.6506678905589461E9, 0.0, 2022-04-22 17:51:30.558
62.0, -22.274844136089087, -42.36932659801096, -31.84150822274387, -22.667533631436527, 0.3200000151991844, -0.2240000106394291, 0.9280000440776348, 0.0, 0.0, 0.0, 0.0, 0.0, 1.6506678905725994E9, 0.0, 2022-04-22 17:51:30.572
62.0, -18.89023467618972, -35.31961518153548, -23.834382417611778, -19.78033086564392, 0.3200000151991844, -0.2240000106394291, 0.9280000440776348, 0.0, 0.0, 0.0, 0.0, 0.0, 1.6506678905725994E9, 0.0, 2022-04-22 17:51:30.572
63.0, -27.899653669446707, -28.99544435646385, -25.853928393684328, -42.825594392605126, 0.3200000151991844, -0.2240000106394291, 0.9280000440776348, 0.0, 0.0, 0.0, 0.0, 0.0, 1.6506678905882912E9, 0.0, 2022-04-22 17:51:30.588
63.0, -28.13526736665517, -31.306702529080212, -19.33902267087251, -29.593828349374235, 0.3200000151991844, -0.2240000106394291, 0.9280000440776348, 0.0, 0.0, 0.0, 0.0, 0.0, 1.6506678905882912E9, 0.0, 2022-04-22 17:51:30.588
64.0, -26.96841858047992, -27.72761827148497, -19.37642167042941, -22.379561334848404, 0.3200000151991844, -0.2240000106394291, 0.9280000440776348, 0.0, 0.0, 0.0, 0.0, 0.0, 1.6506678905889604E9, 0.0, 2022-04-22 17:51:30.588
64.0, -21.122954949736595, -27.544363173656166, -16.395721405744553, -22.431919934228063, 0.3200000151991844, -0.2240000106394291, 0.9280000440776348, 0.0, 0.0, 0.0, 0.0, 0.0, 1.6506678905889604E9, 0.0, 2022-04-22 17:51:30.588
65.0, -19.65691416710615, -23.31079642381519, -18.000138486735523, -24.60854170843959, 0.3200000151991844, -0.2240000106394291, 0.9280000440776348, 0.0, 0.0, 0.0, 0.0, 0.0, 1.6506678906025636E9, 0.0, 2022-04-22 17:51:30.602
65.0, -24.6048018084839, -14.177960732020438, -17.33443629462272, -37.15216615982354, 0.3200000151991844, -0.2240000106394291, 0.9280000440776348, 0.0, 0.0, 0.0, 0.0, 0.0, 1.6506678906025636E9, 0.0, 2022-04-22 17:51:30.602
66.0, -23.224778724834323, -13.231766043230891, -15.120415520854294, -26.736544783227146, 0.3200000151991844, -0.2240000106394291, 0.9280000440776348, 0.0, 0.0, 0.0, 0.0, 0.0, 1.650667890618234E9, 0.0, 2022-04-22 17:51:30.618
66.0, -19.039830674417317, -14.731465925462544, -15.180253920145333, -18.90145437605679, 0.3200000151991844, -0.2240000106394291, 0.9280000440776348, 0.0, 0.0, 0.0, 0.0, 0.0, 1.650667890618234E9, 0.0, 2022-04-22 17:51:30.618
67.0, -24.59732200857252, -17.562570191919804, -20.90978065226227, -31.284263129346073, 0.3200000151991844, -0.2240000106394291, 0.9280000440776348, 0.0, 0.0, 0.0, 0.0, 0.0, 1.650667890618964E9, 0.0, 2022-04-22 17:51:30.618
67.0, -10.759692172519863, -7.7490727081894875, -6.170834926888347, -20.93222005199641, 0.3200000151991844, -0.2240000106394291, 0.9280000440776348, 0.0, 0.0, 0.0, 0.0, 0.0, 1.650667890618964E9, 0.0, 2022-04-22 17:51:30.618
68.0, -19.28666407149285, -20.59188915602863, -8.702747196890414, -13.916167735122144, 0.3200000151991844, -0.2240000106394291, 0.9280000440776348, 0.0, 0.0, 0.0, 0.0, 0.0, 1.65066789063255E9, 0.0, 2022-04-22 17:51:30.632
68.0, -21.523124244995415, -14.570650227367878, -13.796490936540067, -19.107148873619735, 0.3200000151991844, -0.2240000106394291, 0.9280000440776348, 0.0, 0.0, 0.0, 0.0, 0.0, 1.65066789063255E9, 0.0, 2022-04-22 17:51:30.632
69.0, -27.050696379505098, -20.49839165713638, -16.186287008225918, -43.60349358338863, 0.3200000151991844, -0.2240000106394291, 0.9280000440776348, 0.0, 0.0, 0.0, 0.0, 0.0, 1.650667890648192E9, 0.0, 2022-04-22 17:51:30.648
69.0, -33.47584450338036, -23.935359716415405, -18.51998458057642, -31.127187331207097, 0.3200000151991844, -0.2240000106394291, 0.9280000440776348, 0.0, 0.0, 0.0, 0.0, 0.0, 1.650667890648192E9, 0.0, 2022-04-22 17:51:30.648
70.0, -33.14299340732396, -22.55907653272152, -13.317783742211759, -21.990611739456654, 0.3200000151991844, -0.2240000106394291, 0.944000044837594, 0.0, 0.0, 0.0, 0.0, 0.0, 1.6506678906489515E9, 0.0, 2022-04-22 17:51:30.648
70.0, -16.10026930924505, 9.981792981736362, 13.160707944072783, -15.034397821873426, 0.3200000151991844, -0.2240000106394291, 0.944000044837594, 0.0, 0.0, 0.0, 0.0, 0.0, 1.6506678906489515E9, 0.0, 2022-04-22 17:51:30.648
71.0, -18.96129277534783, -2.2252404736354947, 1.5483185816556215, -13.620715638622642, 0.3200000151991844, -0.2240000106394291, 0.944000044837594, 0.0, 0.0, 0.0, 0.0, 0.0, 1.6506678906626084E9, 0.0, 2022-04-22 17:51:30.662
71.0, -18.54242398031056, 0.29171219654381275, 8.684047697111964, -11.496452463790774, 0.3200000151991844, -0.2240000106394291, 0.944000044837594, 0.0, 0.0, 0.0, 0.0, 0.0, 1.6506678906626084E9, 0.0, 2022-04-22 17:51:30.662
72.0, -12.263131954707205, 9.001939193345606, 8.740146196447313, -10.83823007158935, 0.3200000151991844, -0.2240000106394291, 0.944000044837594, 0.0, 0.0, 0.0, 0.0, 0.0, 1.650667890678243E9, 0.0, 2022-04-22 17:51:30.678
72.0, -24.627241208218038, 1.0247325878590345, -0.7741592908278108, -29.305856052786112, 0.3200000151991844, -0.2240000106394291, 0.944000044837594, 0.0, 0.0, 0.0, 0.0, 0.0, 1.650667890678243E9, 0.0, 2022-04-22 17:51:30.678
73.0, -12.233212755061686, 9.551704486832023, 15.71505961380899, -8.85234319511801, 0.3200000151991844, -0.2240000106394291, 0.944000044837594, 0.0, 0.0, 0.0, 0.0, 0.0, 1.650667890679001E9, 0.0, 2022-04-22 17:51:30.679
73.0, -17.611188891343772, 0.9499345887452364, 0.9424547888338566, -2.4421546710655093, 0.3200000151991844, -0.2240000106394291, 0.944000044837594, 0.0, 0.0, 0.0, 0.0, 0.0, 1.650667890679001E9, 0.0, 2022-04-22 17:51:30.679
74.0, -16.795890701003373, 6.2979915253818035, 7.734113108366728, -6.2194536263123155, 0.3200000151991844, -0.2240000106394291, 0.944000044837594, 0.0, 0.0, 0.0, 0.0, 0.0, 1.650667890692521E9, 0.0, 2022-04-22 17:51:30.692
74.0, -22.237445136532187, 2.935821465216577, 9.402108488604426, -19.092189273796976, 0.3200000151991844, -0.2240000106394291, 0.944000044837594, 0.0, 0.0, 0.0, 0.0, 0.0, 1.650667890692521E9, 0.0, 2022-04-22 17:51:30.692
75.0, -17.65606769081205, 7.9884263053536415, 13.841369736008346, -7.65557520929724, 0.3200000151991844, -0.2240000106394291, 0.944000044837594, 0.0, 0.0, 0.0, 0.0, 0.0, 1.6506678907082343E9, 0.0, 2022-04-22 17:51:30.708
75.0, -31.34036162868142, 0.6283031925559044, 1.933528277091682, -12.947533646598458, 0.3200000151991844, -0.2240000106394291, 0.944000044837594, 0.0, 0.0, 0.0, 0.0, 0.0, 1.6506678907082343E9, 0.0, 2022-04-22 17:51:30.708
76.0, -29.709765248000622, 11.892881859093904, 7.195567514747381, -18.220792584121227, 0.3200000151991844, -0.2240000106394291, 0.944000044837594, 0.0, 0.0, 0.0, 0.0, 0.0, 1.6506678907089918E9, 0.0, 2022-04-22 17:51:30.708
76.0, -28.22128506563604, 7.2254867143929005, -2.853543666191399, -27.895913769491017, 0.3200000151991844, -0.2240000106394291, 0.944000044837594, 0.0, 0.0, 0.0, 0.0, 0.0, 1.6506678907089918E9, 0.0, 2022-04-22 17:51:30.708
77.0, -24.96383220423013, 4.764632543548942, -5.591150433756411, -17.517691392451525, 0.3200000151991844, -0.2240000106394291, 0.944000044837594, 0.0, 0.0, 0.0, 0.0, 0.0, 1.6506678907389083E9, 0.0, 2022-04-22 17:51:30.738
77.0, -28.045509767718613, 12.599722950719297, 3.059238163754344, -0.6245632926002145, 0.3200000151991844, -0.2240000106394291, 0.944000044837594, 0.0, 0.0, 0.0, 0.0, 0.0, 1.6506678907389083E9, 0.0, 2022-04-22 17:51:30.738
78.0, -23.39681412279606, 22.057929938659072, 11.971419758163393, -8.291358201764524, 0.3200000151991844, -0.2240000106394291, 0.944000044837594, 0.0, 0.0, 0.0, 0.0, 0.0, 1.6506678907396696E9, 0.0, 2022-04-22 17:51:30.739
78.0, -23.79324351809919, 13.134528644382954, -5.434074635617435, -15.127895320765674, 0.3200000151991844, -0.2240000106394291, 0.944000044837594, 0.0, 0.0, 0.0, 0.0, 0.0, 1.6506678907396696E9, 0.0, 2022-04-22 17:51:30.739
79.0, -33.995690597221255, 8.313797601498663, -8.41851480025798, -20.221639060415328, 0.3200000151991844, -0.2240000106394291, 0.944000044837594, 0.0, 0.0, 0.0, 0.0, 0.0, 1.6506678907403865E9, 0.0, 2022-04-22 17:51:30.740
79.0, -32.46607151534408, 4.775852243416011, -5.61732973344624, -25.82400919403881, 0.3200000151991844, -0.2240000106394291, 0.944000044837594, 0.0, 0.0, 0.0, 0.0, 0.0, 1.6506678907403865E9, 0.0, 2022-04-22 17:51:30.740
80.0, -28.266163865104318, 5.441554435528815, -9.23381299059838, -11.735806060954928, 0.3200000151991844, -0.2240000106394291, 0.944000044837594, 0.0, 0.0, 0.0, 0.0, 0.0, 1.6506678907689037E9, 0.0, 2022-04-22 17:51:30.768
80.0, -29.305856052786112, 7.315244313329458, -6.84401691891253, -9.110396292060614, 0.3200000151991844, -0.2240000106394291, 0.944000044837594, 0.0, 0.0, 0.0, 0.0, 0.0, 1.6506678907689037E9, 0.0, 2022-04-22 17:51:30.768
81.0, -21.807356641627848, 12.06117735709995, -4.5701577458530664, -6.185794526711106, 0.3200000151991844, -0.2240000106394291, 0.944000044837594, 0.0, 0.0, 0.0, 0.0, 0.0, 1.65066789076963E9, 0.0, 2022-04-22 17:51:30.769
81.0, -27.81737587042153, 12.753058848902583, -3.706240856088698, -33.02705650869757, 0.3200000151991844, -0.2240000106394291, 0.944000044837594, 0.0, 0.0, 0.0, 0.0, 0.0, 1.65066789076963E9, 0.0, 2022-04-22 17:51:30.769
82.0, -29.79952284693718, 3.8034782549366355, -9.981792981736362, -30.61482103727758, 0.3200000151991844, -0.2240000106394291, 0.944000044837594, 0.0, 0.0, 0.0, 0.0, 0.0, 1.6506678907703748E9, 0.0, 2022-04-22 17:51:30.770
82.0, -20.378714858554304, 19.7878106655553, 5.23585993796587, -16.739792201668024, 0.3200000151991844, -0.2240000106394291, 0.944000044837594, 0.0, 0.0, 0.0, 0.0, 0.0, 1.6506678907703748E9, 0.0, 2022-04-22 17:51:30.770
83.0, -25.850188493728638, 11.810604060068727, 2.890942665748298, -8.650388597510755, 0.3200000151991844, -0.2240000106394291, 0.944000044837594, 0.0, 0.0, 0.0, 0.0, 0.0, 1.6506678907825143E9, 0.0, 2022-04-22 17:51:30.782
83.0, -32.806402411311865, 5.116183139383793, -1.888649477623403, -10.557737574912608, 0.3200000151991844, -0.2240000106394291, 0.944000044837594, 0.0, 0.0, 0.0, 0.0, 0.0, 1.6506678907825143E9, 0.0, 2022-04-22 17:51:30.782
84.0, -20.47221235744655, 23.920400116592646, 9.368449389003217, 0.17951519787311554, 0.3200000151991844, -0.2240000106394291, 0.944000044837594, 0.0, 0.0, 0.0, 0.0, 0.0, 1.650667890798318E9, 0.0, 2022-04-22 17:51:30.798
84.0, -19.35398227069527, 34.63521348964423, 11.574990362860262, -11.948980358429253, 0.3200000151991844, -0.2240000106394291, 0.944000044837594, 0.0, 0.0, 0.0, 0.0, 0.0, 1.650667890798318E9, 0.0, 2022-04-22 17:51:30.798
85.0, -29.657406648620963, 19.952366263605654, -0.1533358981832862, -17.77200458943844, 0.3200000151991844, -0.2240000106394291, 0.944000044837594, 0.0, 0.0, 0.0, 0.0, 0.0, 1.6506678907989676E9, 0.0, 2022-04-22 17:51:30.798
85.0, -28.097868367098272, 11.010265469551086, -0.9910734882578254, -21.7138591427356, 0.3200000151991844, -0.2240000106394291, 0.944000044837594, 0.0, 0.0, 0.0, 0.0, 0.0, 1.6506678907989676E9, 0.0, 2022-04-22 17:51:30.798
86.0, -28.92438625730574, 13.396321641281247, -2.2289803735911846, -20.629288155585527, 0.3200000151991844, -0.2240000106394291, 0.944000044837594, 0.0, 0.0, 0.0, 0.0, 0.0, 1.6506678908125556E9, 0.0, 2022-04-22 17:51:30.812
86.0, -24.99001150391996, 14.86610232386738, -5.303178137168288, -15.786117712967098, 0.3200000151991844, -0.2240000106394291, 0.944000044837594, 0.0, 0.0, 0.0, 0.0, 0.0, 1.6506678908125556E9, 0.0, 2022-04-22 17:51:30.812
87.0, -35.7571834763512, 9.076737192459404, -15.599122715182602, -23.467872221954167, 0.3200000151991844, -0.2240000106394291, 0.944000044837594, 0.0, 0.0, 0.0, 0.0, 0.0, 1.6506678908282244E9, 0.0, 2022-04-22 17:51:30.828
87.0, -18.725679078139365, 26.788903382606804, -0.6283031925559044, -6.608403221704066, 0.3200000151991844, -0.2240000106394291, 0.944000044837594, 0.0, 0.0, 0.0, 0.0, 0.0, 1.6506678908282244E9, 0.0, 2022-04-22 17:51:30.828
88.0, -24.387887611053884, 14.316337030380964, 4.947887641377747, -9.828457083553076, 0.3200000151991844, -0.2240000106394291, 0.944000044837594, 0.0, 0.0, 0.0, 0.0, 0.0, 1.650667890828909E9, 0.0, 2022-04-22 17:51:30.828
88.0, -29.582608649507165, 2.098083875142038, 5.363016536459327, -2.292558672837913, 0.3200000151991844, -0.2240000106394291, 0.944000044837594, 0.0, 0.0, 0.0, 0.0, 0.0, 1.650667890828909E9, 0.0, 2022-04-22 17:51:30.828
89.0, -30.813035734929144, -10.243585978634655, 5.445294335484505, 2.9283416653051972, 0.3200000151991844, -0.2240000106394291, 0.944000044837594, 0.0, 0.0, 0.0, 0.0, 0.0, 1.6506678908425188E9, 0.0, 2022-04-22 17:51:30.842
89.0, -36.52760286722332, -16.93052709940821, 5.24333973787725, -15.744978813454509, 0.3200000151991844, -0.2240000106394291, 0.944000044837594, 0.0, 0.0, 0.0, 0.0, 0.0, 1.6506678908425188E9, 0.0, 2022-04-22 17:51:30.842
90.0, -31.632073825225234, -13.66933433804661, 18.329249682836235, -10.44180067628622, 0.3200000151991844, -0.2240000106394291, 0.944000044837594, 0.0, 0.0, 0.0, 0.0, 0.0, 1.65066789085819E9, 0.0, 2022-04-22 17:51:30.858
90.0, -37.634613254107535, -24.642200808040798, 26.347595187835395, -23.658607119694352, 0.3200000151991844, -0.2240000106394291, 0.944000044837594, 0.0, 0.0, 0.0, 0.0, 0.0, 1.65066789085819E9, 0.0, 2022-04-22 17:51:30.858
91.0, -37.627133454196155, -32.87372061051428, 34.50431699119508, -11.444093864411116, 0.3200000151991844, -0.2240000106394291, 0.944000044837594, 0.0, 0.0, 0.0, 0.0, 0.0, 1.6506678908590596E9, 0.0, 2022-04-22 17:51:30.859
91.0, -44.882539368234575, -41.40443240944296, 24.769357406534255, -16.653774502687156, 0.3200000151991844, -0.2240000106394291, 0.944000044837594, 0.0, 0.0, 0.0, 0.0, 0.0, 1.6506678908590596E9, 0.0, 2022-04-22 17:51:30.859
92.0, -37.4625778561458, -28.703732159920037, 20.778884153813124, -24.406587110832334, 0.3200000151991844, -0.2240000106394291, 0.944000044837594, 0.0, 0.0, 0.0, 0.0, 0.0, 1.6506678908725665E9, 0.0, 2022-04-22 17:51:30.872
92.0, -37.08110806066543, -26.95345898065716, 19.922447063960135, -15.079276621341705, 0.3200000151991844, -0.2240000106394291, 0.944000044837594, 0.0, 0.0, 0.0, 0.0, 0.0, 1.6506678908725665E9, 0.0, 2022-04-22 17:51:30.872
93.0, -36.9801307618618, -27.39102727547288, 15.557983815670013, -6.799138119444251, 0.3200000151991844, -0.2240000106394291, 0.944000044837594, 0.0, 0.0, 0.0, 0.0, 0.0, 1.6506678908882425E9, 0.0, 2022-04-22 17:51:30.888
93.0, -45.03961516637355, -42.32444779854268, 14.391135029494762, -32.60070791374892, 0.3200000151991844, -0.2240000106394291, 0.944000044837594, 0.0, 0.0, 0.0, 0.0, 0.0, 1.6506678908882425E9, 0.0, 2022-04-22 17:51:30.888
94.0, -39.96457092650235, -23.553889920935035, 13.134528644382954, -14.544470927678049, 0.3200000151991844, -0.2240000106394291, 0.944000044837594, 0.0, 0.0, 0.0, 0.0, 0.0, 1.6506678908890057E9, 0.0, 2022-04-22 17:51:30.889
94.0, -40.862146915867925, -24.60854170843959, -0.5834243930876255, -16.586456303484738, 0.3200000151991844, -0.2240000106394291, 0.944000044837594, 0.0, 0.0, 0.0, 0.0, 0.0, 1.6506678908890057E9, 0.0, 2022-04-22 17:51:30.889
95.0, -43.32674098666757, -30.771896835416555, 7.221746814437211, -16.50417850445956, 0.3200000151991844, -0.2240000106394291, 0.944000044837594, 0.0, 0.0, 0.0, 0.0, 0.0, 1.650667890902603E9, 0.0, 2022-04-22 17:51:30.902
95.0, -46.34110035095364, -22.671273531392217, 18.332989582791924, -13.852589435875416, 0.3200000151991844, -0.2240000106394291, 0.944000044837594, 0.0, 0.0, 0.0, 0.0, 0.0, 1.650667890902603E9, 0.0, 2022-04-22 17:51:30.902
96.0, -37.06988836079836, -17.394274693913758, 16.380761805921793, -4.734713343903422, 0.3200000151991844, -0.2240000106394291, 0.944000044837594, 0.0, 0.0, 0.0, 0.0, 0.0, 1.6506678909182627E9, 0.0, 2022-04-22 17:51:30.918
96.0, -41.72980370558798, -23.621208120137453, 8.167941503226757, -18.366648682393134, 0.3200000151991844, -0.2240000106394291, 0.944000044837594, 0.0, 0.0, 0.0, 0.0, 0.0, 1.6506678909182627E9, 0.0, 2022-04-22 17:51:30.918
97.0, -43.81666788086295, -30.22213154193014, 4.693574444390833, -37.226964158937335, 0.3200000151991844, -0.2240000106394291, 0.944000044837594, 0.0, 0.0, 0.0, 0.0, 0.0, 1.650667890919038E9, 0.0, 2022-04-22 17:51:30.919
97.0, -32.346394716762006, -16.264824907295406, 11.747025760821998, -13.65811463817954, 0.3200000151991844, -0.2240000106394291, 0.944000044837594, 0.0, 0.0, 0.0, 0.0, 0.0, 1.650667890919038E9, 0.0, 2022-04-22 17:51:30.919
98.0, -22.14394763763994, -9.364709489047527, 17.854282388463616, -22.11028853803873, 0.3200000151991844, -0.2240000106394291, 0.944000044837594, 0.0, 0.0, 0.0, 0.0, 0.0, 1.6506678909325943E9, 0.0, 2022-04-22 17:51:30.932
98.0, -18.003878386691213, -17.820623288862407, 19.043570574373007, -10.303424377925694, 0.3200000151991844, -0.2240000106394291, 0.944000044837594, 0.0, 0.0, 0.0, 0.0, 0.0, 1.6506678909325943E9, 0.0, 2022-04-22 17:51:30.932
99.0, -17.528911092318594, -13.493559040129185, 13.789011136628687, -2.098083875142038, 0.3200000151991844, -0.2240000106394291, 0.944000044837594, 0.0, 0.0, 0.0, 0.0, 0.0, 1.650667890948197E9, 0.0, 2022-04-22 17:51:30.948
99.0, -29.118861055001616, -32.5707887141034, 5.310657937079668, -21.530604044906795, 0.3200000151991844, -0.2240000106394291, 0.944000044837594, 0.0, 0.0, 0.0, 0.0, 0.0, 1.650667890948197E9, 0.0, 2022-04-22 17:51:30.948
100.0, -22.278584036044776, -32.14070021919906, -1.1070103868842125, -19.484878769144416, 0.3200000151991844, -0.2240000106394291, 0.944000044837594, 0.0, 0.0, 0.0, 0.0, 0.0, 1.6506678909490852E9, 0.0, 2022-04-22 17:51:30.949
100.0, -5.325617536902428, -13.867549035698175, 12.06117735709995, -6.731819920241833, 0.3200000151991844, -0.2240000106394291, 0.944000044837594, 0.0, 0.0, 0.0, 0.0, 0.0, 1.6506678909490852E9, 0.0, 2022-04-22 17:51:30.949
0.0, 111.28072318155318, -194.13633674988523, -102.38537113694474, 276.7974755205214, 0.3200000151991844, -0.2240000106394291, 0.944000044837594, 0.0, 0.0, 0.0, 0.0, 0.0, 1.650667890963368E9, 0.0, 2022-04-22 17:51:30.963
1.0, 116.72975741699338, -186.00953414617106, -93.1739975460805, 292.4003381356597, 0.3200000151991844, -0.2240000106394291, 0.944000044837594, 0.0, 0.0, 0.0, 0.0, 0.0, 1.6506678909640248E9, 0.0, 2022-04-22 17:51:30.964
1.0, 122.75847614556551, -192.08313167421147, -95.13370512286201, 285.85177331324667, 0.3200000151991844, -0.2240000106394291, 0.944000044837594, 0.0, 0.0, 0.0, 0.0, 0.0, 1.6506678909640248E9, 0.0, 2022-04-22 17:51:30.964
2.0, 126.5432549007237, -199.31983808847144, -97.26544809760526, 269.32515540905297, 0.3200000151991844, -0.2240000106394291, 0.944000044837594, 0.0, 0.0, 0.0, 0.0, 0.0, 1.6506678909775414E9, 0.0, 2022-04-22 17:51:30.977
2.0, 129.04150807112455, -188.72470151400194, -96.34169280854985, 267.9713116250932, 0.3200000151991844, -0.2240000106394291, 0.944000044837594, 0.0, 0.0, 0.0, 0.0, 0.0, 1.6506678909775414E9, 0.0, 2022-04-22 17:51:30.977
3.0, 129.5389147652313, -190.11968419747427, -97.04853390017524, 269.5308499066159, 0.3200000151991844, -0.2240000106394291, 0.944000044837594, 0.0, 0.0, 0.0, 0.0, 0.0, 1.6506678909932108E9, 0.0, 2022-04-22 17:51:30.993
3.0, 129.1387454699725, -190.57969189202413, -98.99702177708969, 276.70397802162915, 0.3200000151991844, -0.2240000106394291, 0.944000044837594, 0.0, 0.0, 0.0, 0.0, 0.0, 1.6506678909932108E9, 0.0, 2022-04-22 17:51:30.993
4.0, 132.55701402947307, -199.9668407808058, -100.86323185497895, 275.5371292354539, 0.3200000151991844, -0.2240000106394291, 0.944000044837594, 0.0, 0.0, 0.0, 0.0, 0.0, 1.6506678909941993E9, 0.0, 2022-04-22 17:51:30.994
4.0, 129.81940726190805, -203.112096643541, -106.61893788678572, 270.74631739221513, 0.3200000151991844, -0.2240000106394291, 0.944000044837594, 0.0, 0.0, 0.0, 0.0, 0.0, 1.6506678909941993E9, 0.0, 2022-04-22 17:51:30.994
5.0, 128.20377048105001, -197.65184270823374, -106.97048848262057, 273.1323735639453, 0.3200000151991844, -0.2240000106394291, 0.944000044837594, 0.0, 0.0, 0.0, 0.0, 0.0, 1.6506678910240047E9, 0.0, 2022-04-22 17:51:31.024
5.0, 131.62577894050628, -191.98589427536353, -101.53641384700313, 280.6794916745275, 0.3200000151991844, -0.2240000106394291, 0.944000044837594, 0.0, 0.0, 0.0, 0.0, 0.0, 1.6506678910240047E9, 0.0, 2022-04-22 17:51:31.024
6.0, 131.4313041428104, -198.69527479587123, -95.77696791524068, 275.48851053602993, 0.3200000151991844, -0.2240000106394291, 0.944000044837594, 0.0, 0.0, 0.0, 0.0, 0.0, 1.650667891024676E9, 0.0, 2022-04-22 17:51:31.024
6.0, 133.71638301573694, -183.6234779744409, -94.22116953367367, 278.8656401960179, 0.3200000151991844, -0.2240000106394291, 0.944000044837594, 0.0, 0.0, 0.0, 0.0, 0.0, 1.650667891024676E9, 0.0, 2022-04-22 17:51:31.024
7.0, 137.9200305659324, -177.8490724428557, -96.31177360890433, 277.52675601188093, 0.3200000151991844, -0.2240000106394291, 0.944000044837594, 0.0, 0.0, 0.0, 0.0, 0.0, 1.6506678910255225E9, 0.0, 2022-04-22 17:51:31.025
7.0, 148.6647631386295, -176.45034985942766, -91.20681016938761, 287.08594029862434, 0.3200000151991844, -0.2240000106394291, 0.944000044837594, 0.0, 0.0, 0.0, 0.0, 0.0, 1.6506678910255225E9, 0.0, 2022-04-22 17:51:31.025
8.0, 138.8400459550321, -173.5781066934578, -88.7646554983221, 259.3545821271837, 0.3200000151991844, -0.2240000106394291, 0.944000044837594, 0.0, 0.0, 0.0, 0.0, 0.0, 1.6506678910375965E9, 0.0, 2022-04-22 17:51:31.037
8.0, 146.16277006827295, -173.7277026916854, -74.22392447059974, 292.9239241294563, 0.3200000151991844, -0.2240000106394291, 0.944000044837594, 0.0, 0.0, 0.0, 0.0, 0.0, 1.6506678910375965E9, 0.0, 2022-04-22 17:51:31.037
9.0, 143.33914560172707, -184.5547130634077, -82.85561356833205, 288.6192992804572, 0.3200000151991844, -0.2240000106394291, 0.944000044837594, 0.0, 0.0, 0.0, 0.0, 0.0, 1.6506678910533347E9, 0.0, 2022-04-22 17:51:31.053
9.0, 140.8408924313262, -176.8430393547751, -92.50081555405632, 278.48417040053755, 0.3200000151991844, -0.2240000106394291, 0.944000044837594, 0.0, 0.0, 0.0, 0.0, 0.0, 1.6506678910533347E9, 0.0, 2022-04-22 17:51:31.053
10.0, 145.76634067296982, -168.9144514487125, -82.1674719764851, 291.6149591449648, 0.3200000151991844, -0.2240000106394291, 0.9280000440776348, 0.0, 0.0, 0.0, 0.0, 0.0, 1.6506678910540314E9, 0.0, 2022-04-22 17:51:31.054
10.0, 139.19907635077834, -177.5835395460017, -86.60299332393333, 282.48586335312575, 0.3200000151991844, -0.2240000106394291, 0.9280000440776348, 0.0, 0.0, 0.0, 0.0, 0.0, 1.6506678910540314E9, 0.0, 2022-04-22 17:51:31.054
11.0, 140.30234683770686, -177.736875444185, -84.9836166431196, 289.4981757700443, 0.3200000151991844, -0.2240000106394291, 0.9280000440776348, 0.0, 0.0, 0.0, 0.0, 0.0, 1.650667891067584E9, 0.0, 2022-04-22 17:51:31.067
11.0, 145.24275467917323, -174.8085337788798, -79.58320110710338, 286.4800765058026, 0.3200000151991844, -0.2240000106394291, 0.9280000440776348, 0.0, 0.0, 0.0, 0.0, 0.0, 1.650667891067584E9, 0.0, 2022-04-22 17:51:31.067
12.0, 144.509734287858, -171.14717172225937, -79.68043850595132, 276.78251592069864, 0.3200000151991844, -0.2240000106394291, 0.9280000440776348, 0.0, 0.0, 0.0, 0.0, 0.0, 1.6506678910833545E9, 0.0, 2022-04-22 17:51:31.083
12.0, 137.08229297585785, -176.0277411644347, -88.24106950452551, 277.29488221462816, 0.3200000151991844, -0.2240000106394291, 0.9280000440776348, 0.0, 0.0, 0.0, 0.0, 0.0, 1.6506678910833545E9, 0.0, 2022-04-22 17:51:31.083
13.0, 137.7330355681479, -173.92217748938128, -91.27786826854572, 284.9093185244128, 0.3200000151991844, -0.2240000106394291, 0.9280000440776348, 0.0, 0.0, 0.0, 0.0, 0.0, 1.6506678910840807E9, 0.0, 2022-04-22 17:51:31.084
13.0, 124.49378972500563, -180.83725250745192, -99.94321646587923, 274.908826042898, 0.3200000151991844, -0.2240000106394291, 0.9280000440776348, 0.0, 0.0, 0.0, 0.0, 0.0, 1.6506678910840807E9, 0.0, 2022-04-22 17:51:31.084
14.0, 137.87141186650842, -181.89938409486786, -94.74101562751457, 289.8385066660121, 0.3200000151991844, -0.2240000106394291, 0.9280000440776348, 0.0, 0.0, 0.0, 0.0, 0.0, 1.6506678910975783E9, 0.0, 2022-04-22 17:51:31.097
14.0, 126.30390130355954, -193.20510166091844, -93.40961124328896, 274.5722350468859, 0.3200000151991844, -0.2240000106394291, 0.9280000440776348, 0.0, 0.0, 0.0, 0.0, 0.0, 1.6506678910975783E9, 0.0, 2022-04-22 17:51:31.097
15.0, 121.4644707608968, -200.80831827083603, -102.00390134146437, 263.3001765804365, 0.3200000151991844, -0.2240000106394291, 0.9280000440776348, 0.0, 0.0, 0.0, 0.0, 0.0, 1.65066789111331E9, 0.0, 2022-04-22 17:51:31.113
15.0, 122.81457464490086, -191.72784117842093, -102.37415143707767, 281.29657516721636, 0.3200000151991844, -0.2240000106394291, 0.9280000440776348, 0.0, 0.0, 0.0, 0.0, 0.0, 1.65066789111331E9, 0.0, 2022-04-22 17:51:31.113
16.0, 121.38593286182731, -194.0390993510373, -105.12671780446544, 276.81617502029985, 0.3200000151991844, -0.2240000106394291, 0.9280000440776348, 0.0, 0.0, 0.0, 0.0, 0.0, 1.6506678911140468E9, 0.0, 2022-04-22 17:51:31.114
16.0, 124.0936204297468, -192.37484387075529, -101.02404755307361, 276.5431623235345, 0.3200000151991844, -0.2240000106394291, 0.9280000440776348, 0.0, 0.0, 0.0, 0.0, 0.0, 1.6506678911140468E9, 0.0, 2022-04-22 17:51:31.114
17.0, 120.66413217037916, -189.78683310141787, -100.33590596122667, 274.84524774365127, 0.3200000151991844, -0.2240000106394291, 0.9280000440776348, 0.0, 0.0, 0.0, 0.0, 0.0, 1.650667891127566E9, 0.0, 2022-04-22 17:51:31.127
17.0, 118.76800289284438, -191.51092698099092, -101.87300484301522, 270.21899149846286, 0.3200000151991844, -0.2240000106394291, 0.9280000440776348, 0.0, 0.0, 0.0, 0.0, 0.0, 1.650667891127566E9, 0.0, 2022-04-22 17:51:31.127
18.0, 118.87645999155939, -197.86501700570807, -98.30140038533136, 276.3935663253069, 0.3200000151991844, -0.2240000106394291, 0.9280000440776348, 0.0, 0.0, 0.0, 0.0, 0.0, 1.6506678911433067E9, 0.0, 2022-04-22 17:51:31.143
18.0, 113.9061329504475, -191.33889158302918, -99.7711810679175, 261.9126736968756, 0.3200000151991844, -0.2240000106394291, 0.9280000440776348, 0.0, 0.0, 0.0, 0.0, 0.0, 1.6506678911433067E9, 0.0, 2022-04-22 17:51:31.143
19.0, 120.00216987822205, -182.71094238525257, -94.96166972490028, 281.52470906451344, 0.3200000151991844, -0.2240000106394291, 0.9280000440776348, 0.0, 0.0, 0.0, 0.0, 0.0, 1.650667891144025E9, 0.0, 2022-04-22 17:51:31.144
19.0, 120.92966506723315, -185.76270074909553, -96.9512965013273, 281.82390106096864, 0.3200000151991844, -0.2240000106394291, 0.9280000440776348, 0.0, 0.0, 0.0, 0.0, 0.0, 1.650667891144025E9, 0.0, 2022-04-22 17:51:31.144
20.0, 119.45614448469132, -182.38557108910754, -87.63146581174806, 276.8797533195466, 0.3200000151991844, -0.2240000106394291, 0.9280000440776348, 0.0, 0.0, 0.0, 0.0, 0.0, 1.650667891157496E9, 0.0, 2022-04-22 17:51:31.157
20.0, 115.56664853077382, -192.28508627181873, -90.67574437567964, 286.26690220832825, 0.3200000151991844, -0.2240000106394291, 0.9280000440776348, 0.0, 0.0, 0.0, 0.0, 0.0, 1.650667891157496E9, 0.0, 2022-04-22 17:51:31.157
21.0, 111.4228393798694, -199.00942639214918, -94.41564433136955, 276.10933392867446, 0.3200000151991844, -0.2240000106394291, 0.9280000440776348, 0.0, 0.0, 0.0, 0.0, 0.0, 1.6506678911732943E9, 0.0, 2022-04-22 17:51:31.173
21.0, 117.01024991367012, -184.5173140638508, -96.90641770185903, 272.5078102713451, 0.3200000151991844, -0.2240000106394291, 0.9280000440776348, 0.0, 0.0, 0.0, 0.0, 0.0, 1.6506678911732943E9, 0.0, 2022-04-22 17:51:31.173
22.0, 108.37108101602644, -180.07805281644687, -95.46281631896272, 273.21465136297047, 0.3200000151991844, -0.2240000106394291, 0.9280000440776348, 0.0, 0.0, 0.0, 0.0, 0.0, 1.6506678911740153E9, 0.0, 2022-04-22 17:51:31.174
22.0, 112.03618297260255, -188.50404741661623, -92.35495945578441, 282.93465134780854, 0.3200000151991844, -0.2240000106394291, 0.9280000440776348, 0.0, 0.0, 0.0, 0.0, 0.0, 1.6506678911740153E9, 0.0, 2022-04-22 17:51:31.174
23.0, 115.28989593405277, -189.43154260562733, -93.95563663681969, 272.15251977555454, 0.3200000151991844, -0.2240000106394291, 0.9280000440776348, 0.0, 0.0, 0.0, 0.0, 0.0, 1.6506678911875367E9, 0.0, 2022-04-22 17:51:31.187
23.0, 108.67027301248163, -202.50997275067493, -107.3295188783668, 276.41600572504103, 0.3200000151991844, -0.2240000106394291, 0.9280000440776348, 0.0, 0.0, 0.0, 0.0, 0.0, 1.6506678911875367E9, 0.0, 2022-04-22 17:51:31.187
24.0, 108.48327801469713, -197.87997660553083, -113.26100020809099, 280.95998417120427, 0.3200000151991844, -0.2240000106394291, 0.9280000440776348, 0.0, 0.0, 0.0, 0.0, 0.0, 1.6506678912033384E9, 0.0, 2022-04-22 17:51:31.203
24.0, 111.43405907973647, -192.75631366623566, -103.29416682617739, 266.58754864148796, 0.3200000151991844, -0.2240000106394291, 0.9280000440776348, 0.0, 0.0, 0.0, 0.0, 0.0, 1.6506678912033384E9, 0.0, 2022-04-22 17:51:31.203
25.0, 101.22413220070302, -193.82218515360728, -106.65259698638692, 257.62674834765494, 0.3200000151991844, -0.2240000106394291, 0.9280000440776348, 0.0, 0.0, 0.0, 0.0, 0.0, 1.650667891204049E9, 0.0, 2022-04-22 17:51:31.204
25.0, 112.95245846174657, -195.41912243468687, -104.92850310681388, 277.62773331068456, 0.3200000151991844, -0.2240000106394291, 0.9280000440776348, 0.0, 0.0, 0.0, 0.0, 0.0, 1.650667891204049E9, 0.0, 2022-04-22 17:51:31.204
26.0, 111.05632918421179, -197.02353951567784, -108.06253926968202, 265.11028815899044, 0.3200000151991844, -0.2240000106394291, 0.9280000440776348, 0.0, 0.0, 0.0, 0.0, 0.0, 1.6506678912175584E9, 0.0, 2022-04-22 17:51:31.217
26.0, 106.05982284341007, -196.90760261705145, -117.58432455686852, 272.2347975745797, 0.3200000151991844, -0.2240000106394291, 0.9280000440776348, 0.0, 0.0, 0.0, 0.0, 0.0, 1.6506678912175584E9, 0.0, 2022-04-22 17:51:31.217
27.0, 107.05837613157928, -195.93896852852777, -112.35968431876972, 272.7957825679332, 0.3200000151991844, -0.2240000106394291, 0.9280000440776348, 0.0, 0.0, 0.0, 0.0, 0.0, 1.6506678912332573E9, 0.0, 2022-04-22 17:51:31.233
27.0, 106.87512103375047, -198.20534790167585, -105.59794519888237, 273.32684836164117, 0.3200000151991844, -0.2240000106394291, 0.9280000440776348, 0.0, 0.0, 0.0, 0.0, 0.0, 1.6506678912332573E9, 0.0, 2022-04-22 17:51:31.233
28.0, 108.8310887105763, -197.0048400158994, -97.79277399135754, 268.99230431299657, 0.3200000151991844, -0.2240000106394291, 0.9280000440776348, 0.0, 0.0, 0.0, 0.0, 0.0, 1.6506678912339587E9, 0.0, 2022-04-22 17:51:31.233
28.0, 110.03159659635276, -200.95417436910793, -103.52978052338585, 263.0608229832724, 0.3200000151991844, -0.2240000106394291, 0.9280000440776348, 0.0, 0.0, 0.0, 0.0, 0.0, 1.6506678912339587E9, 0.0, 2022-04-22 17:51:31.233
29.0, 107.08455543126911, -200.02667918009683, -106.08787209307775, 274.3216617498547, 0.3200000151991844, -0.2240000106394291, 0.9280000440776348, 0.0, 0.0, 0.0, 0.0, 0.0, 1.6506678912476187E9, 0.0, 2022-04-22 17:51:31.247
29.0, 102.20024608913809, -201.9265483575873, -112.43822221783921, 248.30317775812, 0.3200000151991844, -0.2240000106394291, 0.9280000440776348, 0.0, 0.0, 0.0, 0.0, 0.0, 1.6506678912476187E9, 0.0, 2022-04-22 17:51:31.247
30.0, 118.73060389328748, -183.64217747421935, -104.5881722108461, 275.7877025324851, 0.3200000151991844, -0.2240000106394291, 0.9280000440776348, 0.0, 0.0, 0.0, 0.0, 0.0, 1.6506678912632987E9, 0.0, 2022-04-22 17:51:31.263
30.0, 116.41186592075974, -185.45228905277327, -97.52350119454786, 280.4289183774963, 0.3200000151991844, -0.2240000106394291, 0.9280000440776348, 0.0, 0.0, 0.0, 0.0, 0.0, 1.6506678912632987E9, 0.0, 2022-04-22 17:51:31.263
31.0, 110.51030379068106, -189.7718735015951, -99.82727956725284, 280.3578602783382, 0.3200000151991844, -0.2240000106394291, 0.9280000440776348, 0.0, 0.0, 0.0, 0.0, 0.0, 1.6506678912639992E9, 0.0, 2022-04-22 17:51:31.263
31.0, 107.50716412626207, -191.53710628068075, -100.07411296432838, 278.74222349748015, 0.3200000151991844, -0.2240000106394291, 0.9280000440776348, 0.0, 0.0, 0.0, 0.0, 0.0, 1.6506678912639992E9, 0.0, 2022-04-22 17:51:31.263
32.0, 114.24646384641528, -185.48594815237448, -103.75791442068294, 267.0438164360821, 0.3200000151991844, -0.2240000106394291, 0.9280000440776348, 0.0, 0.0, 0.0, 0.0, 0.0, 1.6506678912776313E9, 0.0, 2022-04-22 17:51:31.277
32.0, 105.00143115594983, -196.91508241696283, -103.90751041891053, 268.43505921959877, 0.3200000151991844, -0.2240000106394291, 0.9280000440776348, 0.0, 0.0, 0.0, 0.0, 0.0, 1.6506678912776313E9, 0.0, 2022-04-22 17:51:31.277
33.0, 113.26287015806884, -188.71722171409056, -101.97772204177454, 271.9767444776371, 0.3200000151991844, -0.2240000106394291, 0.9280000440776348, 0.0, 0.0, 0.0, 0.0, 0.0, 1.6506678912932794E9, 0.0, 2022-04-22 17:51:31.293
33.0, 109.051742807962, -187.41199662955478, -96.74186210380867, 284.8756594248116, 0.3200000151991844, -0.2240000106394291, 0.9280000440776348, 0.0, 0.0, 0.0, 0.0, 0.0, 1.6506678912932794E9, 0.0, 2022-04-22 17:51:31.293
34.0, 114.40353964455426, -177.8789916425012, -88.05033460678533, 288.71279677934945, 0.3200000151991844, -0.2240000106394291, 0.9280000440776348, 0.0, 0.0, 0.0, 0.0, 0.0, 1.6506678912939465E9, 0.0, 2022-04-22 17:51:31.293
34.0, 107.8287955224514, -186.32368574244902, -92.3213003561832, 246.47436667978764, 0.3200000151991844, -0.2240000106394291, 0.9280000440776348, 0.0, 0.0, 0.0, 0.0, 0.0, 1.6506678912939465E9, 0.0, 2022-04-22 17:51:31.293
35.0, 116.830734715797, -187.94306242326275, -92.23528265720233, 280.82534777279943, 0.3200000151991844, -0.2240000106394291, 0.9280000440776348, 0.0, 0.0, 0.0, 0.0, 0.0, 1.6506678913238962E9, 0.0, 2022-04-22 17:51:31.323
35.0, 116.04909562505782, -188.5863252156414, -94.62507872888818, 282.4634239533916, 0.3200000151991844, -0.2240000106394291, 0.9280000440776348, 0.0, 0.0, 0.0, 0.0, 0.0, 1.6506678913238962E9, 0.0, 2022-04-22 17:51:31.323
36.0, 109.9792379969731, -179.56194662256166, -94.35580593207851, 274.3590607494116, 0.3200000151991844, -0.2240000106394291, 0.9280000440776348, 0.0, 0.0, 0.0, 0.0, 0.0, 1.6506678913247077E9, 0.0, 2022-04-22 17:51:31.324
36.0, 109.17141960654408, -186.15913014439866, -95.75078861555085, 256.7104728585109, 0.3200000151991844, -0.2240000106394291, 0.9280000440776348, 0.0, 0.0, 0.0, 0.0, 0.0, 1.6506678913247077E9, 0.0, 2022-04-22 17:51:31.324
37.0, 107.5707424255088, -188.32453221874312, -98.74270858010277, 277.5828545112163, 0.3200000151991844, -0.2240000106394291, 0.9280000440776348, 0.0, 0.0, 0.0, 0.0, 0.0, 1.65066789132543E9, 0.0, 2022-04-22 17:51:31.325
37.0, 99.5673565203324, -185.82253914838657, -102.89773743087426, 272.062762176618, 0.3200000151991844, -0.2240000106394291, 0.9280000440776348, 0.0, 0.0, 0.0, 0.0, 0.0, 1.65066789132543E9, 0.0, 2022-04-22 17:51:31.325
38.0, 106.59088863711804, -191.30897238338366, -99.32987287314609, 274.3553208494559, 0.3200000151991844, -0.2240000106394291, 0.9280000440776348, 0.0, 0.0, 0.0, 0.0, 0.0, 1.6506678913376534E9, 0.0, 2022-04-22 17:51:31.337
38.0, 100.03110411483794, -189.04259301023558, -95.20102332206443, 266.1350207468495, 0.3200000151991844, -0.2240000106394291, 0.9280000440776348, 0.0, 0.0, 0.0, 0.0, 0.0, 1.6506678913376534E9, 0.0, 2022-04-22 17:51:31.337
39.0, 107.72781822364777, -190.400176694151, -95.83306641457602, 286.5436548050493, 0.3200000151991844, -0.2240000106394291, 0.9280000440776348, 0.0, 0.0, 0.0, 0.0, 0.0, 1.6506678913532803E9, 0.0, 2022-04-22 17:51:31.353
39.0, 106.73674473538995, -189.1809693085961, -93.16277784621343, 275.5782681349665, 0.3200000151991844, -0.2240000106394291, 0.9280000440776348, 0.0, 0.0, 0.0, 0.0, 0.0, 1.6506678913532803E9, 0.0, 2022-04-22 17:51:31.353
40.0, 95.17297407239676, -194.98529403982684, -96.39031150797382, 249.1895340476185, 0.3200000151991844, -0.2240000106394291, 0.9280000440776348, 0.0, 0.0, 0.0, 0.0, 0.0, 1.6506678913540049E9, 0.0, 2022-04-22 17:51:31.354
40.0, 102.26008448842913, -192.23272767243907, -93.7686416390352, 268.4612385192886, 0.3200000151991844, -0.2240000106394291, 0.9280000440776348, 0.0, 0.0, 0.0, 0.0, 0.0, 1.6506678913540049E9, 0.0, 2022-04-22 17:51:31.354
41.0, 99.51125802099705, -189.6222775033675, -97.11211219942197, 261.3516887035221, 0.3200000151991844, -0.2400000113993883, 0.9280000440776348, 0.0, 0.0, 0.0, 0.0, 0.0, 1.6506678913675857E9, 0.0, 2022-04-22 17:51:31.367
41.0, 97.80960354115814, -197.24793351301923, -100.3994842604734, 268.14708692301065, 0.3200000151991844, -0.2400000113993883, 0.9280000440776348, 0.0, 0.0, 0.0, 0.0, 0.0, 1.6506678913675857E9, 0.0, 2022-04-22 17:51:31.367
42.0, 96.3809617580846, -204.35748332878575, -102.14601753978059, 265.6862327521667, 0.3200000151991844, -0.2400000113993883, 0.9280000440776348, 0.0, 0.0, 0.0, 0.0, 0.0, 1.6506678913832388E9, 0.0, 2022-04-22 17:51:31.383
42.0, 92.53634460363537, -200.23237367765978, -105.4371295007877, 267.2719503333792, 0.3200000151991844, -0.2400000113993883, 0.9280000440776348, 0.0, 0.0, 0.0, 0.0, 0.0, 1.6506678913832388E9, 0.0, 2022-04-22 17:51:31.383
43.0, 97.95545963943005, -193.64640985568985, -100.40322416042909, 267.26073063351214, 0.3200000151991844, -0.2400000113993883, 0.9280000440776348, 0.0, 0.0, 0.0, 0.0, 0.0, 1.6506678913839655E9, 0.0, 2022-04-22 17:51:31.383
43.0, 95.25899177137762, -194.27845294820145, -109.93248924752697, 257.9708191435784, 0.3200000151991844, -0.2400000113993883, 0.9280000440776348, 0.0, 0.0, 0.0, 0.0, 0.0, 1.6506678913839655E9, 0.0, 2022-04-22 17:51:31.383
44.0, 89.85483633540571, -203.1906345426105, -108.72450156183913, 257.8623620448634, 0.3200000151991844, -0.2400000113993883, 0.9280000440776348, 0.0, 0.0, 0.0, 0.0, 0.0, 1.6506678913976324E9, 0.0, 2022-04-22 17:51:31.397
44.0, 100.82022300548851, -187.83086542459205, -94.37076553190127, 278.6973446980119, 0.3200000151991844, -0.2400000113993883, 0.9280000440776348, 0.0, 0.0, 0.0, 0.0, 0.0, 1.6506678913976324E9, 0.0, 2022-04-22 17:51:31.397
45.0, 104.866794757545, -193.26494006020948, -90.02874168334529, 264.9868714604527, 0.3200000151991844, -0.2400000113993883, 0.9280000440776348, 0.0, 0.0, 0.0, 0.0, 0.0, 1.650667891413192E9, 0.0, 2022-04-22 17:51:31.413
45.0, 99.06620992626995, -188.3320120186545, -97.61699869344011, 265.1701265582815, 0.3200000151991844, -0.2400000113993883, 0.9280000440776348, 0.0, 0.0, 0.0, 0.0, 0.0, 1.650667891413192E9, 0.0, 2022-04-22 17:51:31.413
46.0, 94.45865318085998, -193.8184452536516, -96.2519352096133, 269.62060750555247, 0.3200000151991844, -0.2400000113993883, 0.9280000440776348, 0.0, 0.0, 0.0, 0.0, 0.0, 1.650667891413915E9, 0.0, 2022-04-22 17:51:31.413
46.0, 93.36286249384284, -186.92954953527078, -94.76345502724871, 261.2694109044969, 0.3200000151991844, -0.2400000113993883, 0.9280000440776348, 0.0, 0.0, 0.0, 0.0, 0.0, 1.650667891413915E9, 0.0, 2022-04-22 17:51:31.413
47.0, 92.83179670013487, -184.28170036664233, -101.27088095014915, 264.51564406603575, 0.3200000151991844, -0.2400000113993883, 0.9280000440776348, 0.0, 0.0, 0.0, 0.0, 0.0, 1.6506678914275286E9, 0.0, 2022-04-22 17:51:31.427
47.0, 98.62864163145423, -182.68476308556274, -100.75103485630825, 275.8400611318648, 0.3200000151991844, -0.2400000113993883, 0.9280000440776348, 0.0, 0.0, 0.0, 0.0, 0.0, 1.6506678914275286E9, 0.0, 2022-04-22 17:51:31.427
48.0, 88.35513645317405, -188.22729481989518, -100.55656005861238, 264.6054016649723, 0.3200000151991844, -0.2400000113993883, 0.9280000440776348, 0.0, 0.0, 0.0, 0.0, 0.0, 1.6506678914431987E9, 0.0, 2022-04-22 17:51:31.443
48.0, 92.7083800015971, -198.3699034997262, -96.60722570540383, 270.5368829946965, 0.3200000151991844, -0.2400000113993883, 0.9280000440776348, 0.0, 0.0, 0.0, 0.0, 0.0, 1.6506678914431987E9, 0.0, 2022-04-22 17:51:31.443
49.0, 90.87582902330905, -188.2908731191419, -97.83391289087012, 270.22273139841855, 0.3200000151991844, -0.2400000113993883, 0.9280000440776348, 0.0, 0.0, 0.0, 0.0, 0.0, 1.6506678914439173E9, 0.0, 2022-04-22 17:51:31.443
49.0, 87.36032306496054, -187.3297188305296, -98.26774128573015, 263.6891261758283, 0.3200000151991844, -0.2400000113993883, 0.9280000440776348, 0.0, 0.0, 0.0, 0.0, 0.0, 1.6506678914439173E9, 0.0, 2022-04-22 17:51:31.443
50.0, 88.10456315614283, -190.28423979552463, -96.8054404030554, 255.1621542768553, 0.3200000151991844, -0.2400000113993883, 0.9280000440776348, 0.0, 0.0, 0.0, 0.0, 0.0, 1.6506678914575667E9, 0.0, 2022-04-22 17:51:31.457
50.0, 82.47227382287383, -191.27905318373814, -98.78010757965967, 236.80298539437354, 0.3200000151991844, -0.2400000113993883, 0.9280000440776348, 0.0, 0.0, 0.0, 0.0, 0.0, 1.6506678914575667E9, 0.0, 2022-04-22 17:51:31.457
51.0, 88.17562125530094, -197.76777960686013, -88.5028625014238, 276.03453592956066, 0.3200000151991844, -0.2240000106394291, 0.9280000440776348, 0.0, 0.0, 0.0, 0.0, 0.0, 1.6506678914733024E9, 0.0, 2022-04-22 17:51:31.473
51.0, 100.04232381470501, -180.00325481733307, -81.85706028016284, 282.9458710476756, 0.3200000151991844, -0.2240000106394291, 0.9280000440776348, 0.0, 0.0, 0.0, 0.0, 0.0, 1.6506678914733024E9, 0.0, 2022-04-22 17:51:31.473
52.0, 89.5967832384631, -179.05332022858784, -90.12223918223754, 262.5970753887668, 0.3040000144392252, -0.2240000106394291, 0.9280000440776348, 0.0, 0.0, 0.0, 0.0, 0.0, 1.650667891473956E9, 0.0, 2022-04-22 17:51:31.473
52.0, 98.10879553761333, -178.57461303425953, -84.42637154972181, 282.59058055188507, 0.3040000144392252, -0.2240000106394291, 0.9280000440776348, 0.0, 0.0, 0.0, 0.0, 0.0, 1.650667891473956E9, 0.0, 2022-04-22 17:51:31.473
53.0, 95.77509796526283, -175.41439757170156, -90.11101948237047, 272.3918733727187, 0.3040000144392252, -0.2240000106394291, 0.9280000440776348, 0.0, 0.0, 0.0, 0.0, 0.0, 1.6506678914874992E9, 0.0, 2022-04-22 17:51:31.487
53.0, 83.2987917130813, -186.17034984426573, -94.64003832871094, 262.4586990904063, 0.3040000144392252, -0.2240000106394291, 0.9280000440776348, 0.0, 0.0, 0.0, 0.0, 0.0, 1.6506678914874992E9, 0.0, 2022-04-22 17:51:31.487
54.0, 93.99864548631012, -174.34104628441855, -91.18811066960916, 268.70433201640844, 0.3040000144392252, -0.2240000106394291, 0.9280000440776348, 0.0, 0.0, 0.0, 0.0, 0.0, 1.6506678915032763E9, 0.0, 2022-04-22 17:51:31.503
54.0, 85.02288559265435, -188.8892571120523, -89.7295496868901, 269.39995340816677, 0.3040000144392252, -0.2240000106394291, 0.9280000440776348, 0.0, 0.0, 0.0, 0.0, 0.0, 1.6506678915032763E9, 0.0, 2022-04-22 17:51:31.503
55.0, 90.04557123314589, -180.12293161591515, -94.26230843318626, 276.77503612078726, 0.3040000144392252, -0.2240000106394291, 0.9280000440776348, 0.0, 0.0, 0.0, 0.0, 0.0, 1.6506678915040057E9, 0.0, 2022-04-22 17:51:31.504
55.0, 90.3036243300885, -175.66871076868847, -93.24131574528292, 252.970572902821, 0.3040000144392252, -0.2240000106394291, 0.9280000440776348, 0.0, 0.0, 0.0, 0.0, 0.0, 1.6506678915040057E9, 0.0, 2022-04-22 17:51:31.504
56.0, 99.98996521532536, -188.37315091816708, -93.01318184798583, 261.4264867026359, 0.3040000144392252, -0.2240000106394291, 0.9280000440776348, 0.0, 0.0, 0.0, 0.0, 0.0, 1.6506678915175798E9, 0.0, 2022-04-22 17:51:31.517
56.0, 89.75759893655777, -193.05176576273516, -102.81545963184908, 276.838614420034, 0.3040000144392252, -0.2240000106394291, 0.9280000440776348, 0.0, 0.0, 0.0, 0.0, 0.0, 1.6506678915175798E9, 0.0, 2022-04-22 17:51:31.517
57.0, 80.75939964316785, -192.02329327492043, -100.5864792582579, 268.094728323631, 0.3040000144392252, -0.2240000106394291, 0.9280000440776348, 0.0, 0.0, 0.0, 0.0, 0.0, 1.6506678915332396E9, 0.0, 2022-04-22 17:51:31.533
57.0, 86.6347824735567, -191.17059608502313, -96.98121570097283, 264.7288183635101, 0.3040000144392252, -0.2240000106394291, 0.9280000440776348, 0.0, 0.0, 0.0, 0.0, 0.0, 1.6506678915332396E9, 0.0, 2022-04-22 17:51:31.533
58.0, 83.63538270909339, -195.05635213898495, -95.53013451816514, 273.6896186573431, 0.3040000144392252, -0.2240000106394291, 0.9280000440776348, 0.0, 0.0, 0.0, 0.0, 0.0, 1.6506678915339575E9, 0.0, 2022-04-22 17:51:31.533
58.0, 88.42993445228785, -188.18989582033828, -103.79905332019553, 286.78300840221345, 0.3040000144392252, -0.2240000106394291, 0.9280000440776348, 0.0, 0.0, 0.0, 0.0, 0.0, 1.6506678915339575E9, 0.0, 2022-04-22 17:51:31.533
59.0, 89.96329343412071, -189.57365880394354, -93.97433613659814, 289.5542742693797, 0.3040000144392252, -0.2240000106394291, 0.9280000440776348, 0.0, 0.0, 0.0, 0.0, 0.0, 1.6506678915475757E9, 0.0, 2022-04-22 17:51:31.547
59.0, 92.53260470367968, -187.85704472428188, -92.48585595423356, 295.56429349817336, 0.3040000144392252, -0.2240000106394291, 0.9280000440776348, 0.0, 0.0, 0.0, 0.0, 0.0, 1.6506678915475757E9, 0.0, 2022-04-22 17:51:31.547
60.0, 90.24752583075315, -187.35589813021943, -93.34977284399793, 263.47969177830964, 0.3040000144392252, -0.2240000106394291, 0.9280000440776348, 0.0, 0.0, 0.0, 0.0, 0.0, 1.650667891563285E9, 0.0, 2022-04-22 17:51:31.563
60.0, 91.20494021940976, -179.9882952175103, -89.49393598968163, 284.2174370326102, 0.3040000144392252, -0.2240000106394291, 0.9280000440776348, 0.0, 0.0, 0.0, 0.0, 0.0, 1.650667891563285E9, 0.0, 2022-04-22 17:51:31.563
61.0, 82.446094523184, -183.53372037550434, -91.98470936017111, 280.6420926749706, 0.3040000144392252, -0.2240000106394291, 0.9280000440776348, 0.0, 0.0, 0.0, 0.0, 0.0, 1.6506678915639958E9, 0.0, 2022-04-22 17:51:31.563
61.0, 80.30687174852937, -190.53855299251154, -89.51263548946008, 288.211650185287, 0.3040000144392252, -0.2240000106394291, 0.9280000440776348, 0.0, 0.0, 0.0, 0.0, 0.0, 1.6506678915639958E9, 0.0, 2022-04-22 17:51:31.563
62.0, 85.47167358733714, -182.83809898374602, -87.47439001360908, 293.9972754167393, 0.3200000151991844, -0.2240000106394291, 0.9280000440776348, 0.0, 0.0, 0.0, 0.0, 0.0, 1.6506678915776122E9, 0.0, 2022-04-22 17:51:31.577
62.0, 89.58930343855172, -178.35021903691813, -92.81496715033427, 285.08135392237455, 0.3200000151991844, -0.2240000106394291, 0.9280000440776348, 0.0, 0.0, 0.0, 0.0, 0.0, 1.6506678915776122E9, 0.0, 2022-04-22 17:51:31.577
63.0, 81.65697563253343, -183.27566727856174, -95.37305872002617, 282.92343164794147, 0.3200000151991844, -0.2240000106394291, 0.9280000440776348, 0.0, 0.0, 0.0, 0.0, 0.0, 1.650667891593737E9, 0.0, 2022-04-22 17:51:31.593
63.0, 77.67398217972368, -188.2160751200281, -102.59854543441907, 281.9136586599052, 0.3200000151991844, -0.2240000106394291, 0.9280000440776348, 0.0, 0.0, 0.0, 0.0, 0.0, 1.650667891593737E9, 0.0, 2022-04-22 17:51:31.593
64.0, 85.8568832827732, -188.41054991772398, -100.60891865799204, 275.4735509362072, 0.3200000151991844, -0.2240000106394291, 0.9280000440776348, 0.0, 0.0, 0.0, 0.0, 0.0, 1.6506678916079872E9, 0.0, 2022-04-22 17:51:31.607
64.0, 86.46274707559496, -180.83725250745192, -92.56439385330305, 260.58874911256135, 0.3200000151991844, -0.2240000106394291, 0.9280000440776348, 0.0, 0.0, 0.0, 0.0, 0.0, 1.6506678916079872E9, 0.0, 2022-04-22 17:51:31.607
65.0, 80.47142734657973, -185.76644064905122, -95.20102332206443, 261.01509770751, 0.3200000151991844, -0.2240000106394291, 0.9280000440776348, 0.0, 0.0, 0.0, 0.0, 0.0, 1.6506678916240177E9, 0.0, 2022-04-22 17:51:31.624
65.0, 85.7820852836594, -182.94655608246103, -101.18860315112397, 272.62374716997147, 0.3200000151991844, -0.2240000106394291, 0.9280000440776348, 0.0, 0.0, 0.0, 0.0, 0.0, 1.6506678916240177E9, 0.0, 2022-04-22 17:51:31.624
66.0, 88.75904564838856, -185.45228905277327, -99.64776436937973, 270.8360749911517, 0.3200000151991844, -0.2240000106394291, 0.9280000440776348, 0.0, 0.0, 0.0, 0.0, 0.0, 1.6506678916246707E9, 0.0, 2022-04-22 17:51:31.624
66.0, 81.02867243997753, -189.02015361050144, -98.60059238178656, 266.2808768451214, 0.3200000151991844, -0.2240000106394291, 0.9280000440776348, 0.0, 0.0, 0.0, 0.0, 0.0, 1.6506678916246707E9, 0.0, 2022-04-22 17:51:31.624
67.0, 80.13109645061195, -189.80553260119632, -91.28908796841279, 283.23010344430804, 0.3200000151991844, -0.2240000106394291, 0.9280000440776348, 0.0, 0.0, 0.0, 0.0, 0.0, 1.6506678916254919E9, 0.0, 2022-04-22 17:51:31.625
67.0, 81.76169283129275, -184.6220312626101, -90.18207758152857, 280.8739664722234, 0.3200000151991844, -0.2240000106394291, 0.9280000440776348, 0.0, 0.0, 0.0, 0.0, 0.0, 1.6506678916254919E9, 0.0, 2022-04-22 17:51:31.625
68.0, 84.69377439655364, -189.6297573032789, -86.04200833057985, 271.6438933815807, 0.3200000151991844, -0.2240000106394291, 0.9280000440776348, 0.0, 0.0, 0.0, 0.0, 0.0, 1.6506678916376152E9, 0.0, 2022-04-22 17:51:31.637
68.0, 86.72080017253757, -180.33610591338947, -85.33890713891014, 261.55738320108503, 0.3200000151991844, -0.2240000106394291, 0.9280000440776348, 0.0, 0.0, 0.0, 0.0, 0.0, 1.6506678916376152E9, 0.0, 2022-04-22 17:51:31.637
69.0, 76.49965359363705, -180.6577373095788, -87.48560971347615, 263.47595187835395, 0.3200000151991844, -0.2240000106394291, 0.9280000440776348, 0.0, 0.0, 0.0, 0.0, 0.0, 1.6506678916532524E9, 0.0, 2022-04-22 17:51:31.653
69.0, 82.80512491893023, -190.61335099162534, -89.2097035930492, 267.8366752266884, 0.3200000151991844, -0.2240000106394291, 0.9280000440776348, 0.0, 0.0, 0.0, 0.0, 0.0, 1.6506678916532524E9, 0.0, 2022-04-22 17:51:31.653
70.0, 88.3775758529082, -172.9161444013007, -87.5043092132546, 274.3815001491457, 0.3200000151991844, -0.2240000106394291, 0.9280000440776348, 0.0, 0.0, 0.0, 0.0, 0.0, 1.650667891654029E9, 0.0, 2022-04-22 17:51:31.654
70.0, 80.89403604157269, -171.9138512131758, -95.40671781962737, 272.52650977112353, 0.3200000151991844, -0.2240000106394291, 0.9280000440776348, 0.0, 0.0, 0.0, 0.0, 0.0, 1.650667891654029E9, 0.0, 2022-04-22 17:51:31.654
71.0, 81.71681403182447, -173.11061919899657, -94.5839398293756, 273.9140126546845, 0.3200000151991844, -0.2240000106394291, 0.9280000440776348, 0.0, 0.0, 0.0, 0.0, 0.0, 1.6506678916675913E9, 0.0, 2022-04-22 17:51:31.667
71.0, 82.38251622393727, -161.80490163294598, -92.2091033575125, 263.62554787658155, 0.3200000151991844, -0.2240000106394291, 0.9280000440776348, 0.0, 0.0, 0.0, 0.0, 0.0, 1.6506678916675913E9, 0.0, 2022-04-22 17:51:31.667
72.0, 86.49640617519617, -159.03737566573545, -99.56174667039886, 275.2154978392646, 0.3200000151991844, -0.2240000106394291, 0.9280000440776348, 0.0, 0.0, 0.0, 0.0, 0.0, 1.6506678916832883E9, 0.0, 2022-04-22 17:51:31.683
72.0, 83.95327420532703, -165.48870308930054, -113.5190533050336, 271.5653554825112, 0.3200000151991844, -0.2240000106394291, 0.9280000440776348, 0.0, 0.0, 0.0, 0.0, 0.0, 1.6506678916832883E9, 0.0, 2022-04-22 17:51:31.683
73.0, 88.97221994586289, -155.02820291323587, -102.98375512985513, 264.96069216076285, 0.3200000151991844, -0.2240000106394291, 0.9280000440776348, 0.0, 0.0, 0.0, 0.0, 0.0, 1.650667891684013E9, 0.0, 2022-04-22 17:51:31.684
73.0, 88.42619455233216, -158.15849917614833, -110.53087324043736, 264.62036126479506, 0.3200000151991844, -0.2240000106394291, 0.9280000440776348, 0.0, 0.0, 0.0, 0.0, 0.0, 1.650667891684013E9, 0.0, 2022-04-22 17:51:31.684
74.0, 88.51221225131303, -153.31906863348559, -112.79725261358544, 269.0932816118002, 0.3200000151991844, -0.2240000106394291, 0.9280000440776348, 0.0, 0.0, 0.0, 0.0, 0.0, 1.6506678916975665E9, 0.0, 2022-04-22 17:51:31.697
74.0, 84.23002680204809, -152.90019983844832, -114.13239689776674, 255.65208117105067, 0.3200000151991844, -0.2240000106394291, 0.9280000440776348, 0.0, 0.0, 0.0, 0.0, 0.0, 1.6506678916975665E9, 0.0, 2022-04-22 17:51:31.697
75.0, 94.91492097545415, -145.33438222808763, -118.38840304734185, 268.40140011999756, 0.3200000151991844, -0.2240000106394291, 0.9280000440776348, 0.0, 0.0, 0.0, 0.0, 0.0, 1.650667891713285E9, 0.0, 2022-04-22 17:51:31.713
75.0, 97.23739884793758, -155.25259691057727, -116.7017081673257, 272.7583835683763, 0.3200000151991844, -0.2240000106394291, 0.9280000440776348, 0.0, 0.0, 0.0, 0.0, 0.0, 1.650667891713285E9, 0.0, 2022-04-22 17:51:31.713
76.0, 100.24801831226796, -150.6824391647242, -112.47562121739611, 274.3441011495888, 0.3200000151991844, -0.2240000106394291, 0.9280000440776348, 0.0, 0.0, 0.0, 0.0, 0.0, 1.6506678917140467E9, 0.0, 2022-04-22 17:51:31.714
76.0, 98.95775282755494, -160.6904114461504, -113.04408601066098, 251.0819234251976, 0.3200000151991844, -0.2240000106394291, 0.9280000440776348, 0.0, 0.0, 0.0, 0.0, 0.0, 1.6506678917140467E9, 0.0, 2022-04-22 17:51:31.714
77.0, 104.18239306565374, -158.5736280712299, -114.89533648872748, 277.0106498179957, 0.3200000151991844, -0.2240000106394291, 0.9280000440776348, 0.0, 0.0, 0.0, 0.0, 0.0, 1.6506678917275362E9, 0.0, 2022-04-22 17:51:31.727
77.0, 109.21629840601236, -157.3132817861624, -110.90860313596204, 266.538929942064, 0.3200000151991844, -0.2240000106394291, 0.9280000440776348, 0.0, 0.0, 0.0, 0.0, 0.0, 1.6506678917275362E9, 0.0, 2022-04-22 17:51:31.727
78.0, 107.91855312138796, -166.3600997789763, -118.31360504822806, 254.4515732852742, 0.3200000151991844, -0.2240000106394291, 0.9280000440776348, 0.0, 0.0, 0.0, 0.0, 0.0, 1.65066789174325E9, 0.0, 2022-04-22 17:51:31.743
78.0, 118.01628300175071, -154.70283161709085, -117.08691786276177, 263.969618672505, 0.3200000151991844, -0.2240000106394291, 0.9280000440776348, 0.0, 0.0, 0.0, 0.0, 0.0, 1.65066789174325E9, 0.0, 2022-04-22 17:51:31.743
79.0, 122.354566950351, -158.7269639694132, -116.17812217352912, 270.95575178973377, 0.3200000151991844, -0.2240000106394291, 0.9280000440776348, 0.0, 0.0, 0.0, 0.0, 0.0, 1.6506678917439656E9, 0.0, 2022-04-22 17:51:31.743
79.0, 126.89480549655855, -171.60717941680923, -113.80702560162172, 261.5349438013509, 0.3200000151991844, -0.2240000106394291, 0.9280000440776348, 0.0, 0.0, 0.0, 0.0, 0.0, 1.6506678917439656E9, 0.0, 2022-04-22 17:51:31.743
80.0, 127.98311638366431, -173.43973039509729, -120.79315871885046, 265.67127315234393, 0.3200000151991844, -0.2240000106394291, 0.9280000440776348, 0.0, 0.0, 0.0, 0.0, 0.0, 1.6506678917575316E9, 0.0, 2022-04-22 17:51:31.757
80.0, 125.81397440936416, -174.22510938579217, -123.46344728721306, 249.96369333844632, 0.3200000151991844, -0.2240000106394291, 0.9280000440776348, 0.0, 0.0, 0.0, 0.0, 0.0, 1.6506678917575316E9, 0.0, 2022-04-22 17:51:31.757
81.0, 131.88757193740457, -174.468202882912, -116.58203136874363, 249.20075374748558, 0.3200000151991844, -0.2240000106394291, 0.9280000440776348, 0.0, 0.0, 0.0, 0.0, 0.0, 1.6506678917732701E9, 0.0, 2022-04-22 17:51:31.773
81.0, 138.97094245348126, -164.8753594965674, -112.63269701553509, 281.1245397692546, 0.3200000151991844, -0.2240000106394291, 0.9280000440776348, 0.0, 0.0, 0.0, 0.0, 0.0, 1.6506678917732701E9, 0.0, 2022-04-22 17:51:31.773
82.0, 135.23104249779135, -174.79357417905703, -111.47332802927122, 268.0872485237196, 0.3200000151991844, -0.2240000106394291, 0.9280000440776348, 0.0, 0.0, 0.0, 0.0, 0.0, 1.6506678917739604E9, 0.0, 2022-04-22 17:51:31.773
82.0, 131.2854480445385, -182.1088184923865, -116.40251617087051, 264.4932046663016, 0.3200000151991844, -0.2240000106394291, 0.9280000440776348, 0.0, 0.0, 0.0, 0.0, 0.0, 1.6506678917739604E9, 0.0, 2022-04-22 17:51:31.773
83.0, 140.60901863407344, -173.55940719367936, -113.81824530148879, 270.52192339487374, 0.3200000151991844, -0.2240000106394291, 0.9280000440776348, 0.0, 0.0, 0.0, 0.0, 0.0, 1.6506678917876322E9, 0.0, 2022-04-22 17:51:31.787
83.0, 142.5911656105891, -167.00710247131065, -109.96614834712818, 275.3950130371377, 0.3200000151991844, -0.2240000106394291, 0.9280000440776348, 0.0, 0.0, 0.0, 0.0, 0.0, 1.6506678917876322E9, 0.0, 2022-04-22 17:51:31.787
84.0, 139.81989974342287, -171.8091340144165, -106.86203138390556, 268.094728323631, 0.3200000151991844, -0.2240000106394291, 0.9280000440776348, 0.0, 0.0, 0.0, 0.0, 0.0, 1.6506678918033223E9, 0.0, 2022-04-22 17:51:31.803
84.0, 136.7681413795799, -178.60079233394936, -113.0328663107939, 261.2394917048514, 0.3200000151991844, -0.2240000106394291, 0.9280000440776348, 0.0, 0.0, 0.0, 0.0, 0.0, 1.6506678918033223E9, 0.0, 2022-04-22 17:51:31.803
85.0, 141.38317792490125, -175.8407461666502, -115.31420528376475, 272.7172446688637, 0.3200000151991844, -0.2240000106394291, 0.9280000440776348, 0.0, 0.0, 0.0, 0.0, 0.0, 1.650667891804001E9, 0.0, 2022-04-22 17:51:31.804
85.0, 139.98445534147322, -173.48460919456556, -110.53835304034874, 271.9917040774599, 0.3200000151991844, -0.2240000106394291, 0.9280000440776348, 0.0, 0.0, 0.0, 0.0, 0.0, 1.650667891804001E9, 0.0, 2022-04-22 17:51:31.804
86.0, 133.83231991436332, -174.90951107768342, -108.47392826480791, 264.5044243661687, 0.3200000151991844, -0.2240000106394291, 0.9280000440776348, 0.0, 0.0, 0.0, 0.0, 0.0, 1.650667891817623E9, 0.0, 2022-04-22 17:51:31.817
86.0, 132.12318563461304, -168.8733125491999, -106.26738729095086, 250.83882992807776, 0.3200000151991844, -0.2240000106394291, 0.9280000440776348, 0.0, 0.0, 0.0, 0.0, 0.0, 1.650667891817623E9, 0.0, 2022-04-22 17:51:31.817
87.0, 129.86802596133202, -172.85256610205397, -109.09849155740812, 265.07288915943354, 0.3200000151991844, -0.2240000106394291, 0.9280000440776348, 0.0, 0.0, 0.0, 0.0, 0.0, 1.650667891833332E9, 0.0, 2022-04-22 17:51:31.833
87.0, 131.62951884046197, -170.25333563284948, -104.1805231156759, 261.3105498040095, 0.3200000151991844, -0.2240000106394291, 0.9280000440776348, 0.0, 0.0, 0.0, 0.0, 0.0, 1.650667891833332E9, 0.0, 2022-04-22 17:51:31.833
88.0, 134.90941110160202, -166.0272486829199, -100.90437075449154, 267.2308114338666, 0.3200000151991844, -0.2240000106394291, 0.9280000440776348, 0.0, 0.0, 0.0, 0.0, 0.0, 1.6506678918340516E9, 0.0, 2022-04-22 17:51:31.834
88.0, 133.67150421626866, -166.52839527698234, -103.19318952737376, 268.90254671406, 0.3200000151991844, -0.2240000106394291, 0.9280000440776348, 0.0, 0.0, 0.0, 0.0, 0.0, 1.6506678918340516E9, 0.0, 2022-04-22 17:51:31.834
89.0, 128.85825297329575, -170.56374732917175, -107.56139267561957, 254.2720580874011, 0.3200000151991844, -0.2240000106394291, 0.9280000440776348, 0.0, 0.0, 0.0, 0.0, 0.0, 1.6506678918476903E9, 0.0, 2022-04-22 17:51:31.847
89.0, 132.5046554300934, -166.38627907866612, -106.09909179294482, 272.9865174656734, 0.3200000151991844, -0.2240000106394291, 0.9280000440776348, 0.0, 0.0, 0.0, 0.0, 0.0, 1.6506678918476903E9, 0.0, 2022-04-22 17:51:31.847
90.0, 132.78514792677015, -165.78415518580005, -104.22914181509987, 265.7535509513691, 0.3200000151991844, -0.2240000106394291, 0.9280000440776348, 0.0, 0.0, 0.0, 0.0, 0.0, 1.650667891879679E9, 0.0, 2022-04-22 17:51:31.879
90.0, 129.14996516983956, -173.93713708920404, -103.19318952737376, 265.83956865035, 0.3200000151991844, -0.2240000106394291, 0.9280000440776348, 0.0, 0.0, 0.0, 0.0, 0.0, 1.650667891879679E9, 0.0, 2022-04-22 17:51:31.879
91.0, 128.2823083801195, -174.78609437914565, -101.94406294217333, 260.55509001296014, 0.3200000151991844, -0.2240000106394291, 0.9280000440776348, 0.0, 0.0, 0.0, 0.0, 0.0, 1.6506678918805265E9, 0.0, 2022-04-22 17:51:31.880
91.0, 128.49174277763814, -177.22450915025547, -106.82463238434866, 256.07094996608794, 0.3200000151991844, -0.2240000106394291, 0.9280000440776348, 0.0, 0.0, 0.0, 0.0, 0.0, 1.6506678918805265E9, 0.0, 2022-04-22 17:51:31.880
92.0, 130.63844535220414, -177.2918273494579, -108.93019605940208, 280.21948397997767, 0.3200000151991844, -0.2240000106394291, 0.9280000440776348, 0.0, 0.0, 0.0, 0.0, 0.0, 1.6506678918811555E9, 0.0, 2022-04-22 17:51:31.881
92.0, 124.1310194293037, -178.2155826385133, -103.45498252427205, 273.9514116542414, 0.3200000151991844, -0.2240000106394291, 0.9280000440776348, 0.0, 0.0, 0.0, 0.0, 0.0, 1.6506678918811555E9, 0.0, 2022-04-22 17:51:31.881
93.0, 126.35999980289489, -174.842192878481, -94.42686403123662, 275.26411653868854, 0.3200000151991844, -0.2240000106394291, 0.9280000440776348, 0.0, 0.0, 0.0, 0.0, 0.0, 1.6506678918818767E9, 0.0, 2022-04-22 17:51:31.881
93.0, 120.49583667237312, -178.33899933705106, -100.77721415599808, 270.17785259895027, 0.3200000151991844, -0.2240000106394291, 0.9280000440776348, 0.0, 0.0, 0.0, 0.0, 0.0, 1.6506678918818767E9, 0.0, 2022-04-22 17:51:31.881
94.0, 122.34708715043962, -179.401130924467, -100.82583285542205, 279.9539510831237, 0.3200000151991844, -0.2240000106394291, 0.9280000440776348, 0.0, 0.0, 0.0, 0.0, 0.0, 1.650667891892552E9, 0.0, 2022-04-22 17:51:31.892
94.0, 120.13680627662688, -185.2204152555205, -97.98350888909772, 268.6893724165857, 0.3200000151991844, -0.2240000106394291, 0.9280000440776348, 0.0, 0.0, 0.0, 0.0, 0.0, 1.650667891892552E9, 0.0, 2022-04-22 17:51:31.892
95.0, 120.2415234753862, -182.16491699172184, -96.09111951151863, 268.4649784192443, 0.3200000151991844, -0.2240000106394291, 0.9280000440776348, 0.0, 0.0, 0.0, 0.0, 0.0, 1.6506678919076023E9, 0.0, 2022-04-22 17:51:31.907
95.0, 112.5335896667093, -177.0337742525153, -96.67828380456194, 245.8198841875419, 0.3200000151991844, -0.2240000106394291, 0.9280000440776348, 0.0, 0.0, 0.0, 0.0, 0.0, 1.6506678919076023E9, 0.0, 2022-04-22 17:51:31.907
96.0, 113.22173125855625, -172.5047554061748, -95.29452082095668, 263.7938433745876, 0.3200000151991844, -0.2240000106394291, 0.9280000440776348, 0.0, 0.0, 0.0, 0.0, 0.0, 1.6506678919232323E9, 0.0, 2022-04-22 17:51:31.923
96.0, 110.77957658749074, -178.1781836389564, -103.61205832241103, 269.29897610936314, 0.3200000151991844, -0.2240000106394291, 0.9280000440776348, 0.0, 0.0, 0.0, 0.0, 0.0, 1.6506678919232323E9, 0.0, 2022-04-22 17:51:31.923
97.0, 110.7197381881997, -178.30908013740554, -100.44810295989737, 263.88360097352415, 0.3200000151991844, -0.2240000106394291, 0.9280000440776348, 0.0, 0.0, 0.0, 0.0, 0.0, 1.6506678919239852E9, 0.0, 2022-04-22 17:51:31.923
97.0, 111.18348578270525, -179.56568652251735, -94.61011912906542, 276.85357401985675, 0.3200000151991844, -0.2240000106394291, 0.9280000440776348, 0.0, 0.0, 0.0, 0.0, 0.0, 1.6506678919239852E9, 0.0, 2022-04-22 17:51:31.923
98.0, 110.91421298589557, -182.3593917894177, -91.23298946907744, 278.12140010483563, 0.3200000151991844, -0.2240000106394291, 0.9280000440776348, 0.0, 0.0, 0.0, 0.0, 0.0, 1.650667891937572E9, 0.0, 2022-04-22 17:51:31.937
98.0, 110.91421298589557, -186.35360494209453, -94.30344733269885, 274.00003035366535, 0.3200000151991844, -0.2240000106394291, 0.9280000440776348, 0.0, 0.0, 0.0, 0.0, 0.0, 1.650667891937572E9, 0.0, 2022-04-22 17:51:31.937
99.0, 115.43201213236898, -180.44830291206017, -95.82558661466464, 277.88578640762717, 0.3200000151991844, -0.2240000106394291, 0.9280000440776348, 0.0, 0.0, 0.0, 0.0, 0.0, 1.6506678919532824E9, 0.0, 2022-04-22 17:51:31.953
99.0, 111.35552118066698, -180.8409924074076, -95.8442861144431, 271.4307190841064, 0.3200000151991844, -0.2240000106394291, 0.9280000440776348, 0.0, 0.0, 0.0, 0.0, 0.0, 1.6506678919532824E9, 0.0, 2022-04-22 17:51:31.953
100.0, 101.68413989525288, -190.97612128732726, -105.8485184959136, 248.0488645611331, 0.3200000151991844, -0.2240000106394291, 0.9280000440776348, 0.0, 0.0, 0.0, 0.0, 0.0, 1.650667891953953E9, 0.0, 2022-04-22 17:51:31.953
100.0, 107.45480552688241, -185.37749105365947, -103.83645231975242, 269.4597918074578, 0.3200000151991844, -0.2240000106394291, 0.9280000440776348, 0.0, 0.0, 0.0, 0.0, 0.0, 1.650667891953953E9, 0.0, 2022-04-22 17:51:31.953
0.0, 111.82487862510607, -185.58505550120026, -106.33283554017544, 289.11670597456396, 0.3200000151991844, -0.2240000106394291, 0.9280000440776348, 0.0, 0.0, 0.0, 0.0, 0.0, 1.650667891968312E9, 0.0, 2022-04-22 17:51:31.968
1.0, 106.41324338922277, -187.91501317359507, -98.24717183597386, 268.1620465228334, 0.3200000151991844, -0.2240000106394291, 0.9280000440776348, 0.0, 0.0, 0.0, 0.0, 0.0, 1.6506678919690995E9, 0.0, 2022-04-22 17:51:31.969
1.0, 102.59854543441907, -200.350180526264, -97.5253711445257, 261.9351130966097, 0.3200000151991844, -0.2240000106394291, 0.9280000440776348, 0.0, 0.0, 0.0, 0.0, 0.0, 1.6506678919690995E9, 0.0, 2022-04-22 17:51:31.969
2.0, 107.98774127056822, -194.80764879193157, -103.72238537110388, 260.3007768159732, 0.3200000151991844, -0.2240000106394291, 0.9280000440776348, 0.0, 0.0, 0.0, 0.0, 0.0, 1.6506678919825923E9, 0.0, 2022-04-22 17:51:31.982
2.0, 103.46994212409481, -188.96592506114393, -107.21545192971826, 251.7476256173104, 0.3200000151991844, -0.2240000106394291, 0.9280000440776348, 0.0, 0.0, 0.0, 0.0, 0.0, 1.6506678919825923E9, 0.0, 2022-04-22 17:51:31.982
3.0, 107.48659467650577, -191.4641782315448, -97.40943424589932, 279.29572869092226, 0.3200000151991844, -0.2240000106394291, 0.9280000440776348, 0.0, 0.0, 0.0, 0.0, 0.0, 1.6506678919982927E9, 0.0, 2022-04-22 17:51:31.998
3.0, 100.97916875360534, -193.427625708282, -100.44997290987521, 255.0499572781846, 0.3200000151991844, -0.2240000106394291, 0.9280000440776348, 0.0, 0.0, 0.0, 0.0, 0.0, 1.6506678919982927E9, 0.0, 2022-04-22 17:51:31.998
4.0, 104.86492480756715, -207.40737174265087, -109.051742807962, 266.88300073798746, 0.3200000151991844, -0.2240000106394291, 0.9280000440776348, 0.0, 0.0, 0.0, 0.0, 0.0, 1.6506678919990368E9, 0.0, 2022-04-22 17:51:31.999
4.0, 111.69398212665692, -196.5728815710172, -108.40848001558334, 269.276536709629, 0.3200000151991844, -0.2240000106394291, 0.9280000440776348, 0.0, 0.0, 0.0, 0.0, 0.0, 1.6506678919990368E9, 0.0, 2022-04-22 17:51:31.999
5.0, 103.7728740205057, -201.1692186165601, -111.02267008461058, 263.161800282076, 0.3200000151991844, -0.2240000106394291, 0.9280000440776348, 0.0, 0.0, 0.0, 0.0, 0.0, 1.6506678920125833E9, 0.0, 2022-04-22 17:51:32.012
5.0, 114.56996519258246, -200.62693312298506, -105.6446939483285, 268.0610692240298, 0.3200000151991844, -0.2240000106394291, 0.9280000440776348, 0.0, 0.0, 0.0, 0.0, 0.0, 1.6506678920125833E9, 0.0, 2022-04-22 17:51:32.012
6.0, 111.4060098300688, -180.3791147628799, -106.71430533565581, 271.4681180836633, 0.3200000151991844, -0.2240000106394291, 0.9280000440776348, 0.0, 0.0, 0.0, 0.0, 0.0, 1.6506678920282955E9, 0.0, 2022-04-22 17:51:32.028
6.0, 113.9641013997607, -184.85203510988504, -111.59113487787545, 269.29149630945176, 0.3200000151991844, -0.2240000106394291, 0.9280000440776348, 0.0, 0.0, 0.0, 0.0, 0.0, 1.6506678920282955E9, 0.0, 2022-04-22 17:51:32.028
7.0, 112.78977281367406, -185.70099239982665, -115.60030763037503, 270.74631739221513, 0.3200000151991844, -0.2240000106394291, 0.9280000440776348, 0.0, 0.0, 0.0, 0.0, 0.0, 1.6506678920290272E9, 0.0, 2022-04-22 17:51:32.029
7.0, 107.74090787349269, -184.51918401382864, -109.23125800583512, 260.25589801650494, 0.3200000151991844, -0.2240000106394291, 0.9280000440776348, 0.0, 0.0, 0.0, 0.0, 0.0, 1.6506678920290272E9, 0.0, 2022-04-22 17:51:32.029
8.0, 106.93682938301936, -186.6023082891479, -106.55348963756114, 254.70214658230543, 0.3200000151991844, -0.2240000106394291, 0.9280000440776348, 0.0, 0.0, 0.0, 0.0, 0.0, 1.650667892042598E9, 0.0, 2022-04-22 17:51:32.042
8.0, 111.26763353170827, -183.54681002534926, -104.58256236091256, 260.91786030866206, 0.3200000151991844, -0.2240000106394291, 0.9280000440776348, 0.0, 0.0, 0.0, 0.0, 0.0, 1.650667892042598E9, 0.0, 2022-04-22 17:51:32.042
9.0, 98.96710257744417, -190.424486043863, -104.72467855922878, 250.29280453454703, 0.3200000151991844, -0.2240000106394291, 0.9280000440776348, 0.0, 0.0, 0.0, 0.0, 0.0, 1.6506678920582955E9, 0.0, 2022-04-22 17:51:32.058
9.0, 107.10138498106971, -199.5012232363224, -98.4902653330937, 267.3542281324044, 0.3200000151991844, -0.2240000106394291, 0.9280000440776348, 0.0, 0.0, 0.0, 0.0, 0.0, 1.6506678920582955E9, 0.0, 2022-04-22 17:51:32.058
10.0, 107.65863007446751, -194.5757749946788, -101.06705640256405, 271.6476332815364, 0.3200000151991844, -0.2240000106394291, 0.9280000440776348, 0.0, 0.0, 0.0, 0.0, 0.0, 1.6506678920589747E9, 0.0, 2022-04-22 17:51:32.058
10.0, 112.04179282253608, -180.37537486292422, -102.7163522830233, 279.81931468471885, 0.3200000151991844, -0.2240000106394291, 0.9280000440776348, 0.0, 0.0, 0.0, 0.0, 0.0, 1.6506678920589747E9, 0.0, 2022-04-22 17:51:32.058
11.0, 102.98001522989944, -188.89112706203014, -100.10216221399605, 268.44253901951015, 0.3200000151991844, -0.2240000106394291, 0.9280000440776348, 0.0, 0.0, 0.0, 0.0, 0.0, 1.650667892072584E9, 0.0, 2022-04-22 17:51:32.072
11.0, 116.87000366533175, -173.72583274170756, -87.47999986354262, 273.7232777569443, 0.3200000151991844, -0.2240000106394291, 0.9280000440776348, 0.0, 0.0, 0.0, 0.0, 0.0, 1.650667892072584E9, 0.0, 2022-04-22 17:51:32.072
12.0, 108.84043846046552, -177.26003819983453, -91.84072321187705, 253.29968409892172, 0.33600001595914364, -0.2240000106394291, 0.9280000440776348, 0.0, 0.0, 0.0, 0.0, 0.0, 1.6506678920885856E9, 0.0, 2022-04-22 17:51:32.088
12.0, 106.2935665906407, -183.06436293106526, -99.03629072662443, 267.129834135063, 0.33600001595914364, -0.2240000106394291, 0.9280000440776348, 0.0, 0.0, 0.0, 0.0, 0.0, 1.6506678920885856E9, 0.0, 2022-04-22 17:51:32.088
13.0, 102.74814143264666, -184.1975526176393, -104.21979206521064, 260.54761021304876, 0.33600001595914364, -0.2240000106394291, 0.9280000440776348, 0.0, 0.0, 0.0, 0.0, 0.0, 1.6506678920892017E9, 0.0, 2022-04-22 17:51:32.089
13.0, 100.07037306437269, -190.25619054585695, -104.2721506645903, 251.6429084185511, 0.33600001595914364, -0.2240000106394291, 0.9280000440776348, 0.0, 0.0, 0.0, 0.0, 0.0, 1.6506678920892017E9, 0.0, 2022-04-22 17:51:32.089
14.0, 100.92681015422568, -176.9758058032021, -94.3801152817905, 266.2397379456088, 0.33600001595914364, -0.2240000106394291, 0.9280000440776348, 0.0, 0.0, 0.0, 0.0, 0.0, 1.6506678921026323E9, 0.0, 2022-04-22 17:51:32.102
14.0, 99.89085786649957, -183.28875692840666, -95.70777976606041, 261.36664830334485, 0.33600001595914364, -0.2240000106394291, 0.9280000440776348, 0.0, 0.0, 0.0, 0.0, 0.0, 1.6506678921026323E9, 0.0, 2022-04-22 17:51:32.102
15.0, 107.23976127943024, -186.56116938963532, -80.78557894285768, 270.04321620054543, 0.33600001595914364, -0.2240000106394291, 0.9280000440776348, 0.0, 0.0, 0.0, 0.0, 0.0, 1.6506678921185327E9, 0.0, 2022-04-22 17:51:32.118
15.0, 104.13190441625193, -198.69340484589338, -84.94808759354055, 270.03199650067836, 0.33600001595914364, -0.2240000106394291, 0.9280000440776348, 0.0, 0.0, 0.0, 0.0, 0.0, 1.6506678921185327E9, 0.0, 2022-04-22 17:51:32.118
16.0, 95.59745271736756, -207.19045754522085, -78.61643696855754, 270.54810269456357, 0.33600001595914364, -0.2240000106394291, 0.9280000440776348, 0.0, 0.0, 0.0, 0.0, 0.0, 1.650667892119038E9, 0.0, 2022-04-22 17:51:32.119
16.0, 97.22804909804836, -210.68352410383523, -71.24883405584842, 272.29463597387075, 0.33600001595914364, -0.2240000106394291, 0.9280000440776348, 0.0, 0.0, 0.0, 0.0, 0.0, 1.650667892119038E9, 0.0, 2022-04-22 17:51:32.119
17.0, 86.81616762140766, -215.4369369475171, -71.181515856646, 254.17856058850884, 0.33600001595914364, -0.2240000106394291, 0.9280000440776348, 0.0, 0.0, 0.0, 0.0, 0.0, 1.6506678921325576E9, 0.0, 2022-04-22 17:51:32.132
17.0, 89.71459008706734, -219.30773340165615, -76.73152739088982, 253.33708309847862, 0.33600001595914364, -0.2240000106394291, 0.9280000440776348, 0.0, 0.0, 0.0, 0.0, 0.0, 1.6506678921325576E9, 0.0, 2022-04-22 17:51:32.132
18.0, 94.59141962928697, -217.2881874255836, -72.95796833559871, 270.81363559141755, 0.33600001595914364, -0.2240000106394291, 0.9280000440776348, 0.0, 0.0, 0.0, 0.0, 0.0, 1.6506678921483867E9, 0.0, 2022-04-22 17:51:32.148
18.0, 91.70795676345006, -214.8796918541193, -81.88136962987483, 273.67465905752033, 0.33600001595914364, -0.2240000106394291, 0.9280000440776348, 0.0, 0.0, 0.0, 0.0, 0.0, 1.6506678921483867E9, 0.0, 2022-04-22 17:51:32.148
19.0, 86.281361927744, -212.74794887937605, -80.58362434525043, 259.350842227228, 0.33600001595914364, -0.2240000106394291, 0.9280000440776348, 0.0, 0.0, 0.0, 0.0, 0.0, 1.6506678921490705E9, 0.0, 2022-04-22 17:51:32.149
19.0, 95.8068871148862, -208.9182913247496, -76.66046929173172, 273.3979064607993, 0.33600001595914364, -0.2240000106394291, 0.9280000440776348, 0.0, 0.0, 0.0, 0.0, 0.0, 1.6506678921490705E9, 0.0, 2022-04-22 17:51:32.149
20.0, 87.45569051383063, -207.3924121428281, -71.8883569482714, 278.92921849526465, 0.33600001595914364, -0.2240000106394291, 0.9280000440776348, 0.0, 0.0, 0.0, 0.0, 0.0, 1.6506678921625645E9, 0.0, 2022-04-22 17:51:32.162
20.0, 86.27014222787693, -211.83167339023203, -77.76373977866024, 261.0599765069783, 0.33600001595914364, -0.2240000106394291, 0.9280000440776348, 0.0, 0.0, 0.0, 0.0, 0.0, 1.6506678921625645E9, 0.0, 2022-04-22 17:51:32.162
21.0, 93.9144977373071, -206.95858374796808, -65.60158512275666, 275.7914424324408, 0.33600001595914364, -0.2240000106394291, 0.9280000440776348, 0.0, 0.0, 0.0, 0.0, 0.0, 1.650667892178292E9, 0.0, 2022-04-22 17:51:32.178
21.0, 83.6858713584952, -214.35236596036702, -71.3311118548736, 266.27339704521, 0.33600001595914364, -0.2240000106394291, 0.9280000440776348, 0.0, 0.0, 0.0, 0.0, 0.0, 1.650667892178292E9, 0.0, 2022-04-22 17:51:32.178
22.0, 81.58404758339748, -212.28046138491482, -75.14206990972161, 254.38799498602748, 0.35200001671910286, -0.2240000106394291, 0.9280000440776348, 0.0, 0.0, 0.0, 0.0, 0.0, 1.6506678921790664E9, 0.0, 2022-04-22 17:51:32.179
22.0, 86.76754892198369, -198.5737280473113, -74.15473632141948, 258.6851400351152, 0.35200001671910286, -0.2240000106394291, 0.9280000440776348, 0.0, 0.0, 0.0, 0.0, 0.0, 1.6506678921790664E9, 0.0, 2022-04-22 17:51:32.179
23.0, 86.78624842176214, -200.12204662896693, -75.01117341127247, 252.03559791389853, 0.35200001671910286, -0.2240000106394291, 0.9280000440776348, 0.0, 0.0, 0.0, 0.0, 0.0, 1.6506678921926188E9, 0.0, 2022-04-22 17:51:32.192
23.0, 87.5417082128115, -201.62548641115427, -77.86097717750818, 281.47983026504517, 0.35200001671910286, -0.2240000106394291, 0.9280000440776348, 0.0, 0.0, 0.0, 0.0, 0.0, 1.6506678921926188E9, 0.0, 2022-04-22 17:51:32.192
24.0, 86.05322803044692, -210.26839520875365, -87.53983826283365, 273.88783335499465, 0.35200001671910286, -0.2240000106394291, 0.9280000440776348, 0.0, 0.0, 0.0, 0.0, 0.0, 1.6506678922083175E9, 0.0, 2022-04-22 17:51:32.208
24.0, 71.73315110011026, -201.03458221815526, -85.91298178210855, 258.6701804352924, 0.35200001671910286, -0.2240000106394291, 0.9280000440776348, 0.0, 0.0, 0.0, 0.0, 0.0, 1.6506678922083175E9, 0.0, 2022-04-22 17:51:32.208
25.0, 75.1289802598767, -211.04629439953715, -81.46624073479325, 269.542069606483, 0.35200001671910286, -0.2240000106394291, 0.9280000440776348, 0.0, 0.0, 0.0, 0.0, 0.0, 1.6506678922090535E9, 0.0, 2022-04-22 17:51:32.209
25.0, 84.58344734786078, -207.1306191459298, -76.76518649049103, 266.7221850398928, 0.35200001671910286, -0.2240000106394291, 0.9280000440776348, 0.0, 0.0, 0.0, 0.0, 0.0, 1.6506678922090535E9, 0.0, 2022-04-22 17:51:32.209
26.0, 74.78490946395323, -212.68811048008502, -86.41412837617099, 253.61757559515536, 0.35200001671910286, -0.2240000106394291, 0.9280000440776348, 0.0, 0.0, 0.0, 0.0, 0.0, 1.65066789222255E9, 0.0, 2022-04-22 17:51:32.222
26.0, 80.67151199420914, -208.92203122470528, -87.79041155986488, 252.03185801394284, 0.35200001671910286, -0.2240000106394291, 0.9280000440776348, 0.0, 0.0, 0.0, 0.0, 0.0, 1.65066789222255E9, 0.0, 2022-04-22 17:51:32.222
27.0, 88.12513260589913, -208.394705330953, -83.83733730670065, 269.67296610493213, 0.35200001671910286, -0.2240000106394291, 0.9280000440776348, 0.0, 0.0, 0.0, 0.0, 0.0, 1.6506678922383783E9, 0.0, 2022-04-22 17:51:32.238
27.0, 81.77478248113766, -216.0241012405604, -89.92215453460813, 273.6409999579191, 0.35200001671910286, -0.2240000106394291, 0.9280000440776348, 0.0, 0.0, 0.0, 0.0, 0.0, 1.6506678922383783E9, 0.0, 2022-04-22 17:51:32.238
28.0, 69.58644852554426, -211.10987269878387, -85.32581748906523, 250.79395112860948, 0.35200001671910286, -0.2240000106394291, 0.9280000440776348, 0.0, 0.0, 0.0, 0.0, 0.0, 1.6506678922390409E9, 0.0, 2022-04-22 17:51:32.239
28.0, 79.42238540900871, -199.5760212354362, -84.06921110395342, 275.92233893088996, 0.35200001671910286, -0.2240000106394291, 0.9280000440776348, 0.0, 0.0, 0.0, 0.0, 0.0, 1.6506678922390409E9, 0.0, 2022-04-22 17:51:32.239
29.0, 77.96382442628965, -201.9134587077424, -90.53549812734127, 273.70457825716585, 0.35200001671910286, -0.2240000106394291, 0.9280000440776348, 0.0, 0.0, 0.0, 0.0, 0.0, 1.6506678922525191E9, 0.0, 2022-04-22 17:51:32.252
29.0, 77.51129653165117, -205.5449015647173, -96.4894188567996, 275.499730235897, 0.35200001671910286, -0.2240000106394291, 0.9280000440776348, 0.0, 0.0, 0.0, 0.0, 0.0, 1.6506678922525191E9, 0.0, 2022-04-22 17:51:32.252
30.0, 76.81193523993716, -202.96063069533557, -89.24897254258394, 276.6852785218507, 0.35200001671910286, -0.2240000106394291, 0.9280000440776348, 0.0, 0.0, 0.0, 0.0, 0.0, 1.6506678922683015E9, 0.0, 2022-04-22 17:51:32.268
30.0, 85.10703334165737, -192.5412694187835, -83.4483877113089, 279.15735239256173, 0.35200001671910286, -0.2240000106394291, 0.9280000440776348, 0.0, 0.0, 0.0, 0.0, 0.0, 1.6506678922683015E9, 0.0, 2022-04-22 17:51:32.268
31.0, 82.00291637843475, -192.45525171980262, -77.0381991872564, 270.44338549580425, 0.35200001671910286, -0.20800000987946987, 0.9280000440776348, 0.0, 0.0, 0.0, 0.0, 0.0, 1.650667892268972E9, 0.0, 2022-04-22 17:51:32.268
31.0, 80.00580980209634, -199.08235444128513, -82.7041476201266, 266.89422043785453, 0.35200001671910286, -0.20800000987946987, 0.9280000440776348, 0.0, 0.0, 0.0, 0.0, 0.0, 1.650667892268972E9, 0.0, 2022-04-22 17:51:32.268
32.0, 89.41913799056783, -190.63018054142594, -79.27839926071465, 272.78456286806613, 0.3680000174790621, -0.20800000987946987, 0.9280000440776348, 0.0, 0.0, 0.0, 0.0, 0.0, 1.6506678922826867E9, 0.0, 2022-04-22 17:51:32.282
32.0, 85.66801833501086, -185.21106550563127, -86.91901487018913, 264.4221465671435, 0.3680000174790621, -0.20800000987946987, 0.9280000440776348, 0.0, 0.0, 0.0, 0.0, 0.0, 1.6506678922826867E9, 0.0, 2022-04-22 17:51:32.282
33.0, 75.94801835017279, -192.29817592166364, -93.8602691879496, 243.57594421412796, 0.3680000174790621, -0.20800000987946987, 0.9280000440776348, 0.0, 0.0, 0.0, 0.0, 0.0, 1.6506678922983077E9, 0.0, 2022-04-22 17:51:32.298
33.0, 77.65341272996739, -193.46876460779458, -86.21965357847512, 256.347702562809, 0.3680000174790621, -0.20800000987946987, 0.9280000440776348, 0.0, 0.0, 0.0, 0.0, 0.0, 1.6506678922983077E9, 0.0, 2022-04-22 17:51:32.298
34.0, 83.24830306367949, -190.67131944093853, -96.18648696038872, 267.9825313249603, 0.3680000174790621, -0.20800000987946987, 0.9280000440776348, 0.0, 0.0, 0.0, 0.0, 0.0, 1.6506678922990468E9, 0.0, 2022-04-22 17:51:32.299
34.0, 79.89735270338133, -193.43136560823768, -98.7146593304351, 268.22188492212445, 0.3680000174790621, -0.20800000987946987, 0.9280000440776348, 0.0, 0.0, 0.0, 0.0, 0.0, 1.6506678922990468E9, 0.0, 2022-04-22 17:51:32.299
35.0, 85.3950056382455, -181.20937255304307, -85.00044619292021, 272.3170753736049, 0.3680000174790621, -0.20800000987946987, 0.9280000440776348, 0.0, 0.0, 0.0, 0.0, 0.0, 1.6506678923126268E9, 0.0, 2022-04-22 17:51:32.312
35.0, 93.3946516434662, -181.0522967549041, -89.21531344298273, 272.3170753736049, 0.3680000174790621, -0.20800000987946987, 0.9280000440776348, 0.0, 0.0, 0.0, 0.0, 0.0, 1.6506678923126268E9, 0.0, 2022-04-22 17:51:32.312
36.0, 84.55352814821526, -192.56370881851763, -92.54008450359106, 271.47559788357466, 0.3680000174790621, -0.20800000987946987, 0.9280000440776348, 0.0, 0.0, 0.0, 0.0, 0.0, 1.6506678923282504E9, 0.0, 2022-04-22 17:51:32.328
36.0, 79.52336270781234, -193.78291620407254, -98.55384363234043, 263.33009578008205, 0.3680000174790621, -0.20800000987946987, 0.9280000440776348, 0.0, 0.0, 0.0, 0.0, 0.0, 1.6506678923282504E9, 0.0, 2022-04-22 17:51:32.328
37.0, 76.8680337392725, -192.9115195143968, -91.18250081967562, 263.03090378362685, 0.3680000174790621, -0.20800000987946987, 0.9280000440776348, 0.0, 0.0, 0.0, 0.0, 0.0, 1.650667892329007E9, 0.0, 2022-04-22 17:51:32.329
37.0, 73.79009607573971, -195.9071793789044, -92.19601370766759, 251.5606306195259, 0.3680000174790621, -0.20800000987946987, 0.9280000440776348, 0.0, 0.0, 0.0, 0.0, 0.0, 1.650667892329007E9, 0.0, 2022-04-22 17:51:32.329
38.0, 77.92268552677706, -202.3136280030012, -93.1908270958811, 273.62604035809636, 0.3680000174790621, -0.20800000987946987, 0.9280000440776348, 0.0, 0.0, 0.0, 0.0, 0.0, 1.650667892342576E9, 0.0, 2022-04-22 17:51:32.342
38.0, 77.76560972863808, -194.49349719565362, -82.57699102163315, 268.0087106246501, 0.3680000174790621, -0.20800000987946987, 0.9280000440776348, 0.0, 0.0, 0.0, 0.0, 0.0, 1.650667892342576E9, 0.0, 2022-04-22 17:51:32.342
39.0, 83.67839155858383, -190.52172344271094, -87.59219686221331, 261.32176950387657, 0.3680000174790621, -0.20800000987946987, 0.9280000440776348, 0.0, 0.0, 0.0, 0.0, 0.0, 1.650667892358338E9, 0.0, 2022-04-22 17:51:32.358
39.0, 78.44253162061796, -189.50821055471897, -93.08984979707748, 266.9316194374114, 0.3680000174790621, -0.20800000987946987, 0.9280000440776348, 0.0, 0.0, 0.0, 0.0, 0.0, 1.650667892358338E9, 0.0, 2022-04-22 17:51:32.358
40.0, 79.86743350373581, -194.58699469454587, -87.0760906683281, 271.5354362828657, 0.3680000174790621, -0.20800000987946987, 0.9280000440776348, 0.0, 0.0, 0.0, 0.0, 0.0, 1.6506678923590076E9, 0.0, 2022-04-22 17:51:32.359
40.0, 82.0216158782132, -196.0156364776194, -84.5591379981488, 271.51673678308725, 0.3680000174790621, -0.20800000987946987, 0.9280000440776348, 0.0, 0.0, 0.0, 0.0, 0.0, 1.6506678923590076E9, 0.0, 2022-04-22 17:51:32.359
41.0, 79.77393600484356, -190.60026134178042, -92.45780670456588, 238.80757177062333, 0.3680000174790621, -0.20800000987946987, 0.9280000440776348, 0.0, 0.0, 0.0, 0.0, 0.0, 1.6506678923726037E9, 0.0, 2022-04-22 17:51:32.372
41.0, 72.92243928601965, -195.574328282848, -96.05185056198388, 248.56871065497398, 0.3680000174790621, -0.20800000987946987, 0.9280000440776348, 0.0, 0.0, 0.0, 0.0, 0.0, 1.6506678923726037E9, 0.0, 2022-04-22 17:51:32.372
42.0, 84.84150044480339, -189.95699854940176, -91.10770282056183, 267.9039934258908, 0.3680000174790621, -0.20800000987946987, 0.9280000440776348, 0.0, 0.0, 0.0, 0.0, 0.0, 1.650667892388291E9, 0.0, 2022-04-22 17:51:32.388
42.0, 83.74196985783055, -191.9840243253857, -98.0489571383223, 263.8574216738343, 0.3680000174790621, -0.20800000987946987, 0.9280000440776348, 0.0, 0.0, 0.0, 0.0, 0.0, 1.650667892388291E9, 0.0, 2022-04-22 17:51:32.388
43.0, 72.57462859014049, -199.14967264048755, -103.38579437509179, 259.1227083299309, 0.3680000174790621, -0.20800000987946987, 0.9280000440776348, 0.0, 0.0, 0.0, 0.0, 0.0, 1.6506678923890252E9, 0.0, 2022-04-22 17:51:32.389
43.0, 77.63471323018894, -191.7558904280886, -91.84072321187705, 268.5734355179593, 0.3680000174790621, -0.20800000987946987, 0.9280000440776348, 0.0, 0.0, 0.0, 0.0, 0.0, 1.6506678923890252E9, 0.0, 2022-04-22 17:51:32.389
44.0, 77.52999603142962, -196.80849526822567, -88.88620224688202, 275.608187334612, 0.3680000174790621, -0.20800000987946987, 0.9280000440776348, 0.0, 0.0, 0.0, 0.0, 0.0, 1.6506678924026034E9, 0.0, 2022-04-22 17:51:32.402
44.0, 74.76994986413047, -201.36743331421167, -84.73117339611053, 269.9497187016532, 0.3680000174790621, -0.20800000987946987, 0.9280000440776348, 0.0, 0.0, 0.0, 0.0, 0.0, 1.6506678924026034E9, 0.0, 2022-04-22 17:51:32.402
45.0, 79.22417071135715, -187.03239678405225, -83.22773361392319, 274.00751015357673, 0.3680000174790621, -0.20800000987946987, 0.9280000440776348, 0.0, 0.0, 0.0, 0.0, 0.0, 1.650667892434692E9, 0.0, 2022-04-22 17:51:32.434
45.0, 75.03174286102876, -197.42183886095881, -85.56891098618507, 277.11162711679935, 0.3680000174790621, -0.20800000987946987, 0.9280000440776348, 0.0, 0.0, 0.0, 0.0, 0.0, 1.650667892434692E9, 0.0, 2022-04-22 17:51:32.434
46.0, 69.46677172696218, -198.7607230450958, -87.70065396092832, 256.0896494658664, 0.3680000174790621, -0.20800000987946987, 0.9280000440776348, 0.0, 0.0, 0.0, 0.0, 0.0, 1.650667892435423E9, 0.0, 2022-04-22 17:51:32.435
46.0, 77.23080403497443, -192.0214233249426, -90.19516723137349, 263.95465907268226, 0.3680000174790621, -0.20800000987946987, 0.9280000440776348, 0.0, 0.0, 0.0, 0.0, 0.0, 1.650667892435423E9, 0.0, 2022-04-22 17:51:32.435
47.0, 80.28630229877308, -186.26571729313582, -87.14340886753052, 270.1703727990389, 0.3680000174790621, -0.20800000987946987, 0.9280000440776348, 0.0, 0.0, 0.0, 0.0, 0.0, 1.6506678924360676E9, 0.0, 2022-04-22 17:51:32.436
47.0, 77.77682942850515, -178.53908398468047, -83.73262010794133, 244.8587298989296, 0.3680000174790621, -0.20800000987946987, 0.9280000440776348, 0.0, 0.0, 0.0, 0.0, 0.0, 1.6506678924360676E9, 0.0, 2022-04-22 17:51:32.436
48.0, 82.05153507785872, -185.65611360035837, -93.00383209809661, 270.2750899977982, 0.3680000174790621, -0.20800000987946987, 0.9280000440776348, 0.0, 0.0, 0.0, 0.0, 0.0, 1.6506678924369454E9, 0.0, 2022-04-22 17:51:32.436
48.0, 78.13585982425138, -200.21554412785918, -93.83408988825977, 264.7512577632442, 0.3680000174790621, -0.20800000987946987, 0.9280000440776348, 0.0, 0.0, 0.0, 0.0, 0.0, 1.6506678924369454E9, 0.0, 2022-04-22 17:51:32.436
49.0, 69.39571362780407, -205.0250554708764, -99.12604832556099, 242.65592882502824, 0.3680000174790621, -0.20800000987946987, 0.9280000440776348, 0.0, 0.0, 0.0, 0.0, 0.0, 1.6506678924475515E9, 0.0, 2022-04-22 17:51:32.447
49.0, 78.66318571800366, -198.8729200437665, -100.50233150925487, 260.7271254109219, 0.3680000174790621, -0.20800000987946987, 0.9280000440776348, 0.0, 0.0, 0.0, 0.0, 0.0, 1.6506678924475515E9, 0.0, 2022-04-22 17:51:32.447
50.0, 86.43843772588298, -201.86110010836273, -104.20857236534357, 269.7477641040459, 0.3680000174790621, -0.20800000987946987, 0.9120000433176756, 0.0, 0.0, 0.0, 0.0, 0.0, 1.650667892462574E9, 0.0, 2022-04-22 17:51:32.462
50.0, 91.78275476256385, -196.32230827398598, -91.65372821409255, 271.3895801845938, 0.3680000174790621, -0.20800000987946987, 0.9120000433176756, 0.0, 0.0, 0.0, 0.0, 0.0, 1.650667892462574E9, 0.0, 2022-04-22 17:51:32.462
51.0, 97.31032689707354, -199.51244293618947, -88.97969974577427, 267.4926044307649, 0.3680000174790621, -0.2240000106394291, 0.9120000433176756, 0.0, 0.0, 0.0, 0.0, 0.0, 1.6506678924782E9, 0.0, 2022-04-22 17:51:32.478
51.0, 99.2139359745197, -203.40193889010698, -95.95835306309164, 263.7078256756067, 0.3680000174790621, -0.2240000106394291, 0.9120000433176756, 0.0, 0.0, 0.0, 0.0, 0.0, 1.6506678924782E9, 0.0, 2022-04-22 17:51:32.478
52.0, 107.87928417185321, -205.04001507069916, -98.81937652919441, 259.21620582882315, 0.3840000182390213, -0.2240000106394291, 0.9120000433176756, 0.0, 0.0, 0.0, 0.0, 0.0, 1.650667892479009E9, 0.0, 2022-04-22 17:51:32.479
52.0, 112.11659082164988, -201.37865301407874, -99.9712657155469, 277.3883797135204, 0.3840000182390213, -0.2240000106394291, 0.9120000433176756, 0.0, 0.0, 0.0, 0.0, 0.0, 1.650667892479009E9, 0.0, 2022-04-22 17:51:32.479
53.0, 115.00379358744249, -200.25294312741607, -98.73335883021355, 268.18074602261186, 0.3840000182390213, -0.2240000106394291, 0.9120000433176756, 0.0, 0.0, 0.0, 0.0, 0.0, 1.6506678924926283E9, 0.0, 2022-04-22 17:51:32.492
53.0, 117.52822605753317, -193.97365110181272, -91.9342207107693, 257.32007655128837, 0.3840000182390213, -0.2240000106394291, 0.9120000433176756, 0.0, 0.0, 0.0, 0.0, 0.0, 1.6506678924926283E9, 0.0, 2022-04-22 17:51:32.492
54.0, 127.79425143590197, -193.50616360735148, -95.43476706929505, 270.192812198773, 0.3840000182390213, -0.2240000106394291, 0.9120000433176756, 0.0, 0.0, 0.0, 0.0, 0.0, 1.6506678925081956E9, 0.0, 2022-04-22 17:51:32.508
54.0, 129.8586762114428, -200.30156182684004, -92.56626380328089, 274.534836047329, 0.3840000182390213, -0.2240000106394291, 0.9120000433176756, 0.0, 0.0, 0.0, 0.0, 0.0, 1.6506678925081956E9, 0.0, 2022-04-22 17:51:32.508
55.0, 134.9299805513583, -200.06968802958727, -91.49291251599789, 279.0975139932707, 0.3840000182390213, -0.2240000106394291, 0.9120000433176756, 0.0, 0.0, 0.0, 0.0, 0.0, 1.6506678925089843E9, 0.0, 2022-04-22 17:51:32.508
55.0, 133.4938589683734, -193.47998430766165, -88.29529805388302, 272.979037665762, 0.3840000182390213, -0.2240000106394291, 0.9120000433176756, 0.0, 0.0, 0.0, 0.0, 0.0, 1.6506678925089843E9, 0.0, 2022-04-22 17:51:32.508
56.0, 131.05918409721926, -193.22193121071905, -102.94822608027607, 263.95465907268226, 0.3840000182390213, -0.2240000106394291, 0.9120000433176756, 0.0, 0.0, 0.0, 0.0, 0.0, 1.65066789252257E9, 0.0, 2022-04-22 17:51:32.522
56.0, 136.25016523571685, -183.88714092131704, -87.64455546159297, 266.77828353922814, 0.3840000182390213, -0.2240000106394291, 0.9120000433176756, 0.0, 0.0, 0.0, 0.0, 0.0, 1.65066789252257E9, 0.0, 2022-04-22 17:51:32.522
57.0, 139.35428219893947, -183.2775372285396, -85.56891098618507, 254.96019967924803, 0.3840000182390213, -0.2240000106394291, 0.9120000433176756, 0.0, 0.0, 0.0, 0.0, 0.0, 1.650667892538344E9, 0.0, 2022-04-22 17:51:32.538
57.0, 138.16499401303008, -194.5421158950776, -90.97680632211268, 282.579360852018, 0.3840000182390213, -0.2240000106394291, 0.9120000433176756, 0.0, 0.0, 0.0, 0.0, 0.0, 1.650667892538344E9, 0.0, 2022-04-22 17:51:32.538
58.0, 131.39577509323135, -200.4324583252892, -95.45720646902919, 277.15650591626763, 0.3840000182390213, -0.2240000106394291, 0.9120000433176756, 0.0, 0.0, 0.0, 0.0, 0.0, 1.6506678925391316E9, 0.0, 2022-04-22 17:51:32.539
58.0, 137.1926200245507, -189.48203125502914, -101.94593289215118, 278.07652130536735, 0.3840000182390213, -0.2240000106394291, 0.9120000433176756, 0.0, 0.0, 0.0, 0.0, 0.0, 1.6506678925391316E9, 0.0, 2022-04-22 17:51:32.539
59.0, 138.91671390412375, -189.50447065476328, -99.40280092228204, 275.4361519366503, 0.3840000182390213, -0.2240000106394291, 0.9120000433176756, 0.0, 0.0, 0.0, 0.0, 0.0, 1.6506678925526056E9, 0.0, 2022-04-22 17:51:32.552
59.0, 140.28925718786195, -187.06979578360915, -92.61488250270486, 271.67007268127054, 0.3840000182390213, -0.2240000106394291, 0.9120000433176756, 0.0, 0.0, 0.0, 0.0, 0.0, 1.6506678925526056E9, 0.0, 2022-04-22 17:51:32.552
60.0, 127.88774893479422, -202.82599429693073, -101.13811450172216, 270.8248552912846, 0.3840000182390213, -0.2240000106394291, 0.8800000417977571, 0.0, 0.0, 0.0, 0.0, 0.0, 1.6506678925683603E9, 0.0, 2022-04-22 17:51:32.568
60.0, 126.35065005300567, -202.73249679803848, -95.89103486388922, 257.0508037544787, 0.3840000182390213, -0.2240000106394291, 0.8800000417977571, 0.0, 0.0, 0.0, 0.0, 0.0, 1.6506678925683603E9, 0.0, 2022-04-22 17:51:32.568
61.0, 132.40928798122332, -198.5363290477544, -89.17043464351445, 262.69805268757045, 0.3840000182390213, -0.27200001291930676, 0.8800000417977571, 0.0, 0.0, 0.0, 0.0, 0.0, 1.650667892569111E9, 0.0, 2022-04-22 17:51:32.569
61.0, 126.78073854791, -206.11710625793785, -96.14534806087613, 266.9764982368797, 0.3840000182390213, -0.27200001291930676, 0.8800000417977571, 0.0, 0.0, 0.0, 0.0, 0.0, 1.650667892569111E9, 0.0, 2022-04-22 17:51:32.569
62.0, 110.56079244008288, -209.26236212067306, -109.11532110720873, 262.69805268757045, 0.3840000182390213, -0.27200001291930676, 0.8800000417977571, 0.0, 0.0, 0.0, 0.0, 0.0, 1.6506678925825427E9, 0.0, 2022-04-22 17:51:32.582
62.0, 123.17547499062493, -195.82490157987922, -94.3389763822779, 261.9762519961223, 0.3840000182390213, -0.27200001291930676, 0.8800000417977571, 0.0, 0.0, 0.0, 0.0, 0.0, 1.6506678925825427E9, 0.0, 2022-04-22 17:51:32.582
63.0, 127.99620603350922, -204.89041907247156, -92.27829150669277, 269.37003420852125, 0.3840000182390213, -0.27200001291930676, 0.8800000417977571, 0.0, 0.0, 0.0, 0.0, 0.0, 1.650667892598014E9, 0.0, 2022-04-22 17:51:32.598
63.0, 125.76722565991804, -207.29517474398017, -85.43801448773593, 257.7052862467244, 0.3840000182390213, -0.27200001291930676, 0.8800000417977571, 0.0, 0.0, 0.0, 0.0, 0.0, 1.650667892598014E9, 0.0, 2022-04-22 17:51:32.598
64.0, 127.62595593789592, -188.02721017226577, -96.32112335879356, 259.43685992620885, 0.3840000182390213, -0.27200001291930676, 0.8800000417977571, 0.0, 0.0, 0.0, 0.0, 0.0, 1.650667892613125E9, 0.0, 2022-04-22 17:51:32.613
64.0, 133.01515177404508, -171.0106653738767, -93.05619069747627, 274.2393839508295, 0.3840000182390213, -0.27200001291930676, 0.8800000417977571, 0.0, 0.0, 0.0, 0.0, 0.0, 1.650667892613125E9, 0.0, 2022-04-22 17:51:32.613
65.0, 123.79629838326946, -165.79350493568927, -99.31304332334548, 261.99869139585644, 0.3840000182390213, -0.27200001291930676, 0.8800000417977571, 0.0, 0.0, 0.0, 0.0, 0.0, 1.6506678926138272E9, 0.0, 2022-04-22 17:51:32.613
65.0, 131.448133692611, -159.27111941296607, -103.84206216968596, 265.0093108601868, 0.3840000182390213, -0.27200001291930676, 0.8800000417977571, 0.0, 0.0, 0.0, 0.0, 0.0, 1.6506678926138272E9, 0.0, 2022-04-22 17:51:32.613
66.0, 138.9354134039022, -153.02174658700824, -108.7188917119056, 274.908826042898, 0.3840000182390213, -0.27200001291930676, 0.8800000417977571, 0.0, 0.0, 0.0, 0.0, 0.0, 1.6506678926282127E9, 0.0, 2022-04-22 17:51:32.628
66.0, 134.6046092552133, -144.75282778497785, -112.93001906201243, 263.7901034746319, 0.3840000182390213, -0.27200001291930676, 0.8800000417977571, 0.0, 0.0, 0.0, 0.0, 0.0, 1.6506678926282127E9, 0.0, 2022-04-22 17:51:32.628
67.0, 131.47057309234515, -148.54508634004742, -110.61876088939607, 257.854882244952, 0.3840000182390213, -0.27200001291930676, 0.8800000417977571, 0.0, 0.0, 0.0, 0.0, 0.0, 1.6506678926289573E9, 0.0, 2022-04-22 17:51:32.628
67.0, 136.4521198333241, -142.33685241360217, -108.53937651403248, 269.1269407114014, 0.3840000182390213, -0.27200001291930676, 0.8800000417977571, 0.0, 0.0, 0.0, 0.0, 0.0, 1.6506678926289573E9, 0.0, 2022-04-22 17:51:32.628
68.0, 133.46393976872787, -143.7355749970302, -109.93809909746051, 261.99869139585644, 0.3840000182390213, -0.27200001291930676, 0.8800000417977571, 0.0, 0.0, 0.0, 0.0, 0.0, 1.6506678926425087E9, 0.0, 2022-04-22 17:51:32.642
68.0, 130.80487090023234, -138.78020755574107, -102.10300869029015, 254.32441668678075, 0.3840000182390213, -0.27200001291930676, 0.8800000417977571, 0.0, 0.0, 0.0, 0.0, 0.0, 1.6506678926425087E9, 0.0, 2022-04-22 17:51:32.642
69.0, 122.88750269403681, -143.9936280939728, -110.77209678757936, 260.18483991734684, 0.3840000182390213, -0.27200001291930676, 0.8800000417977571, 0.0, 0.0, 0.0, 0.0, 0.0, 1.650667892658263E9, 0.0, 2022-04-22 17:51:32.658
69.0, 117.65164275607094, -152.48694089334458, -122.3919659499079, 262.7578910868615, 0.3840000182390213, -0.27200001291930676, 0.8800000417977571, 0.0, 0.0, 0.0, 0.0, 0.0, 1.650667892658263E9, 0.0, 2022-04-22 17:51:32.658
70.0, 117.43098865868524, -151.0358597105369, -111.95016527362168, 269.66548630502075, 0.3840000182390213, -0.27200001291930676, 0.8960000425577164, 0.0, 0.0, 0.0, 0.0, 0.0, 1.65066789265898E9, 0.0, 2022-04-22 17:51:32.658
