%OpenBCI Raw EEG Data
%Number of channels = 4
%Sample Rate = 200 Hz
%Board = OpenBCI_GUI$BoardGanglionBLE
Sample Index, EXG Channel 0, EXG Channel 1, EXG Channel 2, EXG Channel 3, Accel Channel 0, Accel Channel 1, Accel Channel 2, Other, Other, Other, Other, Other, Timestamp, Other, Timestamp (Formatted)
2.0, -4.8095113430172205, 6.4999461229890585, 9.413328188471496, -5.138622539117932, 0.01600000075995922, 0.0, 0.0, 0.0, 0.0, 0.0, 0.0, 0.0, 1.648336893956349E9, 0.0, 2022-03-26 18:21:33.956
2.0, -3.0704578636214137, 0.6657021921128035, 2.7937052669003606, 4.581377445720136, 0.01600000075995922, 0.0, 0.0, 0.0, 0.0, 0.0, 0.0, 0.0, 1.648336893956349E9, 0.0, 2022-03-26 18:21:33.956
3.0, -2.692727968096733, 9.072997292503715, 5.722046932205558, -3.5529049579054117, 0.01600000075995922, 0.0, 0.0, 0.0, 0.0, 0.0, 0.0, 0.0, 1.6483368939707432E9, 0.0, 2022-03-26 18:21:33.970
3.0, -3.709980756044388, 0.29545209649950266, 1.084570987150073, -4.652435544878244, 0.01600000075995922, 0.0, 0.0, 0.0, 0.0, 0.0, 0.0, 0.0, 1.6483368939707432E9, 0.0, 2022-03-26 18:21:33.970
4.0, 2.6815082682296634, 8.111843003891408, 5.022685640491545, 18.770557877607644, 0.01600000075995922, 0.0, 0.0, 0.0, 0.0, 0.0, 0.0, 0.0, 1.6483368939715078E9, 0.0, 2022-03-26 18:21:33.971
4.0, -8.785024995915592, -1.249126585200429, 2.2663793731480837, 16.650034602731466, 0.01600000075995922, 0.0, 0.0, 0.0, 0.0, 0.0, 0.0, 0.0, 1.6483368939715078E9, 0.0, 2022-03-26 18:21:33.971
5.0, -9.877075782977045, -1.5221392819657922, 3.709980756044388, -2.206540973857045, 0.01600000075995922, 0.0, 0.0, 0.0, 0.0, 0.0, 0.0, 0.0, 1.6483368939850237E9, 0.0, 2022-03-26 18:21:33.985
5.0, -0.9723739884793758, 4.858130042441189, 2.217760673724115, 18.06371678598225, 0.01600000075995922, 0.0, 0.0, 0.0, 0.0, 0.0, 0.0, 0.0, 1.6483368939850237E9, 0.0, 2022-03-26 18:21:33.985
6.0, -3.541685258038342, 2.6067102691158652, 6.526125422678888, 4.3644632482901216, 0.01600000075995922, 0.0, 0.0, 0.0, 0.0, 0.0, 0.0, 0.0, 1.6483368940007017E9, 0.0, 2022-03-26 18:21:34.000
6.0, -7.681754508987069, 7.049711416475475, 2.0719045754522085, -0.762939590960741, 0.01600000075995922, 0.0, 0.0, 0.0, 0.0, 0.0, 0.0, 0.0, 1.6483368940007017E9, 0.0, 2022-03-26 18:21:34.000
7.0, -3.4332281593233347, 4.256006149575114, 9.970573281869292, 10.516598675400019, 0.01600000075995922, 0.0, 0.0, 0.0, 0.0, 0.0, 0.0, 0.0, 1.6483368940015166E9, 0.0, 2022-03-26 18:21:34.001
7.0, -2.6254097688943148, 4.457960747182369, 7.289065013639629, 6.8627164186909795, 0.01600000075995922, 0.0, 0.0, 0.0, 0.0, 0.0, 0.0, 0.0, 1.6483368940015166E9, 0.0, 2022-03-26 18:21:34.001
8.0, -7.300284713506699, -0.4188687950372696, 2.0644247755408287, -0.2617929968982935, 0.01600000075995922, 0.0, 0.0, 0.0, 0.0, 0.0, 0.0, 0.0, 1.648336894031849E9, 0.0, 2022-03-26 18:21:34.031
8.0, -3.3995690597221255, 8.46339359972626, 9.734959584660828, 5.23959983792156, 0.01600000075995922, 0.0, 0.0, 0.0, 0.0, 0.0, 0.0, 0.0, 1.648336894031849E9, 0.0, 2022-03-26 18:21:34.031
9.0, 2.2701192731037736, 10.823270471766591, 10.202447079122066, 9.68634088523686, 0.01600000075995922, 0.0, 0.0, 0.0, 0.0, 0.0, 0.0, 0.0, 1.6483368940326252E9, 0.0, 2022-03-26 18:21:34.032
9.0, -0.16829549800604582, 12.165894555859268, 9.716260084882379, 8.979499793611467, 0.01600000075995922, 0.0, 0.0, 0.0, 0.0, 0.0, 0.0, 0.0, 1.6483368940326252E9, 0.0, 2022-03-26 18:21:34.032
10.0, -0.5273258937522769, 11.631088862195611, 8.717706796713173, 2.060684875585139, 0.01600000075995922, 0.0, 0.9280000440776348, 0.0, 0.0, 0.0, 0.0, 0.0, 1.648336894045821E9, 0.0, 2022-03-26 18:21:34.045
10.0, -6.200754126533866, 13.833889936096966, 5.961400529369712, 5.591150433756411, 0.01600000075995922, 0.0, 0.9280000440776348, 0.0, 0.0, 0.0, 0.0, 0.0, 1.648336894045821E9, 0.0, 2022-03-26 18:21:34.045
11.0, -10.243585978634655, 6.668241620995104, 1.488480182364583, 2.42345517128706, 0.01600000075995922, 0.4640000220388174, 0.9280000440776348, 0.0, 0.0, 0.0, 0.0, 0.0, 1.648336894046532E9, 0.0, 2022-03-26 18:21:34.046
11.0, -7.752812608145177, 8.699007296934724, 10.400661776773632, -10.954166970215738, 0.01600000075995922, 0.4640000220388174, 0.9280000440776348, 0.0, 0.0, 0.0, 0.0, 0.0, 1.648336894046532E9, 0.0, 2022-03-26 18:21:34.046
12.0, 1.3613235838711262, 16.12270870897919, 14.151781432330608, -6.7019007205963135, 0.0, 0.4640000220388174, 0.9280000440776348, 0.0, 0.0, 0.0, 0.0, 0.0, 1.6483368940608764E9, 0.0, 2022-03-26 18:21:34.060
12.0, 1.372543283738196, 11.017745269462466, 11.967679858207703, 1.6193766808137298, 0.0, 0.4640000220388174, 0.9280000440776348, 0.0, 0.0, 0.0, 0.0, 0.0, 1.6483368940608764E9, 0.0, 2022-03-26 18:21:34.060
13.0, -2.737606767565012, 10.737252772785723, 6.223193526268005, -9.525525187142193, 0.0, 0.4640000220388174, 0.9280000440776348, 0.0, 0.0, 0.0, 0.0, 0.0, 1.6483368940615344E9, 0.0, 2022-03-26 18:21:34.061
13.0, -5.748226231895387, 11.148641767911613, 8.362416300922632, -11.541331263259053, 0.0, 0.4640000220388174, 0.9280000440776348, 0.0, 0.0, 0.0, 0.0, 0.0, 1.6483368940615344E9, 0.0, 2022-03-26 18:21:34.061
14.0, -1.2790457848459482, 10.228626378811896, 8.930881094187498, 2.206540973857045, 0.0, 0.4640000220388174, 0.9280000440776348, 0.0, 0.0, 0.0, 0.0, 0.0, 1.6483368940750744E9, 0.0, 2022-03-26 18:21:34.075
14.0, -2.41597537137568, 12.289311254397035, 5.101223539561033, -3.373389760032296, 0.0, 0.4640000220388174, 0.9280000440776348, 0.0, 0.0, 0.0, 0.0, 0.0, 1.6483368940750744E9, 0.0, 2022-03-26 18:21:34.075
15.0, -4.151288950815797, 12.827856848016381, 9.6339822858572, -8.298838001675904, 0.0, 0.4640000220388174, 0.9280000440776348, 0.0, 0.0, 0.0, 0.0, 0.0, 1.6483368940907996E9, 0.0, 2022-03-26 18:21:34.090
15.0, -2.139222774654627, 14.824963424354792, 13.239245843142271, -3.388349359855056, 0.0, 0.4640000220388174, 0.9280000440776348, 0.0, 0.0, 0.0, 0.0, 0.0, 1.6483368940907996E9, 0.0, 2022-03-26 18:21:34.090
16.0, 3.949334353208542, 16.09652940928936, 11.036444769240916, -1.854990378022194, 0.0, 0.4640000220388174, 0.9280000440776348, 0.0, 0.0, 0.0, 0.0, 0.0, 1.6483368940914938E9, 0.0, 2022-03-26 18:21:34.091
16.0, -1.8250711783766747, 18.243231983855367, 11.533851463347673, 0.39268949534744024, 0.0, 0.4640000220388174, 0.9280000440776348, 0.0, 0.0, 0.0, 0.0, 0.0, 1.6483368940914938E9, 0.0, 2022-03-26 18:21:34.091
17.0, -6.2568526258692145, 17.027764498256147, 8.635428997687995, -10.04911118093878, 0.0, 0.4640000220388174, 0.9280000440776348, 0.0, 0.0, 0.0, 0.0, 0.0, 1.648336894105094E9, 0.0, 2022-03-26 18:21:34.105
17.0, -3.575344357639551, 18.321769882924855, 8.672827997244895, 0.2617929968982935, 0.0, 0.4640000220388174, 0.9280000440776348, 0.0, 0.0, 0.0, 0.0, 0.0, 1.648336894105094E9, 0.0, 2022-03-26 18:21:34.105
18.0, -2.3187379725277424, 22.92558672837913, 13.564617139287293, 7.7864717077463865, 0.0, 0.4640000220388174, 0.9280000440776348, 0.0, 0.0, 0.0, 0.0, 0.0, 1.6483368941208203E9, 0.0, 2022-03-26 18:21:34.120
18.0, 0.482447094283998, 25.33408229984343, 16.287264307029545, 4.267225849442184, 0.0, 0.4640000220388174, 0.9280000440776348, 0.0, 0.0, 0.0, 0.0, 0.0, 1.6483368941208203E9, 0.0, 2022-03-26 18:21:34.120
19.0, 1.7016544798389077, 19.67187376692891, 12.955013446509838, 9.054297792725265, 0.0, 0.4640000220388174, 0.9280000440776348, 0.0, 0.0, 0.0, 0.0, 0.0, 1.64833689412147E9, 0.0, 2022-03-26 18:21:34.121
19.0, 5.086263939738274, 25.068549402989447, 14.90724122337997, 5.067564439959824, 0.0, 0.4640000220388174, 0.9280000440776348, 0.0, 0.0, 0.0, 0.0, 0.0, 1.64833689412147E9, 0.0, 2022-03-26 18:21:34.121
20.0, -4.42804154753685, 22.11028853803873, 6.3391304248943925, -4.588857245631516, 0.0, 0.4640000220388174, 0.9280000440776348, 0.0, 0.0, 0.0, 0.0, 0.0, 1.6483368941505423E9, 0.0, 2022-03-26 18:21:34.150
20.0, -0.08975759893655777, 9.039338192902505, 4.734713343903422, 5.665948432870209, 0.0, 0.4640000220388174, 0.9280000440776348, 0.0, 0.0, 0.0, 0.0, 0.0, 1.6483368941505423E9, 0.0, 2022-03-26 18:21:34.150
21.0, 4.356983448378742, 23.860561717301607, 30.62604073714465, 14.982039222493768, 0.0, 0.4480000212788582, 0.9280000440776348, 0.0, 0.0, 0.0, 0.0, 0.0, 1.648336894167126E9, 0.0, 2022-03-26 18:21:34.167
21.0, 8.366156200878322, 22.304763335734606, 27.922093069180846, 17.454113093204796, 0.0, 0.4480000212788582, 0.9280000440776348, 0.0, 0.0, 0.0, 0.0, 0.0, 1.648336894167126E9, 0.0, 2022-03-26 18:21:34.167
22.0, 2.9133820654824376, 19.892527864314616, 28.348441664129496, 21.811096541583538, -0.01600000075995922, 0.4480000212788582, 0.9280000440776348, 0.0, 0.0, 0.0, 0.0, 0.0, 1.6483368941679883E9, 0.0, 2022-03-26 18:21:34.167
22.0, 0.5086263939738274, 23.00786452740431, 28.707472059875727, 18.830396276898682, -0.01600000075995922, 0.4480000212788582, 0.9280000440776348, 0.0, 0.0, 0.0, 0.0, 0.0, 1.6483368941679883E9, 0.0, 2022-03-26 18:21:34.167
23.0, -4.551458246074617, 25.435059598647058, 35.73100417666137, 18.695759878493845, -0.01600000075995922, 0.4480000212788582, 0.9280000440776348, 0.0, 0.0, 0.0, 0.0, 0.0, 1.648336894168668E9, 0.0, 2022-03-26 18:21:34.168
23.0, 12.809157348237932, 34.06674869637936, 45.5033627608791, 26.265317388810217, -0.01600000075995922, 0.4480000212788582, 0.9280000440776348, 0.0, 0.0, 0.0, 0.0, 0.0, 1.648336894168668E9, 0.0, 2022-03-26 18:21:34.168
24.0, 16.702393202111125, 34.766109988093376, 45.649218859151006, 29.275936853140593, -0.01600000075995922, 0.4480000212788582, 0.9280000440776348, 0.0, 0.0, 0.0, 0.0, 0.0, 1.6483368941693952E9, 0.0, 2022-03-26 18:21:34.169
24.0, 12.554844151251018, 29.3843939518556, 38.64438624214381, 24.268210812471807, -0.01600000075995922, 0.4480000212788582, 0.9280000440776348, 0.0, 0.0, 0.0, 0.0, 0.0, 1.6483368941693952E9, 0.0, 2022-03-26 18:21:34.169
25.0, 11.859222759492695, 25.442539398558438, 37.43265865650028, 16.07035010959953, -0.01600000075995922, 0.4480000212788582, 0.9280000440776348, 0.0, 0.0, 0.0, 0.0, 0.0, 1.6483368941800506E9, 0.0, 2022-03-26 18:21:34.180
25.0, 9.009418993256986, 27.492004574276507, 36.73329736478627, 15.984332410618663, -0.01600000075995922, 0.4480000212788582, 0.9280000440776348, 0.0, 0.0, 0.0, 0.0, 0.0, 1.6483368941800506E9, 0.0, 2022-03-26 18:21:34.180
26.0, 6.0586379282176495, 26.489711386151612, 31.665732924826443, 11.593689862638712, -0.01600000075995922, 0.4480000212788582, 0.9280000440776348, 0.0, 0.0, 0.0, 0.0, 0.0, 1.6483368941950247E9, 0.0, 2022-03-26 18:21:34.195
26.0, 9.390888788737357, 25.41262019891292, 31.74427082389593, 15.569203515537083, -0.01600000075995922, 0.4480000212788582, 0.9280000440776348, 0.0, 0.0, 0.0, 0.0, 0.0, 1.6483368941950247E9, 0.0, 2022-03-26 18:21:34.195
27.0, 8.411035000346601, 26.033443591557443, 36.400446268729866, 12.139715256169438, -0.01600000075995922, 0.4480000212788582, 0.9280000440776348, 0.0, 0.0, 0.0, 0.0, 0.0, 1.6483368942107708E9, 0.0, 2022-03-26 18:21:34.210
27.0, 11.818083859980106, 21.481985345482826, 34.68757208902389, 19.507318168878555, -0.01600000075995922, 0.4480000212788582, 0.9280000440776348, 0.0, 0.0, 0.0, 0.0, 0.0, 1.6483368942107708E9, 0.0, 2022-03-26 18:21:34.210
28.0, 9.742439384572208, 25.637014196254313, 35.06530198454857, 19.069749874062836, -0.01600000075995922, 0.4480000212788582, 0.9280000440776348, 0.0, 0.0, 0.0, 0.0, 0.0, 1.6483368942114592E9, 0.0, 2022-03-26 18:21:34.211
28.0, 4.936667941510677, 19.997245063073933, 26.867441281676292, 11.806864160113037, -0.01600000075995922, 0.4480000212788582, 0.9280000440776348, 0.0, 0.0, 0.0, 0.0, 0.0, 1.6483368942114592E9, 0.0, 2022-03-26 18:21:34.211
29.0, 7.726633308455348, 12.801677548326552, 22.439399734139442, 18.385348182171583, -0.01600000075995922, 0.4480000212788582, 0.9280000440776348, 0.0, 0.0, 0.0, 0.0, 0.0, 1.6483368942251177E9, 0.0, 2022-03-26 18:21:34.225
29.0, 5.557491334155202, 11.387995365075767, 21.6764601431787, 14.271458230912685, -0.01600000075995922, 0.4480000212788582, 0.9280000440776348, 0.0, 0.0, 0.0, 0.0, 0.0, 1.6483368942251177E9, 0.0, 2022-03-26 18:21:34.225
30.0, 5.946440929546952, 17.850542488507926, 24.709519007243216, 12.180854155682027, -0.01600000075995922, 0.4480000212788582, 0.9280000440776348, 0.0, 0.0, 0.0, 0.0, 0.0, 1.6483368942408009E9, 0.0, 2022-03-26 18:21:34.240
30.0, 12.693220449611545, 12.236952655017376, 23.550150020979345, 18.766817977651954, -0.01600000075995922, 0.4480000212788582, 0.9280000440776348, 0.0, 0.0, 0.0, 0.0, 0.0, 1.6483368942408009E9, 0.0, 2022-03-26 18:21:34.240
31.0, 10.916767970658839, 16.769711401313543, 24.690819507464767, 25.40888029895723, -0.01600000075995922, 0.4640000220388174, 0.9280000440776348, 0.0, 0.0, 0.0, 0.0, 0.0, 1.6483368942415164E9, 0.0, 2022-03-26 18:21:34.241
31.0, 15.352289318107069, 25.951165792532265, 29.859361246228218, 25.868887993507087, -0.01600000075995922, 0.4640000220388174, 0.9280000440776348, 0.0, 0.0, 0.0, 0.0, 0.0, 1.6483368942415164E9, 0.0, 2022-03-26 18:21:34.241
32.0, 10.595136574469507, 19.619515167549253, 27.652820272371173, 20.038383962586522, -0.01600000075995922, 0.4640000220388174, 0.9280000440776348, 0.0, 0.0, 0.0, 0.0, 0.0, 1.6483368942550752E9, 0.0, 2022-03-26 18:21:34.255
32.0, 7.371342812664807, 19.092189273796976, 27.888433969579637, 30.771896835416555, -0.01600000075995922, 0.4640000220388174, 0.9280000440776348, 0.0, 0.0, 0.0, 0.0, 0.0, 1.6483368942550752E9, 0.0, 2022-03-26 18:21:34.255
33.0, 9.518045387230814, 26.321415888145566, 37.53363595530391, 30.038876444101334, -0.01600000075995922, 0.4640000220388174, 0.9280000440776348, 0.0, 0.0, 0.0, 0.0, 0.0, 1.648336894270789E9, 0.0, 2022-03-26 18:21:34.270
33.0, 10.595136574469507, 25.539776797406375, 30.58116193767637, 24.851635205559433, -0.01600000075995922, 0.4640000220388174, 0.9280000440776348, 0.0, 0.0, 0.0, 0.0, 0.0, 1.648336894270789E9, 0.0, 2022-03-26 18:21:34.270
34.0, 6.4475875236094, 21.826056141406298, 29.616267749108374, 23.942839516326785, -0.01600000075995922, 0.4640000220388174, 0.9280000440776348, 0.0, 0.0, 0.0, 0.0, 0.0, 1.648336894271457E9, 0.0, 2022-03-26 18:21:34.271
34.0, 9.835936883464456, 21.75873794220388, 31.75923042371869, 27.129234278574586, -0.01600000075995922, 0.4640000220388174, 0.9280000440776348, 0.0, 0.0, 0.0, 0.0, 0.0, 1.648336894271457E9, 0.0, 2022-03-26 18:21:34.271
35.0, 7.801431307569146, 20.46847245749086, 31.291742929257452, 24.234551712870598, -0.01600000075995922, 0.4640000220388174, 0.9280000440776348, 0.0, 0.0, 0.0, 0.0, 0.0, 1.6483368942850623E9, 0.0, 2022-03-26 18:21:34.285
35.0, 13.329003442078829, 14.608049226924777, 23.093882226385176, 22.49549823347479, -0.01600000075995922, 0.4640000220388174, 0.9280000440776348, 0.0, 0.0, 0.0, 0.0, 0.0, 1.6483368942850623E9, 0.0, 2022-03-26 18:21:34.285
36.0, 5.905302030034363, 17.34939589444548, 20.46847245749086, 22.207525936886668, -0.01600000075995922, 0.4640000220388174, 0.9280000440776348, 0.0, 0.0, 0.0, 0.0, 0.0, 1.648336894300758E9, 0.0, 2022-03-26 18:21:34.300
36.0, 5.546271634288132, 13.24672564305365, 20.229118860326707, 17.053943797945976, -0.01600000075995922, 0.4640000220388174, 0.9280000440776348, 0.0, 0.0, 0.0, 0.0, 0.0, 1.648336894300758E9, 0.0, 2022-03-26 18:21:34.300
37.0, 5.63976913318038, 17.32321659475565, 16.320923406630754, 22.697452831082046, -0.01600000075995922, 0.4640000220388174, 0.9280000440776348, 0.0, 0.0, 0.0, 0.0, 0.0, 1.6483368943014731E9, 0.0, 2022-03-26 18:21:34.301
37.0, 5.157322038896382, 12.87647554744035, 18.628441679291427, 22.862008429132402, -0.01600000075995922, 0.4640000220388174, 0.9280000440776348, 0.0, 0.0, 0.0, 0.0, 0.0, 1.6483368943014731E9, 0.0, 2022-03-26 18:21:34.301
38.0, 0.4188687950372696, 8.01460560504347, 12.801677548326552, 15.112935720942914, -0.01600000075995922, 0.4640000220388174, 0.9280000440776348, 0.0, 0.0, 0.0, 0.0, 0.0, 1.6483368943150804E9, 0.0, 2022-03-26 18:21:34.315
38.0, 1.5931973811239004, 13.972266234457493, 18.374128482304513, 21.496944945305586, -0.01600000075995922, 0.4640000220388174, 0.9280000440776348, 0.0, 0.0, 0.0, 0.0, 0.0, 1.6483368943150804E9, 0.0, 2022-03-26 18:21:34.315
39.0, 2.490773370489478, 10.019191981293261, 13.729172737337649, 21.650280843488872, -0.01600000075995922, 0.4640000220388174, 0.9280000440776348, 0.0, 0.0, 0.0, 0.0, 0.0, 1.6483368943308403E9, 0.0, 2022-03-26 18:21:34.330
39.0, 2.449634470976889, 3.6389226568862796, 14.742685625329614, 19.971065763384104, -0.01600000075995922, 0.4640000220388174, 0.9280000440776348, 0.0, 0.0, 0.0, 0.0, 0.0, 1.6483368943308403E9, 0.0, 2022-03-26 18:21:34.330
40.0, -2.5618314696475863, 4.1662485506385565, 8.377375900745392, 7.214267014525831, -0.01600000075995922, 0.4640000220388174, 0.9280000440776348, 0.0, 0.0, 0.0, 0.0, 0.0, 1.648336894331474E9, 0.0, 2022-03-26 18:21:34.331
40.0, 9.24503269046545, 7.887449006550014, 11.3019776660949, 13.486079240217805, -0.01600000075995922, 0.4640000220388174, 0.9280000440776348, 0.0, 0.0, 0.0, 0.0, 0.0, 1.648336894331474E9, 0.0, 2022-03-26 18:21:34.331
41.0, 3.1676952624693513, 5.363016536459327, 0.5123662939295173, 18.46014618128538, -0.01600000075995922, 0.4640000220388174, 0.9280000440776348, 0.0, 0.0, 0.0, 0.0, 0.0, 1.6483368943450708E9, 0.0, 2022-03-26 18:21:34.345
41.0, 3.9530742531642318, 3.7922585550695658, -6.470026923343539, 16.13766830880195, -0.01600000075995922, 0.4640000220388174, 0.9280000440776348, 0.0, 0.0, 0.0, 0.0, 0.0, 1.6483368943450708E9, 0.0, 2022-03-26 18:21:34.345
42.0, 5.351796836592257, 6.391489024274051, 13.366402441635728, 19.956106163561344, -0.01600000075995922, 0.4640000220388174, 0.9280000440776348, 0.0, 0.0, 0.0, 0.0, 0.0, 1.6483368943771205E9, 0.0, 2022-03-26 18:21:34.377
42.0, 1.4585609827190638, 4.42056174762547, 15.150334720499814, 23.823162717744708, -0.01600000075995922, 0.4640000220388174, 0.9280000440776348, 0.0, 0.0, 0.0, 0.0, 0.0, 1.6483368943771205E9, 0.0, 2022-03-26 18:21:34.377
43.0, -0.4375682948157191, 9.069257392548025, 31.37776062823832, 31.089788331650198, -0.01600000075995922, 0.4640000220388174, 0.9280000440776348, 0.0, 0.0, 0.0, 0.0, 0.0, 1.6483368943778453E9, 0.0, 2022-03-26 18:21:34.377
43.0, 3.2424932615831494, 5.995059628970921, 38.1282800482586, 23.527710621245205, -0.01600000075995922, 0.4640000220388174, 0.9280000440776348, 0.0, 0.0, 0.0, 0.0, 0.0, 1.6483368943778453E9, 0.0, 2022-03-26 18:21:34.377
44.0, 3.429488259367645, 2.700207768008113, 35.12514038383961, 32.361354316584766, -0.01600000075995922, 0.4640000220388174, 0.9280000440776348, 0.0, 0.0, 0.0, 0.0, 0.0, 1.6483368943786156E9, 0.0, 2022-03-26 18:21:34.378
44.0, 1.088310887105763, -0.33659099601209164, 40.73125041741878, 30.065055743791163, -0.01600000075995922, 0.4640000220388174, 0.9280000440776348, 0.0, 0.0, 0.0, 0.0, 0.0, 1.6483368943786156E9, 0.0, 2022-03-26 18:21:34.378
45.0, 3.018099264241755, -0.056098499335348606, 52.553074177354574, 28.655113460496068, -0.01600000075995922, 0.4640000220388174, 0.9280000440776348, 0.0, 0.0, 0.0, 0.0, 0.0, 1.648336894379403E9, 0.0, 2022-03-26 18:21:34.379
45.0, 3.335990760475397, 0.9835936883464456, 57.03721422422677, 28.819669058546424, -0.01600000075995922, 0.4640000220388174, 0.9280000440776348, 0.0, 0.0, 0.0, 0.0, 0.0, 1.648336894379403E9, 0.0, 2022-03-26 18:21:34.379
46.0, 4.233566749840975, -0.9835936883464456, 50.922477796673775, 44.21683717612177, -0.01600000075995922, 0.4640000220388174, 0.9280000440776348, 0.0, 0.0, 0.0, 0.0, 0.0, 1.6483368943901076E9, 0.0, 2022-03-26 18:21:34.390
46.0, 4.626256245188415, 5.909041929990053, 57.003555124625564, 30.020176944322884, -0.01600000075995922, 0.4640000220388174, 0.9280000440776348, 0.0, 0.0, 0.0, 0.0, 0.0, 1.6483368943901076E9, 0.0, 2022-03-26 18:21:34.390
47.0, 9.297391289845109, 0.07105809915810823, 54.34822615608573, 32.61566751357168, -0.01600000075995922, 0.4640000220388174, 0.9280000440776348, 0.0, 0.0, 0.0, 0.0, 0.0, 1.6483368944051173E9, 0.0, 2022-03-26 18:21:34.405
47.0, 1.1107502868399024, 1.492220082320273, 55.11490564700216, 25.206925701349974, -0.01600000075995922, 0.4640000220388174, 0.9280000440776348, 0.0, 0.0, 0.0, 0.0, 0.0, 1.6483368944051173E9, 0.0, 2022-03-26 18:21:34.405
48.0, -0.8152981903403997, -6.911335118114948, 48.59999992419034, 23.093882226385176, -0.01600000075995922, 0.4640000220388174, 0.9280000440776348, 0.0, 0.0, 0.0, 0.0, 0.0, 1.6483368944208176E9, 0.0, 2022-03-26 18:21:34.420
48.0, 4.3644632482901216, -2.8423239663243294, 44.62448627129197, 21.878414740785956, -0.01600000075995922, 0.4640000220388174, 0.9280000440776348, 0.0, 0.0, 0.0, 0.0, 0.0, 1.6483368944208176E9, 0.0, 2022-03-26 18:21:34.420
49.0, 1.4585609827190638, -1.0284724878147244, 42.60120039526373, 21.971912239678204, -0.01600000075995922, 0.4640000220388174, 0.9280000440776348, 0.0, 0.0, 0.0, 0.0, 0.0, 1.6483368944214952E9, 0.0, 2022-03-26 18:21:34.421
49.0, 8.209080402739346, 5.314397837035358, 46.38597915042192, 33.146733307279646, -0.01600000075995922, 0.4640000220388174, 0.9280000440776348, 0.0, 0.0, 0.0, 0.0, 0.0, 1.6483368944214952E9, 0.0, 2022-03-26 18:21:34.421
50.0, 3.8333974545821548, 0.23561369720846415, 40.50685642007738, 11.971419758163393, -0.01600000075995922, 0.4640000220388174, 0.9280000440776348, 0.0, 0.0, 0.0, 0.0, 0.0, 1.648336894435098E9, 0.0, 2022-03-26 18:21:34.435
50.0, 2.494513270445168, 0.003739899955689907, 44.822700968943536, 22.454359333962202, -0.01600000075995922, 0.4640000220388174, 0.9280000440776348, 0.0, 0.0, 0.0, 0.0, 0.0, 1.648336894435098E9, 0.0, 2022-03-26 18:21:34.435
51.0, -6.600923421792686, -3.4369680592790246, 36.060115372762084, 20.371235058642924, -0.01600000075995922, 0.4480000212788582, 0.9280000440776348, 0.0, 0.0, 0.0, 0.0, 0.0, 1.6483368944507756E9, 0.0, 2022-03-26 18:21:34.450
51.0, -2.8311042664572597, 1.0509118875488639, 34.28366289380938, 13.908687935210764, -0.01600000075995922, 0.4480000212788582, 0.9280000440776348, 0.0, 0.0, 0.0, 0.0, 0.0, 1.6483368944507756E9, 0.0, 2022-03-26 18:21:34.450
52.0, 1.1892881859093904, 5.4116352358832955, 40.66019231826067, 15.640261614695191, -0.01600000075995922, 0.4480000212788582, 0.9280000440776348, 0.0, 0.0, 0.0, 0.0, 0.0, 1.648336894451523E9, 0.0, 2022-03-26 18:21:34.451
52.0, -1.009772988036275, 0.44130819477140903, 33.39730660431087, 15.438307017087936, -0.01600000075995922, 0.4480000212788582, 0.9280000440776348, 0.0, 0.0, 0.0, 0.0, 0.0, 1.648336894451523E9, 0.0, 2022-03-26 18:21:34.451
53.0, -3.1901346622034907, -2.060684875585139, 34.07422849629074, 6.795398219488561, -0.01600000075995922, 0.4480000212788582, 0.9280000440776348, 0.0, 0.0, 0.0, 0.0, 0.0, 1.648336894465129E9, 0.0, 2022-03-26 18:21:34.465
53.0, -5.781885331496596, -1.3912427835166454, 32.402493216097355, 0.8601769898086786, -0.01600000075995922, 0.4480000212788582, 0.9280000440776348, 0.0, 0.0, 0.0, 0.0, 0.0, 1.648336894465129E9, 0.0, 2022-03-26 18:21:34.465
54.0, -3.4781069587916136, -5.381716036237776, 31.605894525535405, -6.496206223033369, -0.01600000075995922, 0.4480000212788582, 0.9280000440776348, 0.0, 0.0, 0.0, 0.0, 0.0, 1.648336894480775E9, 0.0, 2022-03-26 18:21:34.480
54.0, -0.6993612917140126, -4.110150051303208, 26.50093108601868, 6.193274326622486, -0.01600000075995922, 0.4480000212788582, 0.9280000440776348, 0.0, 0.0, 0.0, 0.0, 0.0, 1.648336894480775E9, 0.0, 2022-03-26 18:21:34.480
55.0, -2.4832935705780983, -0.02617929968982935, 27.40224697533995, 15.632781814783812, -0.01600000075995922, 0.4480000212788582, 0.9280000440776348, 0.0, 0.0, 0.0, 0.0, 0.0, 1.6483368944815214E9, 0.0, 2022-03-26 18:21:34.481
55.0, 4.03161215223372, -2.80866486672312, 34.23130429442972, 21.182793349027634, -0.01600000075995922, 0.4480000212788582, 0.9280000440776348, 0.0, 0.0, 0.0, 0.0, 0.0, 1.6483368944815214E9, 0.0, 2022-03-26 18:21:34.481
56.0, 3.1527356626465917, -4.401862247847021, 34.56789529044181, 23.479091921821237, -0.01600000075995922, 0.4480000212788582, 0.9280000440776348, 0.0, 0.0, 0.0, 0.0, 0.0, 1.648336894495108E9, 0.0, 2022-03-26 18:21:34.495
56.0, 2.9881800645962358, -1.6418160805478692, 30.6447402369231, 16.193766808137298, -0.01600000075995922, 0.4480000212788582, 0.9280000440776348, 0.0, 0.0, 0.0, 0.0, 0.0, 1.648336894495108E9, 0.0, 2022-03-26 18:21:34.495
57.0, 8.115582903847098, -0.35529049579054117, 29.470411650836468, 17.510211592540145, -0.01600000075995922, 0.4480000212788582, 0.9280000440776348, 0.0, 0.0, 0.0, 0.0, 0.0, 1.6483368945107627E9, 0.0, 2022-03-26 18:21:34.510
57.0, 3.1228164630010724, -2.0307656759396195, 25.79408999439329, 20.229118860326707, -0.01600000075995922, 0.4480000212788582, 0.9280000440776348, 0.0, 0.0, 0.0, 0.0, 0.0, 1.6483368945107627E9, 0.0, 2022-03-26 18:21:34.510
58.0, 3.1265563629567623, 4.615036545321345, 25.76417079474777, 16.403201205655932, -0.01600000075995922, 0.4480000212788582, 0.9280000440776348, 0.0, 0.0, 0.0, 0.0, 0.0, 1.6483368945114667E9, 0.0, 2022-03-26 18:21:34.511
58.0, -2.6777683682739735, 7.337683713063598, 28.18388606607914, 21.515644445084035, -0.01600000075995922, 0.4480000212788582, 0.9280000440776348, 0.0, 0.0, 0.0, 0.0, 0.0, 1.6483368945114667E9, 0.0, 2022-03-26 18:21:34.511
59.0, 1.409942283295095, 7.704193908721209, 35.10644088406116, 20.50587145704776, -0.01600000075995922, 0.4480000212788582, 0.9280000440776348, 0.0, 0.0, 0.0, 0.0, 0.0, 1.6483368945251408E9, 0.0, 2022-03-26 18:21:34.525
59.0, 3.777298955246806, 7.808911107480526, 31.81158902309835, 10.550257775001228, -0.01600000075995922, 0.4480000212788582, 0.9280000440776348, 0.0, 0.0, 0.0, 0.0, 0.0, 1.6483368945251408E9, 0.0, 2022-03-26 18:21:34.525
60.0, -3.7735590552911162, 8.145502103492618, 25.29294340033084, 5.097483639605343, -0.01600000075995922, 0.4480000212788582, 0.9280000440776348, 0.0, 0.0, 0.0, 0.0, 0.0, 1.6483368945571904E9, 0.0, 2022-03-26 18:21:34.557
60.0, 0.762939590960741, 6.159615227021277, 27.185332777909935, 12.682000749744475, -0.01600000075995922, 0.4480000212788582, 0.9280000440776348, 0.0, 0.0, 0.0, 0.0, 0.0, 1.6483368945571904E9, 0.0, 2022-03-26 18:21:34.557
61.0, -0.7741592908278108, 3.590303957462311, 25.517337397672236, 11.631088862195611, -0.01600000075995922, 0.4480000212788582, 0.9280000440776348, 0.0, 0.0, 0.0, 0.0, 0.0, 1.648336894557956E9, 0.0, 2022-03-26 18:21:34.557
61.0, -2.7488264674320817, 10.804570971988142, 29.04032315593213, -2.0232858760282397, -0.01600000075995922, 0.4480000212788582, 0.9280000440776348, 0.0, 0.0, 0.0, 0.0, 0.0, 1.648336894557956E9, 0.0, 2022-03-26 18:21:34.557
62.0, -5.658468632958829, 6.772958819754422, 24.847895305603743, -1.4959599822759628, -0.01600000075995922, 0.4480000212788582, 0.9280000440776348, 0.0, 0.0, 0.0, 0.0, 0.0, 1.6483368945586588E9, 0.0, 2022-03-26 18:21:34.558
62.0, -2.2402000734582543, 12.322970353998244, 26.280276988632977, 12.304270854219794, -0.01600000075995922, 0.4480000212788582, 0.9280000440776348, 0.0, 0.0, 0.0, 0.0, 0.0, 1.6483368945586588E9, 0.0, 2022-03-26 18:21:34.558
63.0, 3.870796454139054, 15.539284315891564, 34.47065789159387, 9.955613682046533, -0.01600000075995922, 0.4480000212788582, 0.9280000440776348, 0.0, 0.0, 0.0, 0.0, 0.0, 1.648336894559366E9, 0.0, 2022-03-26 18:21:34.559
63.0, -0.9312350889667869, 17.480292392894626, 35.226117682643235, 6.615883021615446, -0.01600000075995922, 0.4480000212788582, 0.9280000440776348, 0.0, 0.0, 0.0, 0.0, 0.0, 1.648336894559366E9, 0.0, 2022-03-26 18:21:34.559
64.0, 5.434074635617435, 18.751858377829194, 42.17485180031508, 26.788903382606804, -0.01600000075995922, 0.4480000212788582, 0.9280000440776348, 0.0, 0.0, 0.0, 0.0, 0.0, 1.6483368945700777E9, 0.0, 2022-03-26 18:21:34.570
64.0, 2.902162365615368, 17.884201588109136, 37.38030005712062, 5.478953435085714, -0.01600000075995922, 0.4480000212788582, 0.9280000440776348, 0.0, 0.0, 0.0, 0.0, 0.0, 1.6483368945700777E9, 0.0, 2022-03-26 18:21:34.570
65.0, 1.2266871854662895, 23.961539016105235, 41.651265806518495, 7.921108106151223, -0.01600000075995922, 0.4480000212788582, 0.9280000440776348, 0.0, 0.0, 0.0, 0.0, 0.0, 1.648336894585088E9, 0.0, 2022-03-26 18:21:34.585
65.0, 3.055498263798654, 21.6764601431787, 39.80001532845199, 6.888895718380809, -0.01600000075995922, 0.4480000212788582, 0.9280000440776348, 0.0, 0.0, 0.0, 0.0, 0.0, 1.648336894585088E9, 0.0, 2022-03-26 18:21:34.585
66.0, 4.974066941067576, 28.329742164351046, 42.5750210955739, 11.537591363303363, -0.01600000075995922, 0.4480000212788582, 0.9280000440776348, 0.0, 0.0, 0.0, 0.0, 0.0, 1.648336894600791E9, 0.0, 2022-03-26 18:21:34.600
66.0, 6.376529424451292, 28.348441664129496, 46.33736045099795, 3.4369680592790246, -0.01600000075995922, 0.4480000212788582, 0.9280000440776348, 0.0, 0.0, 0.0, 0.0, 0.0, 1.648336894600791E9, 0.0, 2022-03-26 18:21:34.600
67.0, 5.22838013805449, 27.675259672105312, 46.80484794545919, 2.049465175718069, -0.01600000075995922, 0.4480000212788582, 0.9280000440776348, 0.0, 0.0, 0.0, 0.0, 0.0, 1.6483368946014686E9, 0.0, 2022-03-26 18:21:34.601
67.0, 1.5183993820101023, 28.1988456659019, 44.018622478470206, 6.103516727685928, -0.01600000075995922, 0.4480000212788582, 0.9280000440776348, 0.0, 0.0, 0.0, 0.0, 0.0, 1.6483368946014686E9, 0.0, 2022-03-26 18:21:34.601
68.0, 0.2169141974300146, 31.84898802265525, 37.978684050031006, 1.0770911872386932, -0.01600000075995922, 0.4480000212788582, 0.9280000440776348, 0.0, 0.0, 0.0, 0.0, 0.0, 1.64833689461507E9, 0.0, 2022-03-26 18:21:34.615
68.0, 0.17203539796173573, 27.989411268383265, 36.91655246261507, -3.493066558614373, -0.01600000075995922, 0.4480000212788582, 0.9280000440776348, 0.0, 0.0, 0.0, 0.0, 0.0, 1.64833689461507E9, 0.0, 2022-03-26 18:21:34.615
69.0, 5.64724893309176, 28.90568675752729, 36.61736046615988, -2.9919199645519257, -0.01600000075995922, 0.4480000212788582, 0.9280000440776348, 0.0, 0.0, 0.0, 0.0, 0.0, 1.6483368946307938E9, 0.0, 2022-03-26 18:21:34.630
69.0, 6.294251625426114, 29.43301265127957, 33.52446320280433, 1.9073489774018526, -0.01600000075995922, 0.4480000212788582, 0.9280000440776348, 0.0, 0.0, 0.0, 0.0, 0.0, 1.6483368946307938E9, 0.0, 2022-03-26 18:21:34.630
70.0, 1.4361215829849243, 32.017283520661294, 33.45340510364622, -1.002293188124895, -0.01600000075995922, 0.4480000212788582, 0.9280000440776348, 0.0, 0.0, 0.0, 0.0, 0.0, 1.648336894631439E9, 0.0, 2022-03-26 18:21:34.631
70.0, 6.354090024717152, 33.255190405994654, 39.631719830445945, 3.896975753828883, -0.01600000075995922, 0.4480000212788582, 0.9280000440776348, 0.0, 0.0, 0.0, 0.0, 0.0, 1.648336894631439E9, 0.0, 2022-03-26 18:21:34.631
71.0, 6.511165822856128, 30.58864173758775, 39.639199630357325, 9.043078092858195, -0.01600000075995922, 0.4640000220388174, 0.9280000440776348, 0.0, 0.0, 0.0, 0.0, 0.0, 1.6483368946450992E9, 0.0, 2022-03-26 18:21:34.645
71.0, 11.877922259271145, 32.08086181990802, 37.85152745153755, 13.762831836938858, -0.01600000075995922, 0.4640000220388174, 0.9280000440776348, 0.0, 0.0, 0.0, 0.0, 0.0, 1.6483368946450992E9, 0.0, 2022-03-26 18:21:34.645
72.0, 12.652081550098956, 34.54919579066336, 44.833920668810606, 11.836783359758556, -0.01600000075995922, 0.4640000220388174, 0.9280000440776348, 0.0, 0.0, 0.0, 0.0, 0.0, 1.6483368946607685E9, 0.0, 2022-03-26 18:21:34.660
72.0, 15.969372810795903, 39.12683333642781, 47.53038853686303, 12.667041149921715, -0.01600000075995922, 0.4640000220388174, 0.9280000440776348, 0.0, 0.0, 0.0, 0.0, 0.0, 1.6483368946607685E9, 0.0, 2022-03-26 18:21:34.660
73.0, 18.213312784209847, 34.99424388539046, 47.92307803221047, 24.421546710655093, -0.01600000075995922, 0.4640000220388174, 0.9280000440776348, 0.0, 0.0, 0.0, 0.0, 0.0, 1.648336894661509E9, 0.0, 2022-03-26 18:21:34.661
73.0, 17.065163497813046, 41.684924906119704, 49.5050557134673, 27.865994569845498, -0.01600000075995922, 0.4640000220388174, 0.9280000440776348, 0.0, 0.0, 0.0, 0.0, 0.0, 1.648336894661509E9, 0.0, 2022-03-26 18:21:34.661
74.0, 21.511904545128345, 43.97000377904624, 46.63281254749745, 37.44387835636735, -0.01600000075995922, 0.4640000220388174, 0.9280000440776348, 0.0, 0.0, 0.0, 0.0, 0.0, 1.6483368946750326E9, 0.0, 2022-03-26 18:21:34.675
74.0, 15.045617521740496, 38.861300439573824, 44.75538276974112, 37.76924965251237, -0.01600000075995922, 0.4640000220388174, 0.9280000440776348, 0.0, 0.0, 0.0, 0.0, 0.0, 1.6483368946750326E9, 0.0, 2022-03-26 18:21:34.675
75.0, 16.825809900648892, 40.99304341431707, 47.09282024204731, 33.32624850515276, -0.01600000075995922, 0.4640000220388174, 0.9280000440776348, 0.0, 0.0, 0.0, 0.0, 0.0, 1.6483368946908789E9, 0.0, 2022-03-26 18:21:34.690
75.0, 19.881308164447546, 39.03333583753556, 47.18631774093956, 43.09112728945911, -0.01600000075995922, 0.4640000220388174, 0.9280000440776348, 0.0, 0.0, 0.0, 0.0, 0.0, 1.6483368946908789E9, 0.0, 2022-03-26 18:21:34.690
76.0, 18.800477077253163, 38.51348974369466, 50.30165440402925, 41.239876811392605, -0.01600000075995922, 0.4640000220388174, 0.9280000440776348, 0.0, 0.0, 0.0, 0.0, 0.0, 1.64833689469153E9, 0.0, 2022-03-26 18:21:34.691
76.0, 10.209926879033446, 28.333482064306736, 43.49503648467362, 25.943685992620885, -0.01600000075995922, 0.4640000220388174, 0.9280000440776348, 0.0, 0.0, 0.0, 0.0, 0.0, 1.64833689469153E9, 0.0, 2022-03-26 18:21:34.691
77.0, 11.848003059625626, 23.475352021865547, 44.527248872444034, 21.986871839500964, -0.01600000075995922, 0.4640000220388174, 0.9280000440776348, 0.0, 0.0, 0.0, 0.0, 0.0, 1.6483368947050507E9, 0.0, 2022-03-26 18:21:34.705
77.0, 12.016298557631671, 18.284370883367956, 41.15011921245605, 33.68901880085468, -0.01600000075995922, 0.4640000220388174, 0.9280000440776348, 0.0, 0.0, 0.0, 0.0, 0.0, 1.6483368947050507E9, 0.0, 2022-03-26 18:21:34.705
78.0, 16.242385507561266, 30.480184638872743, 56.30045393295586, 40.75742971710861, -0.01600000075995922, 0.4640000220388174, 0.9280000440776348, 0.0, 0.0, 0.0, 0.0, 0.0, 1.6483368947207675E9, 0.0, 2022-03-26 18:21:34.720
78.0, 13.908687935210764, 26.022223891690373, 52.05566748324782, 31.39272022806108, -0.01600000075995922, 0.4640000220388174, 0.9280000440776348, 0.0, 0.0, 0.0, 0.0, 0.0, 1.6483368947207675E9, 0.0, 2022-03-26 18:21:34.720
79.0, 13.108349344693124, 24.48138510994613, 48.41674482636154, 37.0923277605325, -0.01600000075995922, 0.4640000220388174, 0.9280000440776348, 0.0, 0.0, 0.0, 0.0, 0.0, 1.648336894721556E9, 0.0, 2022-03-26 18:21:34.721
79.0, 11.373035765253007, 26.811342782340944, 53.20381676964462, 34.425779092125595, -0.01600000075995922, 0.4640000220388174, 0.9280000440776348, 0.0, 0.0, 0.0, 0.0, 0.0, 1.648336894721556E9, 0.0, 2022-03-26 18:21:34.721
80.0, 5.568711034022272, 23.505271221511066, 47.21997684054077, 29.115121155045927, -0.01600000075995922, 0.4640000220388174, 0.9280000440776348, 0.0, 0.0, 0.0, 0.0, 0.0, 1.6483368947350793E9, 0.0, 2022-03-26 18:21:34.735
80.0, 6.750519420020282, 23.486571721732616, 43.8727663801983, 20.805063453502953, -0.01600000075995922, 0.4640000220388174, 0.9280000440776348, 0.0, 0.0, 0.0, 0.0, 0.0, 1.6483368947350793E9, 0.0, 2022-03-26 18:21:34.735
81.0, 6.271812225691974, 19.6756136668846, 39.97205072641373, 23.72218541894108, -0.01600000075995922, 0.4480000212788582, 0.9280000440776348, 0.0, 0.0, 0.0, 0.0, 0.0, 1.6483368947508008E9, 0.0, 2022-03-26 18:21:34.750
81.0, 3.9568141531199217, 19.37268177047372, 37.7954289522022, 13.65437473822385, -0.01600000075995922, 0.4480000212788582, 0.9280000440776348, 0.0, 0.0, 0.0, 0.0, 0.0, 1.6483368947508008E9, 0.0, 2022-03-26 18:21:34.750
82.0, 0.7479799911379814, 16.51165830437094, 35.86564057506621, 17.222239295952022, -0.03200000151991844, 0.4480000212788582, 0.9280000440776348, 0.0, 0.0, 0.0, 0.0, 0.0, 1.6483368947514799E9, 0.0, 2022-03-26 18:21:34.751
82.0, 4.155028850771487, 16.44060020521283, 35.4617313798517, 22.301023435778916, -0.03200000151991844, 0.4480000212788582, 0.9280000440776348, 0.0, 0.0, 0.0, 0.0, 0.0, 1.6483368947514799E9, 0.0, 2022-03-26 18:21:34.751
83.0, 5.2919584373012185, 8.777545196004212, 34.33976139314473, 17.36809539422393, -0.03200000151991844, 0.4480000212788582, 0.9280000440776348, 0.0, 0.0, 0.0, 0.0, 0.0, 1.6483368947651255E9, 0.0, 2022-03-26 18:21:34.765
83.0, 3.8072181548923254, 13.078430145047605, 32.09208151977509, 15.572943415492773, -0.03200000151991844, 0.4480000212788582, 0.9280000440776348, 0.0, 0.0, 0.0, 0.0, 0.0, 1.6483368947651255E9, 0.0, 2022-03-26 18:21:34.765
84.0, 8.03704500477761, 12.532404751516879, 28.707472059875727, 19.67935356684029, -0.03200000151991844, 0.4480000212788582, 0.9280000440776348, 0.0, 0.0, 0.0, 0.0, 0.0, 1.6483368947808187E9, 0.0, 2022-03-26 18:21:34.780
84.0, 7.105809915810823, 8.777545196004212, 21.534343944862485, 17.869241988286376, -0.03200000151991844, 0.4480000212788582, 0.9280000440776348, 0.0, 0.0, 0.0, 0.0, 0.0, 1.6483368947808187E9, 0.0, 2022-03-26 18:21:34.780
85.0, 0.8526971898972988, 5.714567132294178, 22.009311239235103, 8.994459393434227, -0.03200000151991844, 0.4480000212788582, 0.9280000440776348, 0.0, 0.0, 0.0, 0.0, 0.0, 1.6483368947815197E9, 0.0, 2022-03-26 18:21:34.781
85.0, -1.9634474767372012, 3.986733352765441, 21.26507114805281, 6.82905731908977, -0.03200000151991844, 0.4480000212788582, 0.9280000440776348, 0.0, 0.0, 0.0, 0.0, 0.0, 1.6483368947815197E9, 0.0, 2022-03-26 18:21:34.781
86.0, -2.3224778724834323, 0.6731819920241833, 11.70588686130941, -8.87852249480784, -0.03200000151991844, 0.4480000212788582, 0.9280000440776348, 0.0, 0.0, 0.0, 0.0, 0.0, 1.6483368948278797E9, 0.0, 2022-03-26 18:21:34.827
86.0, 1.0920507870614529, 4.536498646251857, 14.196660231798887, -1.1070103868842125, -0.03200000151991844, 0.4480000212788582, 0.9280000440776348, 0.0, 0.0, 0.0, 0.0, 0.0, 1.6483368948278797E9, 0.0, 2022-03-26 18:21:34.827
87.0, -4.517799146473408, 1.0995305869728327, 4.499099646694958, -10.580176974646747, -0.03200000151991844, 0.4480000212788582, 0.9280000440776348, 0.0, 0.0, 0.0, 0.0, 0.0, 1.6483368948285408E9, 0.0, 2022-03-26 18:21:34.828
87.0, 2.984440164640546, 2.7226471677422523, 7.431181211955845, 14.260238531045616, -0.03200000151991844, 0.4480000212788582, 0.9280000440776348, 0.0, 0.0, 0.0, 0.0, 0.0, 1.6483368948285408E9, 0.0, 2022-03-26 18:21:34.828
88.0, -6.694420920684934, 3.496806458570063, 9.906994982622564, 3.496806458570063, -0.03200000151991844, 0.4480000212788582, 0.9280000440776348, 0.0, 0.0, 0.0, 0.0, 0.0, 1.6483368948293371E9, 0.0, 2022-03-26 18:21:34.829
88.0, -5.942701029591262, 1.0995305869728327, 12.04995765723288, 6.3391304248943925, -0.03200000151991844, 0.4480000212788582, 0.9280000440776348, 0.0, 0.0, 0.0, 0.0, 0.0, 1.6483368948293371E9, 0.0, 2022-03-26 18:21:34.829
89.0, -4.450480947270989, -1.6605155803263187, 17.64110809098929, 13.25794534292072, -0.03200000151991844, 0.4480000212788582, 0.9280000440776348, 0.0, 0.0, 0.0, 0.0, 0.0, 1.648336894830027E9, 0.0, 2022-03-26 18:21:34.830
89.0, -2.41223547141999, 1.3463639840483665, 10.587656774558127, 14.237799131311476, -0.03200000151991844, 0.4480000212788582, 0.9280000440776348, 0.0, 0.0, 0.0, 0.0, 0.0, 1.648336894830027E9, 0.0, 2022-03-26 18:21:34.830
90.0, 0.3702500956133008, 5.299438237212598, 16.365802206099033, 10.135128879919648, -0.03200000151991844, 0.4480000212788582, 0.9280000440776348, 0.0, 0.0, 0.0, 0.0, 0.0, 1.6483368948414793E9, 0.0, 2022-03-26 18:21:34.841
90.0, 1.9933666763827205, 4.861869942396879, 15.374728717841208, 13.972266234457493, -0.03200000151991844, 0.4480000212788582, 0.9280000440776348, 0.0, 0.0, 0.0, 0.0, 0.0, 1.6483368948414793E9, 0.0, 2022-03-26 18:21:34.841
91.0, 0.9312350889667869, 2.3860561717301607, 16.13392840884626, 8.740146196447313, -0.03200000151991844, 0.4640000220388174, 0.9280000440776348, 0.0, 0.0, 0.0, 0.0, 0.0, 1.648336894842213E9, 0.0, 2022-03-26 18:21:34.842
91.0, 3.2237937618047, 5.422854935750365, 19.006171574816108, 9.26747209019959, -0.03200000151991844, 0.4640000220388174, 0.9280000440776348, 0.0, 0.0, 0.0, 0.0, 0.0, 1.648336894842213E9, 0.0, 2022-03-26 18:21:34.842
92.0, 8.594290098175406, 8.762585596181452, 20.46847245749086, 15.505625216290355, -0.01600000075995922, 0.4640000220388174, 0.9280000440776348, 0.0, 0.0, 0.0, 0.0, 0.0, 1.648336894855063E9, 0.0, 2022-03-26 18:21:34.855
92.0, 10.08651018049568, 14.660407826304436, 16.743532101623714, 22.08036933839321, -0.01600000075995922, 0.4640000220388174, 0.9280000440776348, 0.0, 0.0, 0.0, 0.0, 0.0, 1.648336894855063E9, 0.0, 2022-03-26 18:21:34.855
93.0, 10.112689480185509, 14.406094629317522, 17.095082697458565, 18.314290083013475, -0.01600000075995922, 0.4640000220388174, 0.9280000440776348, 0.0, 0.0, 0.0, 0.0, 0.0, 1.6483368948707695E9, 0.0, 2022-03-26 18:21:34.870
93.0, 11.848003059625626, 18.88275487627834, 26.254097688943148, 17.420453993603587, -0.01600000075995922, 0.4640000220388174, 0.9280000440776348, 0.0, 0.0, 0.0, 0.0, 0.0, 1.6483368948707695E9, 0.0, 2022-03-26 18:21:34.870
94.0, 14.121862232685089, 19.37642167042941, 29.305856052786112, 29.81822234671563, -0.01600000075995922, 0.4640000220388174, 0.9280000440776348, 0.0, 0.0, 0.0, 0.0, 0.0, 1.6483368948714676E9, 0.0, 2022-03-26 18:21:34.871
94.0, 6.0960369277745485, 7.539638310670853, 17.35313579440117, 27.282570176757872, -0.01600000075995922, 0.4640000220388174, 0.9280000440776348, 0.0, 0.0, 0.0, 0.0, 0.0, 1.6483368948714676E9, 0.0, 2022-03-26 18:21:34.871
95.0, 10.314644077792764, 17.25215849559754, 26.407433587126434, 19.30910347122699, -0.01600000075995922, 0.4640000220388174, 0.9280000440776348, 0.0, 0.0, 0.0, 0.0, 0.0, 1.6483368949014938E9, 0.0, 2022-03-26 18:21:34.901
95.0, 8.945840694010258, 19.645694467239082, 23.74462481867522, 27.630380872637033, -0.01600000075995922, 0.4640000220388174, 0.9280000440776348, 0.0, 0.0, 0.0, 0.0, 0.0, 1.6483368949014938E9, 0.0, 2022-03-26 18:21:34.901
96.0, 7.913628306239843, 11.24213926680386, 18.91641397587955, 19.832689465023577, -0.01600000075995922, 0.4640000220388174, 0.9280000440776348, 0.0, 0.0, 0.0, 0.0, 0.0, 1.6483368949022284E9, 0.0, 2022-03-26 18:21:34.902
96.0, 4.42056174762547, 11.885402059182525, 19.26422467175871, 7.995906105265021, -0.01600000075995922, 0.4640000220388174, 0.9280000440776348, 0.0, 0.0, 0.0, 0.0, 0.0, 1.6483368949022284E9, 0.0, 2022-03-26 18:21:34.902
97.0, 6.1371758272871375, 13.620715638622642, 18.51250478066504, 13.878768735565245, -0.01600000075995922, 0.4640000220388174, 0.9280000440776348, 0.0, 0.0, 0.0, 0.0, 0.0, 1.6483368949029477E9, 0.0, 2022-03-26 18:21:34.902
97.0, 10.138868779875338, 22.289803735911846, 23.7521046185866, 20.285217359662056, -0.01600000075995922, 0.4640000220388174, 0.9280000440776348, 0.0, 0.0, 0.0, 0.0, 0.0, 1.6483368949029477E9, 0.0, 2022-03-26 18:21:34.902
98.0, 9.66764138545841, 21.029457450844347, 26.09328199084848, 13.542177739553154, -0.01600000075995922, 0.4640000220388174, 0.9280000440776348, 0.0, 0.0, 0.0, 0.0, 0.0, 1.6483368949150789E9, 0.0, 2022-03-26 18:21:34.915
98.0, 10.385702176950872, 19.593335867859423, 24.847895305603743, 6.604663321748376, -0.01600000075995922, 0.4640000220388174, 0.9280000440776348, 0.0, 0.0, 0.0, 0.0, 0.0, 1.6483368949150789E9, 0.0, 2022-03-26 18:21:34.915
99.0, 11.6722277617082, 24.032597115263343, 30.296929541043937, 12.371589053422213, -0.01600000075995922, 0.4640000220388174, 0.9280000440776348, 0.0, 0.0, 0.0, 0.0, 0.0, 1.648336894930843E9, 0.0, 2022-03-26 18:21:34.930
99.0, 10.561477474868298, 22.050450138747692, 35.53278947900981, 6.634582521393895, -0.01600000075995922, 0.4640000220388174, 0.9280000440776348, 0.0, 0.0, 0.0, 0.0, 0.0, 1.648336894930843E9, 0.0, 2022-03-26 18:21:34.930
100.0, 8.605509798042476, 23.68852631933987, 35.44677178002894, 15.251312019303441, -0.01600000075995922, 0.4640000220388174, 0.9280000440776348, 0.0, 0.0, 0.0, 0.0, 0.0, 1.6483368949315999E9, 0.0, 2022-03-26 18:21:34.931
100.0, 7.412481712177396, 21.481985345482826, 29.38813385181129, 17.009064998477697, -0.01600000075995922, 0.4640000220388174, 0.9280000440776348, 0.0, 0.0, 0.0, 0.0, 0.0, 1.6483368949315999E9, 0.0, 2022-03-26 18:21:34.931
0.0, 564.9885562560521, 40.028149225749075, 845.7895946791396, 397.92722523538396, -0.01600000075995922, 0.4640000220388174, 0.9280000440776348, 0.0, 0.0, 0.0, 0.0, 0.0, 1.6483368949457796E9, 0.0, 2022-03-26 18:21:34.945
1.0, 561.0541815026663, 35.177498983219266, 842.6667782161385, 397.4746973407455, -0.01600000075995922, 0.4640000220388174, 0.9280000440776348, 0.0, 0.0, 0.0, 0.0, 0.0, 1.6483368949465117E9, 0.0, 2022-03-26 18:21:34.946
1.0, 562.8568132813089, 40.33108112215996, 843.4633769067004, 391.51329681137577, -0.01600000075995922, 0.4640000220388174, 0.9280000440776348, 0.0, 0.0, 0.0, 0.0, 0.0, 1.6483368949465117E9, 0.0, 2022-03-26 18:21:34.946
2.0, 562.6473788837902, 43.99618307873607, 851.2311491146684, 401.01264269882813, -0.01600000075995922, 0.4640000220388174, 0.9280000440776348, 0.0, 0.0, 0.0, 0.0, 0.0, 1.648336894960133E9, 0.0, 2022-03-26 18:21:34.960
2.0, 564.0236620674841, 39.272689434699714, 843.7812684029341, 398.7986219250597, -0.01600000075995922, 0.4640000220388174, 0.9280000440776348, 0.0, 0.0, 0.0, 0.0, 0.0, 1.648336894960133E9, 0.0, 2022-03-26 18:21:34.960
3.0, 559.1318729254417, 36.2396305706352, 837.3710798788816, 385.0470097879879, -0.01600000075995922, 0.4640000220388174, 0.9280000440776348, 0.0, 0.0, 0.0, 0.0, 0.0, 1.6483368949757457E9, 0.0, 2022-03-26 18:21:34.975
3.0, 563.1036466783844, 45.660438559018075, 849.0657470403239, 402.0897338860668, -0.01600000075995922, 0.4640000220388174, 0.9280000440776348, 0.0, 0.0, 0.0, 0.0, 0.0, 1.6483368949757457E9, 0.0, 2022-03-26 18:21:34.975
4.0, 563.2495027766563, 48.38682562671602, 851.1488713156432, 397.85242723627016, -0.01600000075995922, 0.4640000220388174, 0.9280000440776348, 0.0, 0.0, 0.0, 0.0, 0.0, 1.6483368949765625E9, 0.0, 2022-03-26 18:21:34.976
4.0, 560.1940045128576, 44.890019168145955, 846.5749736698344, 398.5031698285602, -0.01600000075995922, 0.4640000220388174, 0.9280000440776348, 0.0, 0.0, 0.0, 0.0, 0.0, 1.6483368949765625E9, 0.0, 2022-03-26 18:21:34.976
5.0, 565.8786524455063, 44.908718667924404, 850.2886943258345, 408.93749070493504, -0.01600000075995922, 0.4640000220388174, 0.9280000440776348, 0.0, 0.0, 0.0, 0.0, 0.0, 1.6483368949901652E9, 0.0, 2022-03-26 18:21:34.990
5.0, 561.5441083968617, 45.82873405702412, 849.9558432297781, 412.27348146541044, -0.01600000075995922, 0.4640000220388174, 0.9280000440776348, 0.0, 0.0, 0.0, 0.0, 0.0, 1.6483368949901652E9, 0.0, 2022-03-26 18:21:34.990
6.0, 564.0797605668195, 44.16073867678642, 846.0326881762594, 410.08937989128754, -0.01600000075995922, 0.4640000220388174, 0.9280000440776348, 0.0, 0.0, 0.0, 0.0, 0.0, 1.648336895005833E9, 0.0, 2022-03-26 18:21:35.005
6.0, 562.8381137815304, 47.75852243416011, 847.8203603550792, 412.93170385761186, -0.01600000075995922, 0.4640000220388174, 0.9280000440776348, 0.0, 0.0, 0.0, 0.0, 0.0, 1.648336895005833E9, 0.0, 2022-03-26 18:21:35.005
7.0, 565.2877482525073, 48.510242325253785, 846.2047235742211, 417.5056015034206, -0.01600000075995922, 0.4640000220388174, 0.9280000440776348, 0.0, 0.0, 0.0, 0.0, 0.0, 1.6483368950065513E9, 0.0, 2022-03-26 18:21:35.006
7.0, 569.6671711006202, 50.30539430398494, 848.0372745525092, 413.71708284830675, -0.01600000075995922, 0.4640000220388174, 0.9280000440776348, 0.0, 0.0, 0.0, 0.0, 0.0, 1.6483368950065513E9, 0.0, 2022-03-26 18:21:35.006
8.0, 570.5086485906504, 52.0257482836023, 847.4688097592443, 413.56748685007915, -0.01600000075995922, 0.4640000220388174, 0.9280000440776348, 0.0, 0.0, 0.0, 0.0, 0.0, 1.648336895020108E9, 0.0, 2022-03-26 18:21:35.020
8.0, 572.2065631705336, 52.20526348147541, 848.171910950914, 416.0395607207902, -0.01600000075995922, 0.4640000220388174, 0.9280000440776348, 0.0, 0.0, 0.0, 0.0, 0.0, 1.648336895020108E9, 0.0, 2022-03-26 18:21:35.020
9.0, 572.0195681727491, 48.547641324810684, 844.8321802904829, 402.08599398611113, -0.01600000075995922, 0.4640000220388174, 0.9280000440776348, 0.0, 0.0, 0.0, 0.0, 0.0, 1.6483368950357835E9, 0.0, 2022-03-26 18:21:35.035
9.0, 571.6418382772245, 50.488649401813745, 841.9599371245131, 414.1022925437428, -0.01600000075995922, 0.4640000220388174, 0.9280000440776348, 0.0, 0.0, 0.0, 0.0, 0.0, 1.6483368950357835E9, 0.0, 2022-03-26 18:21:35.035
10.0, 573.9456166499294, 46.71883024647832, 847.4800294591114, 421.53347375569865, -0.01600000075995922, 0.4640000220388174, 0.9120000433176756, 0.0, 0.0, 0.0, 0.0, 0.0, 1.6483368950364919E9, 0.0, 2022-03-26 18:21:35.036
10.0, 574.3719652448781, 48.80569442175329, 849.4920956352726, 424.15888352459297, -0.01600000075995922, 0.4640000220388174, 0.9120000433176756, 0.0, 0.0, 0.0, 0.0, 0.0, 1.6483368950364919E9, 0.0, 2022-03-26 18:21:35.036
11.0, 567.9281176212244, 51.81631388608366, 844.9294176893309, 415.9161440222524, -0.01600000075995922, 0.4480000212788582, 0.9120000433176756, 0.0, 0.0, 0.0, 0.0, 0.0, 1.6483368950500865E9, 0.0, 2022-03-26 18:21:35.050
11.0, 567.8047009226866, 35.562708678655326, 836.9222918841988, 409.8051474946551, -0.01600000075995922, 0.4480000212788582, 0.9120000433176756, 0.0, 0.0, 0.0, 0.0, 0.0, 1.6483368950500865E9, 0.0, 2022-03-26 18:21:35.050
12.0, 564.3677328634076, 34.99424388539046, 826.824562003836, 402.97609017556533, -0.03200000151991844, 0.4480000212788582, 0.9120000433176756, 0.0, 0.0, 0.0, 0.0, 0.0, 1.6483368950657854E9, 0.0, 2022-03-26 18:21:35.065
12.0, 571.7166362763382, 41.11272021289915, 834.218344216235, 407.0937200267799, -0.03200000151991844, 0.4480000212788582, 0.9120000433176756, 0.0, 0.0, 0.0, 0.0, 0.0, 1.6483368950657854E9, 0.0, 2022-03-26 18:21:35.065
13.0, 565.6243392485194, 34.65391298942268, 830.5569821596146, 398.3984526298009, -0.03200000151991844, 0.4480000212788582, 0.9120000433176756, 0.0, 0.0, 0.0, 0.0, 0.0, 1.6483368950664814E9, 0.0, 2022-03-26 18:21:35.066
13.0, 563.5225154734217, 35.50661017931998, 828.3317416859791, 406.091426838655, -0.03200000151991844, 0.4480000212788582, 0.9120000433176756, 0.0, 0.0, 0.0, 0.0, 0.0, 1.6483368950664814E9, 0.0, 2022-03-26 18:21:35.066
14.0, 561.0504416027106, 39.1305732363835, 833.5638617239892, 408.2156900134869, -0.03200000151991844, 0.4480000212788582, 0.9120000433176756, 0.0, 0.0, 0.0, 0.0, 0.0, 1.6483368950801535E9, 0.0, 2022-03-26 18:21:35.080
14.0, 563.7057705712505, 30.1622931426391, 832.228717439808, 394.26212327880785, -0.03200000151991844, 0.4480000212788582, 0.9120000433176756, 0.0, 0.0, 0.0, 0.0, 0.0, 1.6483368950801535E9, 0.0, 2022-03-26 18:21:35.080
15.0, 565.9123115451075, 36.389226568862796, 839.308348055929, 412.34453956456855, -0.03200000151991844, 0.4480000212788582, 0.9120000433176756, 0.0, 0.0, 0.0, 0.0, 0.0, 1.6483368950957978E9, 0.0, 2022-03-26 18:21:35.095
15.0, 568.4143046154641, 39.9458714267239, 839.0802141586319, 411.3198069767095, -0.03200000151991844, 0.4480000212788582, 0.9120000433176756, 0.0, 0.0, 0.0, 0.0, 0.0, 1.6483368950957978E9, 0.0, 2022-03-26 18:21:35.095
16.0, 562.3070479878224, 36.65849936567247, 840.2769821444526, 401.26695589581504, -0.03200000151991844, 0.4480000212788582, 0.9120000433176756, 0.0, 0.0, 0.0, 0.0, 0.0, 1.6483368950965436E9, 0.0, 2022-03-26 18:21:35.096
16.0, 563.518775573466, 36.32564826961607, 845.4717031829059, 417.49812170350924, -0.03200000151991844, 0.4480000212788582, 0.9120000433176756, 0.0, 0.0, 0.0, 0.0, 0.0, 1.6483368950965436E9, 0.0, 2022-03-26 18:21:35.096
17.0, 561.1701184012927, 35.5365293789655, 842.1132730226964, 422.5133275440894, -0.03200000151991844, 0.4480000212788582, 0.9120000433176756, 0.0, 0.0, 0.0, 0.0, 0.0, 1.648336895110087E9, 0.0, 2022-03-26 18:21:35.110
17.0, 565.9085716451518, 39.17919193580747, 843.0295485118404, 411.78355457121506, -0.03200000151991844, 0.4480000212788582, 0.9120000433176756, 0.0, 0.0, 0.0, 0.0, 0.0, 1.648336895110087E9, 0.0, 2022-03-26 18:21:35.110
18.0, 558.260476235766, 40.892066115513444, 838.9156585605815, 402.53104208083823, -0.03200000151991844, 0.4480000212788582, 0.9120000433176756, 0.0, 0.0, 0.0, 0.0, 0.0, 1.6483368951257625E9, 0.0, 2022-03-26 18:21:35.125
18.0, 557.1123269493692, 36.95769136212766, 837.8161279736087, 410.1342586907558, -0.03200000151991844, 0.4480000212788582, 0.9120000433176756, 0.0, 0.0, 0.0, 0.0, 0.0, 1.6483368951257625E9, 0.0, 2022-03-26 18:21:35.125
19.0, 556.2558898595162, 28.94682565703988, 829.4387520728633, 406.27468193648383, -0.03200000151991844, 0.4480000212788582, 0.9120000433176756, 0.0, 0.0, 0.0, 0.0, 0.0, 1.648336895126479E9, 0.0, 2022-03-26 18:21:35.126
19.0, 555.0179829741828, 27.559322773478925, 824.3562280330807, 400.8780063004233, -0.03200000151991844, 0.4480000212788582, 0.9120000433176756, 0.0, 0.0, 0.0, 0.0, 0.0, 1.648336895126479E9, 0.0, 2022-03-26 18:21:35.126
20.0, 559.2552896239795, 33.4982839031145, 829.4985904721543, 407.2395761250518, -0.03200000151991844, 0.4480000212788582, 0.9120000433176756, 0.0, 0.0, 0.0, 0.0, 0.0, 1.6483368951401184E9, 0.0, 2022-03-26 18:21:35.140
20.0, 561.4019921985455, 25.992304692044854, 826.2635770104825, 409.9173444933258, -0.03200000151991844, 0.4480000212788582, 0.9120000433176756, 0.0, 0.0, 0.0, 0.0, 0.0, 1.6483368951401184E9, 0.0, 2022-03-26 18:21:35.140
21.0, 555.148879472632, 31.258083829656243, 828.8777670795098, 401.2744356957264, -0.03200000151991844, 0.4640000220388174, 0.9120000433176756, 0.0, 0.0, 0.0, 0.0, 0.0, 1.6483368951558335E9, 0.0, 2022-03-26 18:21:35.155
21.0, 561.3496335991658, 27.851034970022738, 827.4491252964363, 402.51982238097116, -0.03200000151991844, 0.4640000220388174, 0.9120000433176756, 0.0, 0.0, 0.0, 0.0, 0.0, 1.6483368951558335E9, 0.0, 2022-03-26 18:21:35.155
22.0, 562.5202222852968, 30.55872253794223, 819.8870475860313, 401.6259862915613, -0.03200000151991844, 0.4640000220388174, 0.9120000433176756, 0.0, 0.0, 0.0, 0.0, 0.0, 1.648336895156566E9, 0.0, 2022-03-26 18:21:35.156
22.0, 553.6641391902231, 16.751011901535094, 815.4216070389375, 393.6899185855873, -0.03200000151991844, 0.4640000220388174, 0.9120000433176756, 0.0, 0.0, 0.0, 0.0, 0.0, 1.648336895156566E9, 0.0, 2022-03-26 18:21:35.156
23.0, 557.7256705421023, 23.924140016548336, 810.4550198977813, 383.236898209434, -0.03200000151991844, 0.4640000220388174, 0.9120000433176756, 0.0, 0.0, 0.0, 0.0, 0.0, 1.6483368951701088E9, 0.0, 2022-03-26 18:21:35.170
23.0, 560.515635909047, 23.38933432288468, 812.1903334772214, 397.22412404371426, -0.03200000151991844, 0.4640000220388174, 0.9120000433176756, 0.0, 0.0, 0.0, 0.0, 0.0, 1.6483368951701088E9, 0.0, 2022-03-26 18:21:35.170
24.0, 559.8723731166683, 18.022577886469662, 817.2055393178016, 397.22038414375857, -0.03200000151991844, 0.4640000220388174, 0.9120000433176756, 0.0, 0.0, 0.0, 0.0, 0.0, 1.6483368951858203E9, 0.0, 2022-03-26 18:21:35.185
24.0, 557.6059937435202, 16.706133102066815, 816.8053700225428, 398.48821022873744, -0.03200000151991844, 0.4640000220388174, 0.9120000433176756, 0.0, 0.0, 0.0, 0.0, 0.0, 1.6483368951858203E9, 0.0, 2022-03-26 18:21:35.185
25.0, 558.1258398373611, 19.76163136586547, 820.0777824837714, 399.6475792150013, -0.03200000151991844, 0.4640000220388174, 0.9120000433176756, 0.0, 0.0, 0.0, 0.0, 0.0, 1.6483368951865337E9, 0.0, 2022-03-26 18:21:35.186
25.0, 559.116913325619, 18.699499778449535, 813.4544196622446, 393.74601708492264, -0.03200000151991844, 0.4640000220388174, 0.9120000433176756, 0.0, 0.0, 0.0, 0.0, 0.0, 1.6483368951865337E9, 0.0, 2022-03-26 18:21:35.186
26.0, 554.9731041747145, 20.360015358775854, 818.6566205006093, 396.36768695386127, -0.03200000151991844, 0.4640000220388174, 0.9120000433176756, 0.0, 0.0, 0.0, 0.0, 0.0, 1.648336895200084E9, 0.0, 2022-03-26 18:21:35.200
26.0, 552.1831388077699, 20.419853758066893, 821.4802449671552, 393.36454728944227, -0.03200000151991844, 0.4640000220388174, 0.9120000433176756, 0.0, 0.0, 0.0, 0.0, 0.0, 1.648336895200084E9, 0.0, 2022-03-26 18:21:35.200
27.0, 556.173612060491, 31.493697526864707, 831.4208990493789, 403.8437469652854, -0.03200000151991844, 0.4640000220388174, 0.9120000433176756, 0.0, 0.0, 0.0, 0.0, 0.0, 1.64833689521576E9, 0.0, 2022-03-26 18:21:35.215
27.0, 552.6468864022754, 28.20258556585759, 826.2747967103496, 398.33487433055416, -0.03200000151991844, 0.4640000220388174, 0.9120000433176756, 0.0, 0.0, 0.0, 0.0, 0.0, 1.64833689521576E9, 0.0, 2022-03-26 18:21:35.215
28.0, 549.6811457374133, 28.086648667231202, 825.5604758188128, 401.37541299453005, -0.03200000151991844, 0.4640000220388174, 0.9120000433176756, 0.0, 0.0, 0.0, 0.0, 0.0, 1.6483368952164867E9, 0.0, 2022-03-26 18:21:35.216
28.0, 552.519729803782, 29.967818344943225, 835.8975592963398, 407.26949532469735, -0.03200000151991844, 0.4640000220388174, 0.9120000433176756, 0.0, 0.0, 0.0, 0.0, 0.0, 1.6483368952164867E9, 0.0, 2022-03-26 18:21:35.216
29.0, 556.4316651574336, 34.34724119305611, 839.6374592520297, 398.26755613135174, -0.03200000151991844, 0.4640000220388174, 0.9120000433176756, 0.0, 0.0, 0.0, 0.0, 0.0, 1.6483368952300825E9, 0.0, 2022-03-26 18:21:35.230
29.0, 555.3022153708152, 37.15216615982354, 844.0168821001425, 409.52839489793405, -0.03200000151991844, 0.4640000220388174, 0.9120000433176756, 0.0, 0.0, 0.0, 0.0, 0.0, 1.6483368952300825E9, 0.0, 2022-03-26 18:21:35.230
30.0, 551.3790603172965, 35.72352437674999, 839.3494869554415, 404.90213865274563, -0.03200000151991844, 0.4640000220388174, 0.9280000440776348, 0.0, 0.0, 0.0, 0.0, 0.0, 1.648336895260543E9, 0.0, 2022-03-26 18:21:35.260
30.0, 551.9961438099854, 32.391273516230285, 836.050895194523, 404.71888355491683, -0.03200000151991844, 0.4640000220388174, 0.9280000440776348, 0.0, 0.0, 0.0, 0.0, 0.0, 1.648336895260543E9, 0.0, 2022-03-26 18:21:35.260
31.0, 554.7973288767971, 27.159153478220105, 829.0348428776488, 388.96268504159525, -0.03200000151991844, 0.4640000220388174, 0.9280000440776348, 0.0, 0.0, 0.0, 0.0, 0.0, 1.648336895277109E9, 0.0, 2022-03-26 18:21:35.277
31.0, 558.5596682322212, 27.192812577821314, 831.0469090538099, 398.74252342572436, -0.03200000151991844, 0.4640000220388174, 0.9280000440776348, 0.0, 0.0, 0.0, 0.0, 0.0, 1.648336895277109E9, 0.0, 2022-03-26 18:21:35.277
32.0, 554.8496874761768, 29.31707575265318, 833.4067859258503, 407.2021771254949, -0.01600000075995922, 0.4640000220388174, 0.9280000440776348, 0.0, 0.0, 0.0, 0.0, 0.0, 1.6483368952778237E9, 0.0, 2022-03-26 18:21:35.277
32.0, 555.7734427652322, 31.953705221414566, 832.5391291361302, 405.8819924411364, -0.01600000075995922, 0.4640000220388174, 0.9280000440776348, 0.0, 0.0, 0.0, 0.0, 0.0, 1.6483368952778237E9, 0.0, 2022-03-26 18:21:35.277
33.0, 550.0663554328494, 20.92100035212934, 823.2529575461522, 395.44767156476155, -0.01600000075995922, 0.4640000220388174, 0.9280000440776348, 0.0, 0.0, 0.0, 0.0, 0.0, 1.648336895278566E9, 0.0, 2022-03-26 18:21:35.278
33.0, 555.848240764346, 29.590088449418545, 840.1199063463137, 405.55662114499137, -0.01600000075995922, 0.4640000220388174, 0.9280000440776348, 0.0, 0.0, 0.0, 0.0, 0.0, 1.648336895278566E9, 0.0, 2022-03-26 18:21:35.278
34.0, 561.3571133990772, 34.14528659544885, 844.6713645923883, 410.70646338397637, -0.01600000075995922, 0.4640000220388174, 0.9280000440776348, 0.0, 0.0, 0.0, 0.0, 0.0, 1.64833689527932E9, 0.0, 2022-03-26 18:21:35.279
34.0, 557.8191680409946, 26.55328968539834, 838.5454084649682, 405.9530505402945, -0.01600000075995922, 0.4640000220388174, 0.9280000440776348, 0.0, 0.0, 0.0, 0.0, 0.0, 1.64833689527932E9, 0.0, 2022-03-26 18:21:35.279
35.0, 561.6301260958426, 30.483924538828433, 837.6964511750266, 395.24945686711, -0.01600000075995922, 0.4640000220388174, 0.9280000440776348, 0.0, 0.0, 0.0, 0.0, 0.0, 1.648336895290048E9, 0.0, 2022-03-26 18:21:35.290
35.0, 559.6517190192826, 33.12055400758982, 833.7433769218624, 404.19155766116455, -0.01600000075995922, 0.4640000220388174, 0.9280000440776348, 0.0, 0.0, 0.0, 0.0, 0.0, 1.648336895290048E9, 0.0, 2022-03-26 18:21:35.290
36.0, 556.2895489591174, 31.80784912314266, 837.861006773077, 397.4746973407455, -0.01600000075995922, 0.4640000220388174, 0.9280000440776348, 0.0, 0.0, 0.0, 0.0, 0.0, 1.648336895305788E9, 0.0, 2022-03-26 18:21:35.305
36.0, 562.5239621852525, 36.64353976584971, 838.6576054636389, 397.2764826430939, -0.01600000075995922, 0.4640000220388174, 0.9280000440776348, 0.0, 0.0, 0.0, 0.0, 0.0, 1.648336895305788E9, 0.0, 2022-03-26 18:21:35.305
37.0, 556.932811751496, 35.173759083263576, 836.7165973866358, 404.5767673566006, -0.01600000075995922, 0.4640000220388174, 0.9280000440776348, 0.0, 0.0, 0.0, 0.0, 0.0, 1.6483368953065171E9, 0.0, 2022-03-26 18:21:35.306
37.0, 560.1079868138768, 32.94851860962808, 839.0989136584103, 399.52416251646355, -0.01600000075995922, 0.4640000220388174, 0.9280000440776348, 0.0, 0.0, 0.0, 0.0, 0.0, 1.6483368953065171E9, 0.0, 2022-03-26 18:21:35.306
38.0, 552.7665632008575, 28.726171559654176, 834.857867108658, 394.019029781688, -0.01600000075995922, 0.4640000220388174, 0.9280000440776348, 0.0, 0.0, 0.0, 0.0, 0.0, 1.648336895320102E9, 0.0, 2022-03-26 18:21:35.320
38.0, 553.1629925961606, 27.581762173213065, 831.1404065527022, 398.30121523095295, -0.01600000075995922, 0.4640000220388174, 0.9280000440776348, 0.0, 0.0, 0.0, 0.0, 0.0, 1.648336895320102E9, 0.0, 2022-03-26 18:21:35.320
39.0, 550.8330349237658, 30.487664438784122, 831.0431691538543, 396.18069195607677, -0.01600000075995922, 0.4640000220388174, 0.9280000440776348, 0.0, 0.0, 0.0, 0.0, 0.0, 1.6483368953358188E9, 0.0, 2022-03-26 18:21:35.335
39.0, 552.7815228006802, 29.062762555666268, 829.50233037211, 390.4324657241814, -0.01600000075995922, 0.4640000220388174, 0.9280000440776348, 0.0, 0.0, 0.0, 0.0, 0.0, 1.6483368953358188E9, 0.0, 2022-03-26 18:21:35.335
40.0, 550.5974212265573, 28.318522464483976, 828.8328882800415, 396.2405303553678, -0.01600000075995922, 0.4640000220388174, 0.9280000440776348, 0.0, 0.0, 0.0, 0.0, 0.0, 1.6483368953365204E9, 0.0, 2022-03-26 18:21:35.336
40.0, 554.8384677763097, 28.797229658812284, 827.8156354920939, 397.4260786413215, -0.01600000075995922, 0.4640000220388174, 0.9280000440776348, 0.0, 0.0, 0.0, 0.0, 0.0, 1.6483368953365204E9, 0.0, 2022-03-26 18:21:35.336
41.0, 549.3931734408252, 20.393674458377063, 818.7388982996345, 384.74033799162135, -0.01600000075995922, 0.4480000212788582, 0.9280000440776348, 0.0, 0.0, 0.0, 0.0, 0.0, 1.6483368953500843E9, 0.0, 2022-03-26 18:21:35.350
41.0, 559.2029310245998, 28.277383564971387, 826.7273246049881, 384.0970751992427, -0.01600000075995922, 0.4480000212788582, 0.9280000440776348, 0.0, 0.0, 0.0, 0.0, 0.0, 1.6483368953500843E9, 0.0, 2022-03-26 18:21:35.350
42.0, 553.4210456931032, 31.897606722079217, 827.1050545005128, 384.9385526892729, -0.01600000075995922, 0.4480000212788582, 0.9280000440776348, 0.0, 0.0, 0.0, 0.0, 0.0, 1.6483368953658235E9, 0.0, 2022-03-26 18:21:35.365
42.0, 554.3223615824245, 31.04864943213761, 828.0175900897011, 392.2724965023808, -0.01600000075995922, 0.4480000212788582, 0.9280000440776348, 0.0, 0.0, 0.0, 0.0, 0.0, 1.6483368953658235E9, 0.0, 2022-03-26 18:21:35.365
43.0, 551.891426611226, 33.28510960564017, 821.9439925616607, 385.9894645768218, -0.01600000075995922, 0.4480000212788582, 0.9280000440776348, 0.0, 0.0, 0.0, 0.0, 0.0, 1.6483368953665316E9, 0.0, 2022-03-26 18:21:35.366
43.0, 556.7009379542433, 23.901700616814196, 822.4937578551471, 388.3942202483304, -0.01600000075995922, 0.4480000212788582, 0.9280000440776348, 0.0, 0.0, 0.0, 0.0, 0.0, 1.6483368953665316E9, 0.0, 2022-03-26 18:21:35.366
44.0, 555.2348971716128, 28.281123464927077, 822.5835154540837, 391.1692260154523, -0.01600000075995922, 0.4480000212788582, 0.9280000440776348, 0.0, 0.0, 0.0, 0.0, 0.0, 1.6483368953800724E9, 0.0, 2022-03-26 18:21:35.380
44.0, 557.1123269493692, 35.962877973914146, 825.5866551185027, 387.8332352549769, -0.01600000075995922, 0.4480000212788582, 0.9280000440776348, 0.0, 0.0, 0.0, 0.0, 0.0, 1.6483368953800724E9, 0.0, 2022-03-26 18:21:35.380
45.0, 560.7624693061225, 32.33517501689494, 821.0164973726496, 386.37467427225783, -0.01600000075995922, 0.4480000212788582, 0.9280000440776348, 0.0, 0.0, 0.0, 0.0, 0.0, 1.6483368953958035E9, 0.0, 2022-03-26 18:21:35.395
45.0, 560.7175905066542, 32.96721810940653, 827.5501025952399, 390.66433952143416, -0.01600000075995922, 0.4480000212788582, 0.9280000440776348, 0.0, 0.0, 0.0, 0.0, 0.0, 1.6483368953958035E9, 0.0, 2022-03-26 18:21:35.395
46.0, 558.4699106332846, 35.652466277591884, 829.1320802764967, 390.1706727272831, -0.01600000075995922, 0.4480000212788582, 0.9280000440776348, 0.0, 0.0, 0.0, 0.0, 0.0, 1.648336895396531E9, 0.0, 2022-03-26 18:21:35.396
46.0, 556.3942661578767, 36.5350826671347, 827.4304257966578, 387.204932062421, -0.01600000075995922, 0.4480000212788582, 0.9280000440776348, 0.0, 0.0, 0.0, 0.0, 0.0, 1.648336895396531E9, 0.0, 2022-03-26 18:21:35.396
47.0, 557.4937967448495, 41.74102340545505, 834.1734654167667, 398.0319424341433, -0.01600000075995922, 0.4480000212788582, 0.9280000440776348, 0.0, 0.0, 0.0, 0.0, 0.0, 1.6483368954101064E9, 0.0, 2022-03-26 18:21:35.410
47.0, 556.5625616558827, 43.99618307873607, 837.7338501745835, 392.55298899905756, -0.01600000075995922, 0.4480000212788582, 0.9280000440776348, 0.0, 0.0, 0.0, 0.0, 0.0, 1.6483368954101064E9, 0.0, 2022-03-26 18:21:35.410
48.0, 555.2348971716128, 40.97434391453862, 836.2790290918201, 388.8355284431018, -0.01600000075995922, 0.4480000212788582, 0.9280000440776348, 0.0, 0.0, 0.0, 0.0, 0.0, 1.6483368954258103E9, 0.0, 2022-03-26 18:21:35.425
48.0, 548.9630849459209, 40.61905341874808, 835.4412915017456, 393.37950688926503, -0.01600000075995922, 0.4480000212788582, 0.9280000440776348, 0.0, 0.0, 0.0, 0.0, 0.0, 1.6483368954258103E9, 0.0, 2022-03-26 18:21:35.425
49.0, 553.9558513867669, 34.48561749141663, 830.5943811591715, 388.89536684239283, -0.01600000075995922, 0.4480000212788582, 0.9280000440776348, 0.0, 0.0, 0.0, 0.0, 0.0, 1.6483368954265094E9, 0.0, 2022-03-26 18:21:35.426
49.0, 552.9610379985534, 30.341808340512216, 827.4005065970123, 374.3134969151579, -0.01600000075995922, 0.4480000212788582, 0.9280000440776348, 0.0, 0.0, 0.0, 0.0, 0.0, 1.6483368954265094E9, 0.0, 2022-03-26 18:21:35.426
50.0, 557.9313650396653, 31.172066130675375, 826.3570745093748, 379.66529375175014, -0.01600000075995922, 0.4480000212788582, 0.9280000440776348, 0.0, 0.0, 0.0, 0.0, 0.0, 1.6483368954401274E9, 0.0, 2022-03-26 18:21:35.440
50.0, 567.9842161205597, 43.54365518409759, 835.9947966951877, 391.26646341430023, -0.01600000075995922, 0.4480000212788582, 0.9280000440776348, 0.0, 0.0, 0.0, 0.0, 0.0, 1.6483368954401274E9, 0.0, 2022-03-26 18:21:35.440
51.0, 559.17675172491, 37.279322758316994, 829.6220071706921, 384.1307342988439, -0.01600000075995922, 0.4640000220388174, 0.9280000440776348, 0.0, 0.0, 0.0, 0.0, 0.0, 1.648336895455822E9, 0.0, 2022-03-26 18:21:35.455
51.0, 563.6646316717379, 33.625440501607955, 837.7787289740518, 387.21615176228806, -0.01600000075995922, 0.4640000220388174, 0.9280000440776348, 0.0, 0.0, 0.0, 0.0, 0.0, 1.648336895455822E9, 0.0, 2022-03-26 18:21:35.455
52.0, 570.6769440886565, 41.81956130452454, 847.3528728606179, 397.3849397418089, -0.01600000075995922, 0.4640000220388174, 0.9280000440776348, 0.0, 0.0, 0.0, 0.0, 0.0, 1.6483368954565384E9, 0.0, 2022-03-26 18:21:35.456
52.0, 556.016536262352, 40.450757920742035, 821.2708105696365, 370.5997762591578, -0.01600000075995922, 0.4640000220388174, 0.9280000440776348, 0.0, 0.0, 0.0, 0.0, 0.0, 1.6483368954565384E9, 0.0, 2022-03-26 18:21:35.456
53.0, 557.9164054398425, 45.82125425711274, 824.2851699339226, 372.2602918394841, -0.01600000075995922, 0.4640000220388174, 0.9280000440776348, 0.0, 0.0, 0.0, 0.0, 0.0, 1.6483368954700794E9, 0.0, 2022-03-26 18:21:35.470
53.0, 565.4784831502475, 47.89315883256495, 826.3234154097736, 383.9736585007049, -0.01600000075995922, 0.4640000220388174, 0.9280000440776348, 0.0, 0.0, 0.0, 0.0, 0.0, 1.6483368954700794E9, 0.0, 2022-03-26 18:21:35.470
54.0, 557.3367209467106, 50.19319730531424, 817.3102565165609, 376.0413306946866, -0.01600000075995922, 0.4640000220388174, 0.9280000440776348, 0.0, 0.0, 0.0, 0.0, 0.0, 1.6483368954857347E9, 0.0, 2022-03-26 18:21:35.485
54.0, 560.4221384101547, 60.03287408873439, 819.7524111876264, 363.16485514724627, -0.01600000075995922, 0.4640000220388174, 0.9280000440776348, 0.0, 0.0, 0.0, 0.0, 0.0, 1.6483368954857347E9, 0.0, 2022-03-26 18:21:35.485
55.0, 565.1456320541911, 53.91813766118139, 809.1497948132455, 371.164501152467, -0.01600000075995922, 0.4640000220388174, 0.9280000440776348, 0.0, 0.0, 0.0, 0.0, 0.0, 1.648336895486471E9, 0.0, 2022-03-26 18:21:35.486
55.0, 563.4551972742192, 57.325186520814896, 800.3460703175515, 365.3452168214135, -0.01600000075995922, 0.4640000220388174, 0.9280000440776348, 0.0, 0.0, 0.0, 0.0, 0.0, 1.648336895486471E9, 0.0, 2022-03-26 18:21:35.486
56.0, 556.8767132521607, 57.85625231452286, 791.2543735252693, 358.28428570507094, -0.01600000075995922, 0.4640000220388174, 0.9280000440776348, 0.0, 0.0, 0.0, 0.0, 0.0, 1.6483368955001445E9, 0.0, 2022-03-26 18:21:35.500
56.0, 565.568240749184, 59.92815688997507, 795.069071480073, 362.7123272526078, -0.01600000075995922, 0.4640000220388174, 0.9280000440776348, 0.0, 0.0, 0.0, 0.0, 0.0, 1.6483368955001445E9, 0.0, 2022-03-26 18:21:35.500
57.0, 562.8268940816633, 55.57491334155202, 798.4536809399724, 367.31988399801776, -0.01600000075995922, 0.4640000220388174, 0.9280000440776348, 0.0, 0.0, 0.0, 0.0, 0.0, 1.6483368955157423E9, 0.0, 2022-03-26 18:21:35.515
57.0, 560.3959591104649, 52.85226617380977, 794.9867936810479, 359.95228108530864, -0.01600000075995922, 0.4640000220388174, 0.9280000440776348, 0.0, 0.0, 0.0, 0.0, 0.0, 1.6483368955157423E9, 0.0, 2022-03-26 18:21:35.515
58.0, 546.0197836807929, 40.091727524995804, 784.9900410994887, 350.3631775989197, -0.01600000075995922, 0.4640000220388174, 0.9280000440776348, 0.0, 0.0, 0.0, 0.0, 0.0, 1.6483368955165236E9, 0.0, 2022-03-26 18:21:35.516
58.0, 552.6581061021425, 43.236983387731016, 789.9566282406449, 358.7816923991777, -0.01600000075995922, 0.4640000220388174, 0.9280000440776348, 0.0, 0.0, 0.0, 0.0, 0.0, 1.6483368955165236E9, 0.0, 2022-03-26 18:21:35.516
59.0, 555.4480714690872, 39.43350513279438, 784.660929903388, 356.1076639308594, -0.01600000075995922, 0.4640000220388174, 0.9280000440776348, 0.0, 0.0, 0.0, 0.0, 0.0, 1.6483368955301127E9, 0.0, 2022-03-26 18:21:35.530
59.0, 547.3250087653287, 34.6464331895113, 780.535820252262, 344.3007997707464, -0.01600000075995922, 0.4640000220388174, 0.9280000440776348, 0.0, 0.0, 0.0, 0.0, 0.0, 1.6483368955301127E9, 0.0, 2022-03-26 18:21:35.530
60.0, 555.5939275673591, 39.84115422796458, 784.0251469109207, 355.61025723675266, -0.01600000075995922, 0.4640000220388174, 0.9760000463575125, 0.0, 0.0, 0.0, 0.0, 0.0, 1.6483368955458024E9, 0.0, 2022-03-26 18:21:35.545
60.0, 552.2467171070166, 31.04864943213761, 783.3519649188966, 358.7891721990891, -0.01600000075995922, 0.4640000220388174, 0.9760000463575125, 0.0, 0.0, 0.0, 0.0, 0.0, 1.6483368955458024E9, 0.0, 2022-03-26 18:21:35.545
61.0, 553.6603992902674, 40.020669425837696, 789.9229691410437, 370.3005842627026, -0.01600000075995922, 0.49600002355873585, 0.9760000463575125, 0.0, 0.0, 0.0, 0.0, 0.0, 1.6483368955465324E9, 0.0, 2022-03-26 18:21:35.546
61.0, 550.8330349237658, 32.85876101069152, 785.7529806904495, 372.84745613252744, -0.01600000075995922, 0.49600002355873585, 0.9760000463575125, 0.0, 0.0, 0.0, 0.0, 0.0, 1.6483368955465324E9, 0.0, 2022-03-26 18:21:35.546
62.0, 545.4924577870406, 29.563909149728715, 783.1799295209348, 372.81005713297054, -0.03200000151991844, 0.49600002355873585, 0.9760000463575125, 0.0, 0.0, 0.0, 0.0, 0.0, 1.6483368955600767E9, 0.0, 2022-03-26 18:21:35.560
62.0, 548.7012919490226, 29.31707575265318, 783.7483943141997, 369.8293568682857, -0.03200000151991844, 0.49600002355873585, 0.9760000463575125, 0.0, 0.0, 0.0, 0.0, 0.0, 1.6483368955600767E9, 0.0, 2022-03-26 18:21:35.560
63.0, 554.6926116780378, 26.60938818473369, 789.8332115421072, 382.055089823436, -0.03200000151991844, 0.49600002355873585, 0.9760000463575125, 0.0, 0.0, 0.0, 0.0, 0.0, 1.6483368955758164E9, 0.0, 2022-03-26 18:21:35.575
63.0, 552.5758283031173, 22.53289723303169, 785.0984981982037, 378.835035961587, -0.03200000151991844, 0.49600002355873585, 0.9760000463575125, 0.0, 0.0, 0.0, 0.0, 0.0, 1.6483368955758164E9, 0.0, 2022-03-26 18:21:35.575
64.0, 551.6969518135302, 24.9376529045403, 789.5788983451203, 377.66070737550035, -0.03200000151991844, 0.49600002355873585, 0.9760000463575125, 0.0, 0.0, 0.0, 0.0, 0.0, 1.6483368955765064E9, 0.0, 2022-03-26 18:21:35.576
64.0, 556.0389756620862, 24.290650212205946, 785.4986674934626, 389.22821793844923, -0.03200000151991844, 0.49600002355873585, 0.9760000463575125, 0.0, 0.0, 0.0, 0.0, 0.0, 1.6483368955765064E9, 0.0, 2022-03-26 18:21:35.576
65.0, 552.9161591990851, 17.869241988286376, 784.2458010083064, 388.93276584194973, -0.03200000151991844, 0.49600002355873585, 0.9760000463575125, 0.0, 0.0, 0.0, 0.0, 0.0, 1.6483368955900853E9, 0.0, 2022-03-26 18:21:35.590
65.0, 550.8405147236772, 14.90724122337997, 777.1437309924513, 383.5286104059778, -0.03200000151991844, 0.49600002355873585, 0.9760000463575125, 0.0, 0.0, 0.0, 0.0, 0.0, 1.6483368955900853E9, 0.0, 2022-03-26 18:21:35.590
66.0, 551.0088102216832, 16.14514810871333, 788.243754060939, 388.3156823492609, -0.03200000151991844, 0.49600002355873585, 0.9760000463575125, 0.0, 0.0, 0.0, 0.0, 0.0, 1.6483368956057706E9, 0.0, 2022-03-26 18:21:35.605
66.0, 554.1503261844628, 23.164940325543284, 800.218913719058, 416.8810382108204, -0.03200000151991844, 0.49600002355873585, 0.9760000463575125, 0.0, 0.0, 0.0, 0.0, 0.0, 1.6483368956057706E9, 0.0, 2022-03-26 18:21:35.605
67.0, 550.8218152238987, 19.963585963472724, 784.5225536050275, 406.573873932939, -0.03200000151991844, 0.49600002355873585, 0.9760000463575125, 0.0, 0.0, 0.0, 0.0, 0.0, 1.6483368956065328E9, 0.0, 2022-03-26 18:21:35.606
67.0, 547.8560745590366, 20.763924553990364, 793.6292099971324, 407.4415307226591, -0.03200000151991844, 0.49600002355873585, 0.9760000463575125, 0.0, 0.0, 0.0, 0.0, 0.0, 1.6483368956065328E9, 0.0, 2022-03-26 18:21:35.606
68.0, 539.3590218597092, 17.405494393780828, 783.5165205169469, 389.78546303184703, -0.03200000151991844, 0.49600002355873585, 0.9760000463575125, 0.0, 0.0, 0.0, 0.0, 0.0, 1.6483368956201105E9, 0.0, 2022-03-26 18:21:35.620
68.0, 539.3029233603738, 8.190380902960896, 785.9100564885885, 391.63671350991353, -0.03200000151991844, 0.49600002355873585, 0.9760000463575125, 0.0, 0.0, 0.0, 0.0, 0.0, 1.6483368956201105E9, 0.0, 2022-03-26 18:21:35.620
69.0, 542.3509418242611, 22.222485536709428, 789.9154893411323, 390.66433952143416, -0.03200000151991844, 0.49600002355873585, 0.9760000463575125, 0.0, 0.0, 0.0, 0.0, 0.0, 1.6483368956357808E9, 0.0, 2022-03-26 18:21:35.635
69.0, 541.1392142386176, 19.645694467239082, 793.8984827939421, 388.1249474515207, -0.03200000151991844, 0.49600002355873585, 0.9760000463575125, 0.0, 0.0, 0.0, 0.0, 0.0, 1.6483368956357808E9, 0.0, 2022-03-26 18:21:35.635
70.0, 543.4691719110124, 25.180746401660144, 800.1029768204316, 394.7146511734463, -0.03200000151991844, 0.49600002355873585, 0.944000044837594, 0.0, 0.0, 0.0, 0.0, 0.0, 1.648336895636513E9, 0.0, 2022-03-26 18:21:35.636
70.0, 541.8273558304645, 25.027410503476858, 807.8034308291972, 404.4421309581958, -0.03200000151991844, 0.49600002355873585, 0.944000044837594, 0.0, 0.0, 0.0, 0.0, 0.0, 1.648336895636513E9, 0.0, 2022-03-26 18:21:35.636
71.0, 546.7490641721524, 30.483924538828433, 814.9802988441661, 402.96487047569826, -0.03200000151991844, 0.43200002051889896, 0.944000044837594, 0.0, 0.0, 0.0, 0.0, 0.0, 1.6483368956665328E9, 0.0, 2022-03-26 18:21:35.666
71.0, 542.8745278180577, 32.89989991020411, 807.5079787326977, 412.5577138620429, -0.03200000151991844, 0.43200002051889896, 0.944000044837594, 0.0, 0.0, 0.0, 0.0, 0.0, 1.6483368956665328E9, 0.0, 2022-03-26 18:21:35.666
72.0, 547.6690795612521, 41.295975310727954, 817.8562819100916, 421.9261632510461, -0.04800000227987766, 0.43200002051889896, 0.944000044837594, 0.0, 0.0, 0.0, 0.0, 0.0, 1.6483368956672068E9, 0.0, 2022-03-26 18:21:35.667
72.0, 536.0604300987907, 33.984470897354186, 818.9445927971974, 407.1348589262925, -0.04800000227987766, 0.43200002051889896, 0.944000044837594, 0.0, 0.0, 0.0, 0.0, 0.0, 1.6483368956672068E9, 0.0, 2022-03-26 18:21:35.667
73.0, 544.2134120021947, 41.07158131338656, 825.2014454230666, 403.56699436856434, -0.04800000227987766, 0.43200002051889896, 0.944000044837594, 0.0, 0.0, 0.0, 0.0, 0.0, 1.6483368956679533E9, 0.0, 2022-03-26 18:21:35.667
73.0, 546.4536120756529, 37.96372445020825, 824.3150891335681, 395.4327119649388, -0.04800000227987766, 0.43200002051889896, 0.944000044837594, 0.0, 0.0, 0.0, 0.0, 0.0, 1.6483368956679533E9, 0.0, 2022-03-26 18:21:35.667
74.0, 551.8839468113147, 43.233243487775326, 831.2526035513729, 405.11531295021996, -0.04800000227987766, 0.43200002051889896, 0.944000044837594, 0.0, 0.0, 0.0, 0.0, 0.0, 1.6483368956800644E9, 0.0, 2022-03-26 18:21:35.680
74.0, 552.9311187989078, 45.297668263316154, 834.2557432157919, 410.1342586907558, -0.04800000227987766, 0.43200002051889896, 0.944000044837594, 0.0, 0.0, 0.0, 0.0, 0.0, 1.6483368956800644E9, 0.0, 2022-03-26 18:21:35.680
75.0, 551.1210072203539, 45.320107663050294, 826.016743613407, 386.81224256707355, -0.04800000227987766, 0.43200002051889896, 0.944000044837594, 0.0, 0.0, 0.0, 0.0, 0.0, 1.6483368956958272E9, 0.0, 2022-03-26 18:21:35.695
75.0, 547.9009533585049, 49.89026540890336, 828.1858855877072, 398.3834930299781, -0.04800000227987766, 0.43200002051889896, 0.944000044837594, 0.0, 0.0, 0.0, 0.0, 0.0, 1.6483368956958272E9, 0.0, 2022-03-26 18:21:35.695
76.0, 552.3925732052885, 48.899191920645535, 831.7163511458784, 402.67315827915445, -0.04800000227987766, 0.43200002051889896, 0.944000044837594, 0.0, 0.0, 0.0, 0.0, 0.0, 1.648336895696522E9, 0.0, 2022-03-26 18:21:35.696
76.0, 549.5352896391414, 46.59167364798486, 827.6473399940878, 400.27214250760153, -0.04800000227987766, 0.43200002051889896, 0.944000044837594, 0.0, 0.0, 0.0, 0.0, 0.0, 1.648336895696522E9, 0.0, 2022-03-26 18:21:35.696
77.0, 554.6103338790126, 45.94467095565051, 828.0699486890808, 402.8751128767617, -0.04800000227987766, 0.43200002051889896, 0.944000044837594, 0.0, 0.0, 0.0, 0.0, 0.0, 1.6483368957100897E9, 0.0, 2022-03-26 18:21:35.710
77.0, 564.2929348642938, 50.62328580021858, 832.6700256345794, 406.29712133621797, -0.04800000227987766, 0.43200002051889896, 0.944000044837594, 0.0, 0.0, 0.0, 0.0, 0.0, 1.6483368957100897E9, 0.0, 2022-03-26 18:21:35.710
78.0, 551.0574289211072, 37.279322758316994, 826.5627690069377, 401.9812767873518, -0.04800000227987766, 0.43200002051889896, 0.944000044837594, 0.0, 0.0, 0.0, 0.0, 0.0, 1.648336895725958E9, 0.0, 2022-03-26 18:21:35.725
78.0, 554.0007301862352, 35.233597482554615, 826.3234154097736, 407.8865788173862, -0.04800000227987766, 0.43200002051889896, 0.944000044837594, 0.0, 0.0, 0.0, 0.0, 0.0, 1.648336895725958E9, 0.0, 2022-03-26 18:21:35.725
79.0, 545.9749048813246, 34.1639860952273, 821.7981364633888, 409.5433544977568, -0.04800000227987766, 0.43200002051889896, 0.944000044837594, 0.0, 0.0, 0.0, 0.0, 0.0, 1.6483368957265284E9, 0.0, 2022-03-26 18:21:35.726
79.0, 542.7286717197858, 31.579715225845575, 815.2907105404884, 405.42198474658653, -0.04800000227987766, 0.43200002051889896, 0.944000044837594, 0.0, 0.0, 0.0, 0.0, 0.0, 1.6483368957265284E9, 0.0, 2022-03-26 18:21:35.726
80.0, 555.4031926696189, 31.512397026643157, 824.7115185288712, 421.83640565210953, -0.04800000227987766, 0.43200002051889896, 0.9120000433176756, 0.0, 0.0, 0.0, 0.0, 0.0, 1.648336895740121E9, 0.0, 2022-03-26 18:21:35.740
80.0, 557.5760745438747, 30.11367444321513, 815.1411145422608, 411.15899127861485, -0.04800000227987766, 0.43200002051889896, 0.9120000433176756, 0.0, 0.0, 0.0, 0.0, 0.0, 1.648336895740121E9, 0.0, 2022-03-26 18:21:35.740
81.0, 555.5789679675363, 31.149626730941236, 817.815143010579, 410.6316653848626, -0.04800000227987766, 0.41600001975893974, 0.9120000433176756, 0.0, 0.0, 0.0, 0.0, 0.0, 1.648336895755828E9, 0.0, 2022-03-26 18:21:35.755
81.0, 558.9299183278345, 24.376667911186814, 808.106362725608, 419.7009227774106, -0.04800000227987766, 0.41600001975893974, 0.9120000433176756, 0.0, 0.0, 0.0, 0.0, 0.0, 1.648336895755828E9, 0.0, 2022-03-26 18:21:35.755
82.0, 561.046701702755, 23.157460525631905, 817.5196909140795, 430.3371982513927, -0.06400000303983688, 0.41600001975893974, 0.9120000433176756, 0.0, 0.0, 0.0, 0.0, 0.0, 1.6483368957565653E9, 0.0, 2022-03-26 18:21:35.756
82.0, 569.6260322011076, 29.84814154636115, 824.1318340357393, 439.1596222468652, -0.06400000303983688, 0.41600001975893974, 0.9120000433176756, 0.0, 0.0, 0.0, 0.0, 0.0, 1.6483368957565653E9, 0.0, 2022-03-26 18:21:35.756
83.0, 555.6612457665615, 28.53543666191399, 821.8504950627685, 433.24310051696375, -0.06400000303983688, 0.41600001975893974, 0.9120000433176756, 0.0, 0.0, 0.0, 0.0, 0.0, 1.6483368957864528E9, 0.0, 2022-03-26 18:21:35.786
83.0, 554.5430156798102, 17.042724098078907, 810.7916108937934, 414.82035333523527, -0.06400000303983688, 0.41600001975893974, 0.9120000433176756, 0.0, 0.0, 0.0, 0.0, 0.0, 1.6483368957864528E9, 0.0, 2022-03-26 18:21:35.786
84.0, 550.4366055284627, 13.175667543895543, 809.8528960049152, 423.3959439336322, -0.06400000303983688, 0.41600001975893974, 0.9120000433176756, 0.0, 0.0, 0.0, 0.0, 0.0, 1.6483368957871983E9, 0.0, 2022-03-26 18:21:35.787
84.0, 539.1907263617031, 8.721446696668863, 796.1798217669129, 412.2435622657649, -0.06400000303983688, 0.41600001975893974, 0.9120000433176756, 0.0, 0.0, 0.0, 0.0, 0.0, 1.6483368957871983E9, 0.0, 2022-03-26 18:21:35.787
85.0, 553.1031541968696, 19.32032317109406, 809.1946736127138, 424.110264825169, -0.06400000303983688, 0.41600001975893974, 0.9120000433176756, 0.0, 0.0, 0.0, 0.0, 0.0, 1.6483368957879057E9, 0.0, 2022-03-26 18:21:35.787
85.0, 543.7945432071574, 8.4858329994604, 814.318336552009, 402.4225849821232, -0.06400000303983688, 0.41600001975893974, 0.9120000433176756, 0.0, 0.0, 0.0, 0.0, 0.0, 1.6483368957879057E9, 0.0, 2022-03-26 18:21:35.787
86.0, 548.9630849459209, 15.460746416822076, 808.2970976233482, 411.8359131705947, -0.06400000303983688, 0.41600001975893974, 0.9120000433176756, 0.0, 0.0, 0.0, 0.0, 0.0, 1.6483368958001037E9, 0.0, 2022-03-26 18:21:35.800
86.0, 550.1822923314758, 30.95515193324536, 818.6753200003877, 424.8956438158639, -0.06400000303983688, 0.41600001975893974, 0.9120000433176756, 0.0, 0.0, 0.0, 0.0, 0.0, 1.6483368958001037E9, 0.0, 2022-03-26 18:21:35.800
87.0, 550.8928733230568, 30.895313533954322, 825.594134918414, 436.68380847619846, -0.06400000303983688, 0.41600001975893974, 0.9120000433176756, 0.0, 0.0, 0.0, 0.0, 0.0, 1.64833689581576E9, 0.0, 2022-03-26 18:21:35.815
87.0, 540.9110803413205, 24.066256214864552, 818.9745119968429, 415.2205226304941, -0.06400000303983688, 0.41600001975893974, 0.9120000433176756, 0.0, 0.0, 0.0, 0.0, 0.0, 1.64833689581576E9, 0.0, 2022-03-26 18:21:35.815
88.0, 544.4004069999792, 30.267010341398418, 826.8694408033043, 420.4788219681941, -0.06400000303983688, 0.41600001975893974, 0.9120000433176756, 0.0, 0.0, 0.0, 0.0, 0.0, 1.648336895816491E9, 0.0, 2022-03-26 18:21:35.816
88.0, 539.9312265529297, 20.56196995638311, 818.4135270034894, 412.26226176554337, -0.06400000303983688, 0.41600001975893974, 0.9120000433176756, 0.0, 0.0, 0.0, 0.0, 0.0, 1.648336895816491E9, 0.0, 2022-03-26 18:21:35.816
89.0, 545.9636851814575, 27.159153478220105, 819.7374515878037, 412.9279639576562, -0.06400000303983688, 0.41600001975893974, 0.9120000433176756, 0.0, 0.0, 0.0, 0.0, 0.0, 1.6483368958301754E9, 0.0, 2022-03-26 18:21:35.830
89.0, 546.2254781783558, 33.33746820501983, 824.0046774372458, 412.5390143622644, -0.06400000303983688, 0.41600001975893974, 0.9120000433176756, 0.0, 0.0, 0.0, 0.0, 0.0, 1.6483368958301754E9, 0.0, 2022-03-26 18:21:35.830
90.0, 538.9214535648935, 21.078076150268316, 823.6232076417655, 419.8505187756382, -0.06400000303983688, 0.41600001975893974, 0.944000044837594, 0.0, 0.0, 0.0, 0.0, 0.0, 1.6483368958622003E9, 0.0, 2022-03-26 18:21:35.862
90.0, 539.5385370575823, 25.565956097096205, 822.6732730530202, 428.65050337137654, -0.06400000303983688, 0.41600001975893974, 0.944000044837594, 0.0, 0.0, 0.0, 0.0, 0.0, 1.6483368958622003E9, 0.0, 2022-03-26 18:21:35.862
91.0, 558.5222692326643, 44.59456707164645, 840.3031614441425, 426.956328691449, -0.06400000303983688, 0.43200002051889896, 0.944000044837594, 0.0, 0.0, 0.0, 0.0, 0.0, 1.648336895862989E9, 0.0, 2022-03-26 18:21:35.862
91.0, 560.4408379099332, 43.92512497957796, 839.6486789518967, 426.5524194962345, -0.06400000303983688, 0.43200002051889896, 0.944000044837594, 0.0, 0.0, 0.0, 0.0, 0.0, 1.648336895862989E9, 0.0, 2022-03-26 18:21:35.862
92.0, 548.2113650548272, 35.158799483440816, 833.3506874265149, 426.0737123019062, -0.03200000151991844, 0.43200002051889896, 0.944000044837594, 0.0, 0.0, 0.0, 0.0, 0.0, 1.6483368958636355E9, 0.0, 2022-03-26 18:21:35.863
92.0, 542.4631388229318, 36.97639086190611, 823.6119879418984, 400.9228850998916, -0.03200000151991844, 0.43200002051889896, 0.944000044837594, 0.0, 0.0, 0.0, 0.0, 0.0, 1.6483368958636355E9, 0.0, 2022-03-26 18:21:35.863
93.0, 535.0282177110203, 35.38319348078221, 830.8449544562027, 392.47819099994376, -0.03200000151991844, 0.43200002051889896, 0.944000044837594, 0.0, 0.0, 0.0, 0.0, 0.0, 1.6483368958643832E9, 0.0, 2022-03-26 18:21:35.864
93.0, 535.3722885069437, 45.36124656256288, 845.3595061842352, 409.4423771989532, -0.03200000151991844, 0.43200002051889896, 0.944000044837594, 0.0, 0.0, 0.0, 0.0, 0.0, 1.6483368958643832E9, 0.0, 2022-03-26 18:21:35.864
94.0, 530.5478175641038, 43.80918808095157, 838.4369513662532, 392.246317202691, -0.03200000151991844, 0.43200002051889896, 0.944000044837594, 0.0, 0.0, 0.0, 0.0, 0.0, 1.6483368958751109E9, 0.0, 2022-03-26 18:21:35.875
94.0, 534.0334043228067, 45.00221616681665, 837.4159586783499, 370.8690490559675, -0.03200000151991844, 0.43200002051889896, 0.944000044837594, 0.0, 0.0, 0.0, 0.0, 0.0, 1.6483368958751109E9, 0.0, 2022-03-26 18:21:35.875
95.0, 542.0816690274514, 52.82982677407563, 833.6984981223941, 379.7251321510412, -0.03200000151991844, 0.43200002051889896, 0.944000044837594, 0.0, 0.0, 0.0, 0.0, 0.0, 1.6483368958900678E9, 0.0, 2022-03-26 18:21:35.890
95.0, 541.797436630819, 50.19693720526993, 835.231857104227, 358.94250809727237, -0.03200000151991844, 0.43200002051889896, 0.944000044837594, 0.0, 0.0, 0.0, 0.0, 0.0, 1.6483368958900678E9, 0.0, 2022-03-26 18:21:35.890
96.0, 530.4431003653444, 55.97508263681084, 841.140899034217, 345.366671258118, -0.03200000151991844, 0.43200002051889896, 0.944000044837594, 0.0, 0.0, 0.0, 0.0, 0.0, 1.648336895905738E9, 0.0, 2022-03-26 18:21:35.905
96.0, 526.0412381174974, 54.30334735661745, 846.8031075671315, 335.50081517500803, -0.03200000151991844, 0.43200002051889896, 0.944000044837594, 0.0, 0.0, 0.0, 0.0, 0.0, 1.648336895905738E9, 0.0, 2022-03-26 18:21:35.905
97.0, 549.0827617445029, 80.81923804245889, 873.1881017545238, 337.5540202506818, -0.03200000151991844, 0.43200002051889896, 0.944000044837594, 0.0, 0.0, 0.0, 0.0, 0.0, 1.6483368959064493E9, 0.0, 2022-03-26 18:21:35.906
97.0, 549.1912188432179, 78.38082327134907, 874.5980440378189, 335.5120348748751, -0.03200000151991844, 0.43200002051889896, 0.944000044837594, 0.0, 0.0, 0.0, 0.0, 0.0, 1.6483368959064493E9, 0.0, 2022-03-26 18:21:35.906
98.0, 553.7389371893369, 84.51425919868052, 868.5394061096013, 322.7627159259282, -0.03200000151991844, 0.43200002051889896, 0.944000044837594, 0.0, 0.0, 0.0, 0.0, 0.0, 1.6483368959201007E9, 0.0, 2022-03-26 18:21:35.920
98.0, 555.6612457665615, 84.43572129961103, 869.6351967966184, 333.56354699796066, -0.03200000151991844, 0.43200002051889896, 0.944000044837594, 0.0, 0.0, 0.0, 0.0, 0.0, 1.6483368959201007E9, 0.0, 2022-03-26 18:21:35.920
99.0, 537.1412611859851, 76.42859549447894, 867.0135269276798, 322.4971830290742, -0.03200000151991844, 0.43200002051889896, 0.944000044837594, 0.0, 0.0, 0.0, 0.0, 0.0, 1.6483368959358487E9, 0.0, 2022-03-26 18:21:35.935
99.0, 549.9915574337356, 89.88101563509554, 875.5965973259881, 325.63495909189805, -0.03200000151991844, 0.43200002051889896, 0.944000044837594, 0.0, 0.0, 0.0, 0.0, 0.0, 1.6483368959358487E9, 0.0, 2022-03-26 18:21:35.935
100.0, 536.3745816950686, 77.50568668171763, 864.369417659007, 325.0178755992092, -0.03200000151991844, 0.43200002051889896, 0.9120000433176756, 0.0, 0.0, 0.0, 0.0, 0.0, 1.6483368959365568E9, 0.0, 2022-03-26 18:21:35.936
100.0, 528.3936351896264, 73.6648094272241, 865.2632537484169, 325.1712114973925, -0.03200000151991844, 0.43200002051889896, 0.9120000433176756, 0.0, 0.0, 0.0, 0.0, 0.0, 1.6483368959365568E9, 0.0, 2022-03-26 18:21:35.936
0.0, 545.8514881827869, 82.96407066704705, 871.9688943689689, 324.47372015565634, -0.03200000151991844, 0.43200002051889896, 0.9120000433176756, 0.0, 0.0, 0.0, 0.0, 0.0, 1.6483368959508069E9, 0.0, 2022-03-26 18:21:35.950
1.0, 551.9437852106057, 81.77852238109335, 869.2275477014482, 321.089110695757, -0.03200000151991844, 0.43200002051889896, 0.9120000433176756, 0.0, 0.0, 0.0, 0.0, 0.0, 1.6483368959515576E9, 0.0, 2022-03-26 18:21:35.951
1.0, 566.1666247420944, 83.3193611628376, 869.6613760963082, 323.6659017652273, -0.03200000151991844, 0.43200002051889896, 0.9120000433176756, 0.0, 0.0, 0.0, 0.0, 0.0, 1.6483368959515576E9, 0.0, 2022-03-26 18:21:35.951
2.0, 549.5128502394073, 84.83028074493632, 873.4012760519981, 311.50374710932374, -0.03200000151991844, 0.43200002051889896, 0.9120000433176756, 0.0, 0.0, 0.0, 0.0, 0.0, 1.6483368959650912E9, 0.0, 2022-03-26 18:21:35.965
2.0, 559.6629387191497, 73.82375517534092, 868.3673707116395, 310.897883316502, -0.03200000151991844, 0.43200002051889896, 0.9120000433176756, 0.0, 0.0, 0.0, 0.0, 0.0, 1.6483368959650912E9, 0.0, 2022-03-26 18:21:35.965
3.0, 584.2079021283425, 90.30923418002203, 891.6893868353218, 336.51619801297784, -0.03200000151991844, 0.43200002051889896, 0.9120000433176756, 0.0, 0.0, 0.0, 0.0, 0.0, 1.6483368959808393E9, 0.0, 2022-03-26 18:21:35.980
3.0, 555.6201068670489, 56.17890718439594, 855.9471629587933, 295.93454359378666, -0.03200000151991844, 0.43200002051889896, 0.9120000433176756, 0.0, 0.0, 0.0, 0.0, 0.0, 1.6483368959808393E9, 0.0, 2022-03-26 18:21:35.980
4.0, 552.6506263022311, 50.251165754627436, 850.5018686233088, 292.13106533885, -0.03200000151991844, 0.43200002051889896, 0.9120000433176756, 0.0, 0.0, 0.0, 0.0, 0.0, 1.6483368959814785E9, 0.0, 2022-03-26 18:21:35.981
4.0, 571.3725654804148, 68.10544814309105, 861.2391213960946, 306.4436624692753, -0.03200000151991844, 0.43200002051889896, 0.9120000433176756, 0.0, 0.0, 0.0, 0.0, 0.0, 1.6483368959814785E9, 0.0, 2022-03-26 18:21:35.981
5.0, 553.5968209910206, 62.31234311172739, 866.9050698289648, 307.60303145553917, -0.03200000151991844, 0.43200002051889896, 0.9120000433176756, 0.0, 0.0, 0.0, 0.0, 0.0, 1.6483368959950693E9, 0.0, 2022-03-26 18:21:35.995
5.0, 565.8861322454177, 64.7507578828372, 879.179421483539, 320.91707529779524, -0.03200000151991844, 0.43200002051889896, 0.9120000433176756, 0.0, 0.0, 0.0, 0.0, 0.0, 1.6483368959950693E9, 0.0, 2022-03-26 18:21:35.995
6.0, 572.3411995689385, 65.03499027946964, 867.9859009161592, 313.54573248513043, -0.03200000151991844, 0.43200002051889896, 0.9120000433176756, 0.0, 0.0, 0.0, 0.0, 0.0, 1.6483368960108187E9, 0.0, 2022-03-26 18:21:36.010
6.0, 570.0411610961892, 60.18434003693983, 872.7243541600183, 324.77291215211153, -0.03200000151991844, 0.43200002051889896, 0.9120000433176756, 0.0, 0.0, 0.0, 0.0, 0.0, 1.6483368960108187E9, 0.0, 2022-03-26 18:21:36.010
7.0, 581.7208686578088, 73.25903028203174, 882.6163895428181, 327.6825543176383, -0.03200000151991844, 0.43200002051889896, 0.9120000433176756, 0.0, 0.0, 0.0, 0.0, 0.0, 1.648336896011567E9, 0.0, 2022-03-26 18:21:36.011
7.0, 550.5637621269561, 41.67931505618617, 847.0275015644729, 296.42447048798203, -0.03200000151991844, 0.43200002051889896, 0.9120000433176756, 0.0, 0.0, 0.0, 0.0, 0.0, 1.648336896011567E9, 0.0, 2022-03-26 18:21:36.011
8.0, 555.1787986722775, 37.67388220364228, 855.8574053598568, 281.6182065634057, -0.03200000151991844, 0.43200002051889896, 0.9120000433176756, 0.0, 0.0, 0.0, 0.0, 0.0, 1.6483368960251036E9, 0.0, 2022-03-26 18:21:36.025
8.0, 557.8266478409059, 46.02881870465353, 867.6119109205902, 292.01512844022363, -0.03200000151991844, 0.43200002051889896, 0.9120000433176756, 0.0, 0.0, 0.0, 0.0, 0.0, 1.6483368960251036E9, 0.0, 2022-03-26 18:21:36.025
9.0, 559.6292796195485, 45.16490181488916, 870.1513029905036, 287.2579756965861, -0.03200000151991844, 0.43200002051889896, 0.9120000433176756, 0.0, 0.0, 0.0, 0.0, 0.0, 1.6483368960407853E9, 0.0, 2022-03-26 18:21:36.040
9.0, 564.3939121630974, 46.03629850456491, 868.6964819077402, 295.8073869952932, -0.03200000151991844, 0.43200002051889896, 0.9120000433176756, 0.0, 0.0, 0.0, 0.0, 0.0, 1.6483368960407853E9, 0.0, 2022-03-26 18:21:36.040
10.0, 576.0212611253373, 53.04861092148349, 869.1639694022015, 312.6294569959864, -0.03200000151991844, 0.43200002051889896, 0.9600000455975533, 0.0, 0.0, 0.0, 0.0, 0.0, 1.6483368960415456E9, 0.0, 2022-03-26 18:21:36.041
10.0, 569.8953049979173, 47.853889883030206, 864.5003141574562, 311.84033810533583, -0.03200000151991844, 0.43200002051889896, 0.9600000455975533, 0.0, 0.0, 0.0, 0.0, 0.0, 1.6483368960415456E9, 0.0, 2022-03-26 18:21:36.041
11.0, 564.8875789572485, 45.056444716174155, 862.3236923832446, 307.19538236036897, -0.03200000151991844, 0.3840000182390213, 0.9600000455975533, 0.0, 0.0, 0.0, 0.0, 0.0, 1.6483368960550847E9, 0.0, 2022-03-26 18:21:36.055
11.0, 575.9128040266223, 51.30581754213199, 865.8691175412387, 329.96015339065343, -0.03200000151991844, 0.3840000182390213, 0.9600000455975533, 0.0, 0.0, 0.0, 0.0, 0.0, 1.6483368960550847E9, 0.0, 2022-03-26 18:21:36.055
12.0, 566.0170287438668, 43.852196930442005, 858.0714261336252, 316.90790254529566, -0.12800000607967377, 0.3840000182390213, 0.9600000455975533, 0.0, 0.0, 0.0, 0.0, 0.0, 1.6483368960708525E9, 0.0, 2022-03-26 18:21:36.070
12.0, 558.0323423384689, 37.64396300399676, 850.0867397282273, 318.06353163160384, -0.12800000607967377, 0.3840000182390213, 0.9600000455975533, 0.0, 0.0, 0.0, 0.0, 0.0, 1.6483368960708525E9, 0.0, 2022-03-26 18:21:36.070
13.0, 552.0784216090105, 41.34646396012977, 843.5606143055484, 328.98777940217406, -0.12800000607967377, 0.3840000182390213, 0.9600000455975533, 0.0, 0.0, 0.0, 0.0, 0.0, 1.6483368960715141E9, 0.0, 2022-03-26 18:21:36.071
13.0, 560.9419845039956, 49.97441315790638, 855.3188597662374, 347.88175397831947, -0.12800000607967377, 0.3840000182390213, 0.9600000455975533, 0.0, 0.0, 0.0, 0.0, 0.0, 1.6483368960715141E9, 0.0, 2022-03-26 18:21:36.071
14.0, 563.892765569035, 54.58196990331635, 861.6168512916192, 344.8262557145208, -0.12800000607967377, 0.3840000182390213, 0.9600000455975533, 0.0, 0.0, 0.0, 0.0, 0.0, 1.648336896085054E9, 0.0, 2022-03-26 18:21:36.085
14.0, 562.6324192839675, 43.80357823101804, 854.8476323718205, 347.9154130779207, -0.12800000607967377, 0.3840000182390213, 0.9600000455975533, 0.0, 0.0, 0.0, 0.0, 0.0, 1.648336896085054E9, 0.0, 2022-03-26 18:21:36.085
15.0, 558.7242238302715, 37.808518602047116, 845.1051929872483, 375.97962234541774, -0.12800000607967377, 0.3840000182390213, 0.9600000455975533, 0.0, 0.0, 0.0, 0.0, 0.0, 1.6483368961008396E9, 0.0, 2022-03-26 18:21:36.100
15.0, 559.7452165181749, 38.94544818857685, 848.1681710509583, 386.5149205205962, -0.12800000607967377, 0.3840000182390213, 0.9600000455975533, 0.0, 0.0, 0.0, 0.0, 0.0, 1.6483368961008396E9, 0.0, 2022-03-26 18:21:36.100
16.0, 551.5361361154355, 27.23208152735606, 839.9179517487064, 370.5118886101991, -0.12800000607967377, 0.3840000182390213, 0.9600000455975533, 0.0, 0.0, 0.0, 0.0, 0.0, 1.6483368961015344E9, 0.0, 2022-03-26 18:21:36.101
16.0, 543.9665786051191, 30.4035166897811, 835.6507258992642, 379.57366620283574, -0.12800000607967377, 0.3840000182390213, 0.9600000455975533, 0.0, 0.0, 0.0, 0.0, 0.0, 1.6483368961015344E9, 0.0, 2022-03-26 18:21:36.101
17.0, 546.7004454727285, 34.68196223909035, 839.3569667553529, 390.1800224771723, -0.12800000607967377, 0.3840000182390213, 0.9600000455975533, 0.0, 0.0, 0.0, 0.0, 0.0, 1.6483368961150577E9, 0.0, 2022-03-26 18:21:36.115
17.0, 552.8301415001042, 32.00793377077207, 839.2148505570367, 388.8411382930353, -0.12800000607967377, 0.3840000182390213, 0.9600000455975533, 0.0, 0.0, 0.0, 0.0, 0.0, 1.6483368961150577E9, 0.0, 2022-03-26 18:21:36.115
18.0, 550.7657167245634, 30.04074639407918, 829.8314415682107, 377.56907982658595, -0.12800000607967377, 0.3840000182390213, 0.9600000455975533, 0.0, 0.0, 0.0, 0.0, 0.0, 1.6483368961308165E9, 0.0, 2022-03-26 18:21:36.130
18.0, 543.0241238162853, 29.93602919531986, 836.7278170865029, 369.41609792318195, -0.12800000607967377, 0.3840000182390213, 0.9600000455975533, 0.0, 0.0, 0.0, 0.0, 0.0, 1.6483368961308165E9, 0.0, 2022-03-26 18:21:36.130
19.0, 536.0866093984805, 20.481562107335776, 821.4017070680857, 344.29892982076854, -0.12800000607967377, 0.3840000182390213, 0.9600000455975533, 0.0, 0.0, 0.0, 0.0, 0.0, 1.648336896131471E9, 0.0, 2022-03-26 18:21:36.131
19.0, 545.9524654815905, 30.104324693325907, 824.726478128694, 355.3578139897436, -0.12800000607967377, 0.3840000182390213, 0.9600000455975533, 0.0, 0.0, 0.0, 0.0, 0.0, 1.648336896131471E9, 0.0, 2022-03-26 18:21:36.131
20.0, 556.3344277585857, 24.176583263557404, 831.215204551816, 389.95188857987523, -0.12800000607967377, 0.3840000182390213, 0.9280000440776348, 0.0, 0.0, 0.0, 0.0, 0.0, 1.6483368961451223E9, 0.0, 2022-03-26 18:21:36.145
20.0, 547.5082638631575, 31.028079982381314, 834.4240387137979, 383.75861425325274, -0.12800000607967377, 0.3840000182390213, 0.9280000440776348, 0.0, 0.0, 0.0, 0.0, 0.0, 1.6483368961451223E9, 0.0, 2022-03-26 18:21:36.145
21.0, 548.7648702482693, 18.809826827142388, 825.3473015213385, 384.6561902426183, -0.12800000607967377, 0.3840000182390213, 0.9280000440776348, 0.0, 0.0, 0.0, 0.0, 0.0, 1.6483368961605504E9, 0.0, 2022-03-26 18:21:36.160
21.0, 566.4321576389484, 37.3335513076745, 847.195797062479, 439.82719438895583, -0.12800000607967377, 0.3840000182390213, 0.9280000440776348, 0.0, 0.0, 0.0, 0.0, 0.0, 1.6483368961605504E9, 0.0, 2022-03-26 18:21:36.160
22.0, 540.1032619508915, 28.279253514949232, 832.4231922375038, 378.71722911298275, -0.12800000607967377, 0.3840000182390213, 0.9280000440776348, 0.0, 0.0, 0.0, 0.0, 0.0, 1.648336896175789E9, 0.0, 2022-03-26 18:21:36.175
22.0, 548.6751126493327, 25.754821044858545, 832.613927135244, 376.72386243660003, -0.12800000607967377, 0.3840000182390213, 0.9280000440776348, 0.0, 0.0, 0.0, 0.0, 0.0, 1.648336896175789E9, 0.0, 2022-03-26 18:21:36.175
23.0, 543.8469018065371, 17.09695264743641, 821.6074015656486, 366.56629415694624, -0.12800000607967377, 0.3840000182390213, 0.9280000440776348, 0.0, 0.0, 0.0, 0.0, 0.0, 1.6483368961765163E9, 0.0, 2022-03-26 18:21:36.176
23.0, 549.9204993345775, 18.181523634586483, 819.5354969901964, 382.3299724701792, -0.12800000607967377, 0.3840000182390213, 0.9280000440776348, 0.0, 0.0, 0.0, 0.0, 0.0, 1.6483368961765163E9, 0.0, 2022-03-26 18:21:36.176
24.0, 546.5957282739691, 11.04205461917445, 809.2395524121821, 367.6994838435203, -0.12800000607967377, 0.3840000182390213, 0.9280000440776348, 0.0, 0.0, 0.0, 0.0, 0.0, 1.6483368961907828E9, 0.0, 2022-03-26 18:21:36.190
24.0, 554.2774827829562, 13.607625988777727, 819.408340391703, 375.0259478567168, -0.12800000607967377, 0.3840000182390213, 0.9280000440776348, 0.0, 0.0, 0.0, 0.0, 0.0, 1.6483368961907828E9, 0.0, 2022-03-26 18:21:36.190
25.0, 544.5200837985612, 12.721269699279219, 821.9701718613505, 386.01751382648945, -0.12800000607967377, 0.3840000182390213, 0.9280000440776348, 0.0, 0.0, 0.0, 0.0, 0.0, 1.6483368961915195E9, 0.0, 2022-03-26 18:21:36.191
25.0, 551.6670326138847, 17.07825314765796, 822.7592907520011, 386.23816792387515, -0.12800000607967377, 0.3840000182390213, 0.9280000440776348, 0.0, 0.0, 0.0, 0.0, 0.0, 1.6483368961915195E9, 0.0, 2022-03-26 18:21:36.191
26.0, 543.3569749123417, 0.12154674855992198, 807.1601680368185, 383.5491798557341, -0.12800000607967377, 0.3840000182390213, 0.9280000440776348, 0.0, 0.0, 0.0, 0.0, 0.0, 1.6483368962214231E9, 0.0, 2022-03-26 18:21:36.221
26.0, 542.9268864174373, -6.909465168137103, 797.5673246504739, 390.3333583753556, -0.12800000607967377, 0.3840000182390213, 0.9280000440776348, 0.0, 0.0, 0.0, 0.0, 0.0, 1.6483368962214231E9, 0.0, 2022-03-26 18:21:36.221
27.0, 545.8926270822994, 3.6033936073072255, 800.7911184122786, 393.13080354221165, -0.12800000607967377, 0.3840000182390213, 0.9280000440776348, 0.0, 0.0, 0.0, 0.0, 0.0, 1.648336896222171E9, 0.0, 2022-03-26 18:21:36.222
27.0, 539.9985447521321, -3.263062711339444, 798.9847467336804, 400.5171059546992, -0.12800000607967377, 0.3840000182390213, 0.9280000440776348, 0.0, 0.0, 0.0, 0.0, 0.0, 1.648336896222171E9, 0.0, 2022-03-26 18:21:36.222
28.0, 553.7389371893369, 2.5188226201571524, 808.4055547220632, 415.6711805751547, -0.12800000607967377, 0.3840000182390213, 0.9280000440776348, 0.0, 0.0, 0.0, 0.0, 0.0, 1.6483368962229855E9, 0.0, 2022-03-26 18:21:36.222
28.0, 547.1342738675885, 0.11780684860423207, 812.0220379792154, 414.7474252860993, -0.12800000607967377, 0.3840000182390213, 0.9280000440776348, 0.0, 0.0, 0.0, 0.0, 0.0, 1.6483368962229855E9, 0.0, 2022-03-26 18:21:36.222
29.0, 548.286163053941, 0.8246479402296245, 811.0047851912677, 408.06422406528145, -0.12800000607967377, 0.3840000182390213, 0.9280000440776348, 0.0, 0.0, 0.0, 0.0, 0.0, 1.6483368962351007E9, 0.0, 2022-03-26 18:21:36.235
29.0, 555.7472634655423, 10.974736419972032, 815.8030768344179, 410.1249089408666, -0.12800000607967377, 0.3840000182390213, 0.9280000440776348, 0.0, 0.0, 0.0, 0.0, 0.0, 1.6483368962351007E9, 0.0, 2022-03-26 18:21:36.235
30.0, 557.6583523428999, 7.941677555907518, 814.9915185440332, 413.77131139766425, -0.12800000607967377, 0.3840000182390213, 0.944000044837594, 0.0, 0.0, 0.0, 0.0, 0.0, 1.648336896250784E9, 0.0, 2022-03-26 18:21:36.250
30.0, 550.9601915222593, 7.2647556639276445, 816.0087713319808, 391.53386626113206, -0.12800000607967377, 0.3840000182390213, 0.944000044837594, 0.0, 0.0, 0.0, 0.0, 0.0, 1.648336896250784E9, 0.0, 2022-03-26 18:21:36.250
31.0, 554.0231695859693, 9.83406693348661, 825.7586905164644, 367.7294030431658, -0.12800000607967377, 0.35200001671910286, 0.944000044837594, 0.0, 0.0, 0.0, 0.0, 0.0, 1.6483368962515268E9, 0.0, 2022-03-26 18:21:36.251
31.0, 554.7038313779049, 13.233635993208736, 822.8602680508047, 361.4014923181385, -0.12800000607967377, 0.35200001671910286, 0.944000044837594, 0.0, 0.0, 0.0, 0.0, 0.0, 1.6483368962515268E9, 0.0, 2022-03-26 18:21:36.251
32.0, 551.408979516942, 17.12687184708193, 827.7595369927585, 392.46510135009885, -0.11200000531971455, 0.35200001671910286, 0.944000044837594, 0.0, 0.0, 0.0, 0.0, 0.0, 1.6483368962814443E9, 0.0, 2022-03-26 18:21:36.281
32.0, 530.5216382644139, -2.096213925164193, 807.1975670363754, 412.8961748080328, -0.11200000531971455, 0.35200001671910286, 0.944000044837594, 0.0, 0.0, 0.0, 0.0, 0.0, 1.6483368962814443E9, 0.0, 2022-03-26 18:21:36.281
33.0, 552.6693258020096, 4.22421699995175, 819.9356662854552, 483.6476021697745, -0.11200000531971455, 0.35200001671910286, 0.944000044837594, 0.0, 0.0, 0.0, 0.0, 0.0, 1.6483368962821832E9, 0.0, 2022-03-26 18:21:36.282
33.0, 552.9946970981546, 3.01622931426391, 814.16126075387, 533.1750972829759, -0.11200000531971455, 0.35200001671910286, 0.944000044837594, 0.0, 0.0, 0.0, 0.0, 0.0, 1.6483368962821832E9, 0.0, 2022-03-26 18:21:36.282
34.0, 556.5663015558384, 4.62812619516626, 823.0958817480132, 585.7693103598431, -0.11200000531971455, 0.35200001671910286, 0.944000044837594, 0.0, 0.0, 0.0, 0.0, 0.0, 1.6483368962829385E9, 0.0, 2022-03-26 18:21:36.282
34.0, 554.3485408821143, 1.5801077312789857, 820.1862395824865, 634.8554972782731, -0.11200000531971455, 0.35200001671910286, 0.944000044837594, 0.0, 0.0, 0.0, 0.0, 0.0, 1.6483368962829385E9, 0.0, 2022-03-26 18:21:36.282
35.0, 558.6606455310248, -1.613766830880195, 816.1022688308731, 666.6147277019918, -0.11200000531971455, 0.35200001671910286, 0.944000044837594, 0.0, 0.0, 0.0, 0.0, 0.0, 1.6483368962950675E9, 0.0, 2022-03-26 18:21:36.295
35.0, 557.041268850211, 3.734290105756372, 824.5357432309538, 661.6182213611901, -0.11200000531971455, 0.35200001671910286, 0.944000044837594, 0.0, 0.0, 0.0, 0.0, 0.0, 1.6483368962950675E9, 0.0, 2022-03-26 18:21:36.295
36.0, 555.2461168714799, 0.6002539428882301, 819.5541964899749, 733.644954607822, -0.11200000531971455, 0.35200001671910286, 0.944000044837594, 0.0, 0.0, 0.0, 0.0, 0.0, 1.6483368963108785E9, 0.0, 2022-03-26 18:21:36.310
36.0, 568.7733350112103, 19.49048861907795, 831.9519648430869, 801.7186136012897, -0.11200000531971455, 0.35200001671910286, 0.944000044837594, 0.0, 0.0, 0.0, 0.0, 0.0, 1.6483368963108785E9, 0.0, 2022-03-26 18:21:36.310
37.0, 559.2141507244669, 7.369472862686962, 802.6348890904337, 821.8729344625026, -0.11200000531971455, 0.35200001671910286, 0.944000044837594, 0.0, 0.0, 0.0, 0.0, 0.0, 1.6483368963115788E9, 0.0, 2022-03-26 18:21:36.311
37.0, 551.8128887121566, 8.940230844076723, 807.8370899287984, 844.360952896066, -0.11200000531971455, 0.35200001671910286, 0.944000044837594, 0.0, 0.0, 0.0, 0.0, 0.0, 1.6483368963115788E9, 0.0, 2022-03-26 18:21:36.311
38.0, 562.879252681043, 18.914544025901705, 811.5882095843554, 914.2372436681762, -0.11200000531971455, 0.35200001671910286, 0.944000044837594, 0.0, 0.0, 0.0, 0.0, 0.0, 1.6483368963414235E9, 0.0, 2022-03-26 18:21:36.341
38.0, 581.5712726595812, 28.37275101384148, 817.3401757162064, 816.8782980716787, -0.11200000531971455, 0.35200001671910286, 0.944000044837594, 0.0, 0.0, 0.0, 0.0, 0.0, 1.6483368963414235E9, 0.0, 2022-03-26 18:21:36.341
39.0, 565.931011044886, 13.398191591259092, 818.0731961075217, 755.6897948966362, -0.11200000531971455, 0.35200001671910286, 0.944000044837594, 0.0, 0.0, 0.0, 0.0, 0.0, 1.6483368963421645E9, 0.0, 2022-03-26 18:21:36.342
39.0, 556.016536262352, 12.983062696177512, 811.9883788796142, 862.9557354757562, -0.11200000531971455, 0.35200001671910286, 0.944000044837594, 0.0, 0.0, 0.0, 0.0, 0.0, 1.6483368963421645E9, 0.0, 2022-03-26 18:21:36.342
40.0, 628.7501106006093, -18.073066535871476, 778.0487867817283, 922.4276245711371, -0.11200000531971455, 0.35200001671910286, 0.9280000440776348, 0.0, 0.0, 0.0, 0.0, 0.0, 1.648336896342948E9, 0.0, 2022-03-26 18:21:36.342
40.0, 711.0765283252113, -38.219907597173005, 743.619267789647, 917.919175174553, -0.11200000531971455, 0.35200001671910286, 0.9280000440776348, 0.0, 0.0, 0.0, 0.0, 0.0, 1.648336896342948E9, 0.0, 2022-03-26 18:21:36.342
41.0, 819.3279325426556, -81.91689867945388, 696.5488869473338, 939.7489712159149, -0.11200000531971455, 0.27200001291930676, 0.9280000440776348, 0.0, 0.0, 0.0, 0.0, 0.0, 1.648336896355068E9, 0.0, 2022-03-26 18:21:36.355
41.0, 805.6997371041216, -95.59745271736756, 690.2209762223065, 1105.7294711493887, -0.11200000531971455, 0.27200001291930676, 0.9280000440776348, 0.0, 0.0, 0.0, 0.0, 0.0, 1.648336896355068E9, 0.0, 2022-03-26 18:21:36.355
42.0, 764.4561203927733, -93.45075014280155, 683.2759820045903, 1176.4042305620387, -0.11200000531971455, 0.27200001291930676, 0.9280000440776348, 0.0, 0.0, 0.0, 0.0, 0.0, 1.648336896370538E9, 0.0, 2022-03-26 18:21:36.370
42.0, 746.4634617059492, -83.66717185871676, 701.2574209915474, 963.5740038836375, -0.11200000531971455, 0.27200001291930676, 0.9280000440776348, 0.0, 0.0, 0.0, 0.0, 0.0, 1.648336896370538E9, 0.0, 2022-03-26 18:21:36.370
43.0, 701.1246545431204, -61.2689110240899, 729.4824459571391, 987.1933420537971, -0.11200000531971455, 0.27200001291930676, 0.9280000440776348, 0.0, 0.0, 0.0, 0.0, 0.0, 1.6483368963857908E9, 0.0, 2022-03-26 18:21:36.385
43.0, 525.6448087221943, -19.759761415887624, 772.7082096450031, 975.2742808950134, -0.11200000531971455, 0.27200001291930676, 0.9280000440776348, 0.0, 0.0, 0.0, 0.0, 0.0, 1.6483368963857908E9, 0.0, 2022-03-26 18:21:36.385
44.0, 540.2790372488089, 1.452951132785529, 790.9701411286369, 1004.851279694587, -0.11200000531971455, 0.27200001291930676, 0.9280000440776348, 0.0, 0.0, 0.0, 0.0, 0.0, 1.6483368963864985E9, 0.0, 2022-03-26 18:21:36.386
44.0, 626.2742968299426, -26.039053441490978, 767.8575594024733, 959.1478322860785, -0.11200000531971455, 0.27200001291930676, 0.9280000440776348, 0.0, 0.0, 0.0, 0.0, 0.0, 1.6483368963864985E9, 0.0, 2022-03-26 18:21:36.386
45.0, 634.9620844270103, -14.752035375218838, 774.6716571217403, 1076.1880013993941, -0.11200000531971455, 0.27200001291930676, 0.9280000440776348, 0.0, 0.0, 0.0, 0.0, 0.0, 1.6483368964008195E9, 0.0, 2022-03-26 18:21:36.400
45.0, 615.559483456891, -11.416044614743441, 779.9636155590415, 1141.3501482773572, -0.11200000531971455, 0.27200001291930676, 0.9280000440776348, 0.0, 0.0, 0.0, 0.0, 0.0, 1.6483368964008195E9, 0.0, 2022-03-26 18:21:36.400
46.0, 630.6424999781884, -6.969303567428142, 787.1479633739218, 1355.6763349380344, -0.11200000531971455, 0.27200001291930676, 0.9280000440776348, 0.0, 0.0, 0.0, 0.0, 0.0, 1.648336896401487E9, 0.0, 2022-03-26 18:21:36.401
46.0, 697.9644390805624, -16.565886853728443, 777.4915416883305, 1347.1362733892165, -0.11200000531971455, 0.27200001291930676, 0.9280000440776348, 0.0, 0.0, 0.0, 0.0, 0.0, 1.648336896401487E9, 0.0, 2022-03-26 18:21:36.401
47.0, 736.3694717255421, -57.70478636631742, 741.3865475161001, 1224.764876889065, -0.11200000531971455, 0.27200001291930676, 0.9280000440776348, 0.0, 0.0, 0.0, 0.0, 0.0, 1.6483368964151251E9, 0.0, 2022-03-26 18:21:36.415
47.0, 704.011857308913, -39.12870328640565, 763.8334270501509, 1146.5448693158105, -0.11200000531971455, 0.27200001291930676, 0.9280000440776348, 0.0, 0.0, 0.0, 0.0, 0.0, 1.6483368964151251E9, 0.0, 2022-03-26 18:21:36.415
48.0, 712.3368746102788, -38.41438239486888, 753.1298333769664, 1353.6137801124714, -0.11200000531971455, 0.27200001291930676, 0.9280000440776348, 0.0, 0.0, 0.0, 0.0, 0.0, 1.6483368964307857E9, 0.0, 2022-03-26 18:21:36.430
48.0, 706.7419842765667, -21.768087692093104, 780.4423227533698, 1401.523768494837, -0.11200000531971455, 0.27200001291930676, 0.9280000440776348, 0.0, 0.0, 0.0, 0.0, 0.0, 1.6483368964307857E9, 0.0, 2022-03-26 18:21:36.430
49.0, 698.3758280756883, -17.85989223839715, 785.3976901946589, 1496.5938953184523, -0.11200000531971455, 0.27200001291930676, 0.9280000440776348, 0.0, 0.0, 0.0, 0.0, 0.0, 1.648336896431498E9, 0.0, 2022-03-26 18:21:36.431
49.0, 685.8696026238613, -23.91479026665911, 777.2933269906789, 1372.2384818918072, -0.11200000531971455, 0.27200001291930676, 0.9280000440776348, 0.0, 0.0, 0.0, 0.0, 0.0, 1.648336896431498E9, 0.0, 2022-03-26 18:21:36.431
50.0, 689.4299873816781, -10.151958429720253, 800.0693177208304, 1392.381583053153, -0.11200000531971455, 0.27200001291930676, 1.008000047877431, 0.0, 0.0, 0.0, 0.0, 0.0, 1.6483368964451385E9, 0.0, 2022-03-26 18:21:36.445
50.0, 683.9697334463708, 0.20382454758509994, 817.5496101137251, 1205.91391116241, -0.11200000531971455, 0.27200001291930676, 1.008000047877431, 0.0, 0.0, 0.0, 0.0, 0.0, 1.6483368964451385E9, 0.0, 2022-03-26 18:21:36.445
51.0, 679.4594140998088, 2.1149134249426425, 820.8108028750867, 1096.9519259533845, -0.11200000531971455, 0.288000013679266, 1.008000047877431, 0.0, 0.0, 0.0, 0.0, 0.0, 1.6483368964608066E9, 0.0, 2022-03-26 18:21:36.460
51.0, 684.3586830417626, 14.045194283593446, 824.135573935695, 989.6205371250398, -0.11200000531971455, 0.288000013679266, 1.008000047877431, 0.0, 0.0, 0.0, 0.0, 0.0, 1.6483368964608066E9, 0.0, 2022-03-26 18:21:36.460
52.0, 674.7359204557724, 15.436437067110091, 832.397012937814, 948.1375668165274, -0.0800000037997961, 0.288000013679266, 1.008000047877431, 0.0, 0.0, 0.0, 0.0, 0.0, 1.6483368964614532E9, 0.0, 2022-03-26 18:21:36.461
52.0, 682.5747507628985, 13.603886088822037, 833.7396370219067, 940.459552207496, -0.0800000037997961, 0.288000013679266, 1.008000047877431, 0.0, 0.0, 0.0, 0.0, 0.0, 1.6483368964614532E9, 0.0, 2022-03-26 18:21:36.461
53.0, 688.03126479825, 29.898630195762962, 846.2982210731134, 920.8138577402569, -0.0800000037997961, 0.288000013679266, 1.008000047877431, 0.0, 0.0, 0.0, 0.0, 0.0, 1.64833689647512E9, 0.0, 2022-03-26 18:21:36.475
53.0, 674.4853471587412, 22.40761058451608, 828.9525650786236, 848.1588213010691, -0.0800000037997961, 0.288000013679266, 1.008000047877431, 0.0, 0.0, 0.0, 0.0, 0.0, 1.64833689647512E9, 0.0, 2022-03-26 18:21:36.475
54.0, 675.3380443486385, 19.209996122401208, 833.6723188227043, 785.8146890397184, -0.0800000037997961, 0.288000013679266, 1.008000047877431, 0.0, 0.0, 0.0, 0.0, 0.0, 1.6483368964908235E9, 0.0, 2022-03-26 18:21:36.490
54.0, 697.3323959880508, 16.33027315651998, 834.4090791139752, 863.2530575222336, -0.0800000037997961, 0.288000013679266, 1.008000047877431, 0.0, 0.0, 0.0, 0.0, 0.0, 1.6483368964908235E9, 0.0, 2022-03-26 18:21:36.490
55.0, 707.4450854682364, 27.882824119646102, 823.2641772460192, 904.8744041291066, -0.0800000037997961, 0.288000013679266, 1.008000047877431, 0.0, 0.0, 0.0, 0.0, 0.0, 1.6483368964915273E9, 0.0, 2022-03-26 18:21:36.491
55.0, 731.9189907782711, 30.953281983267516, 828.85158777982, 920.9896330381744, -0.0800000037997961, 0.288000013679266, 1.008000047877431, 0.0, 0.0, 0.0, 0.0, 0.0, 1.6483368964915273E9, 0.0, 2022-03-26 18:21:36.491
56.0, 730.5165282948874, 40.81165826646611, 829.708024869673, 895.7041694377549, -0.0800000037997961, 0.288000013679266, 1.008000047877431, 0.0, 0.0, 0.0, 0.0, 0.0, 1.6483368965050793E9, 0.0, 2022-03-26 18:21:36.505
56.0, 738.0486868056469, 34.7754597379826, 823.2529575461522, 924.5313182962127, -0.0800000037997961, 0.288000013679266, 1.008000047877431, 0.0, 0.0, 0.0, 0.0, 0.0, 1.6483368965050793E9, 0.0, 2022-03-26 18:21:36.505
57.0, 749.8293716660701, 34.08357824617997, 836.7427766863257, 997.9380746264942, -0.0800000037997961, 0.288000013679266, 1.008000047877431, 0.0, 0.0, 0.0, 0.0, 0.0, 1.6483368965208027E9, 0.0, 2022-03-26 18:21:36.520
57.0, 747.5480326930992, 32.09021156979725, 832.819621632807, 1115.6252464321442, -0.0800000037997961, 0.288000013679266, 1.008000047877431, 0.0, 0.0, 0.0, 0.0, 0.0, 1.6483368965208027E9, 0.0, 2022-03-26 18:21:36.520
58.0, 752.9035694296472, 25.90441704308614, 830.4148659612983, 1286.441437008325, -0.0800000037997961, 0.288000013679266, 1.008000047877431, 0.0, 0.0, 0.0, 0.0, 0.0, 1.6483368965214963E9, 0.0, 2022-03-26 18:21:36.521
58.0, 725.6920573520474, -9.288041539955884, 795.8245312711224, 1398.3280239827, -0.0800000037997961, 0.288000013679266, 1.008000047877431, 0.0, 0.0, 0.0, 0.0, 0.0, 1.6483368965214963E9, 0.0, 2022-03-26 18:21:36.521
59.0, 706.3866937807761, -0.31228164630010724, 786.3476247834042, 1233.0169661412947, -0.0800000037997961, 0.288000013679266, 1.008000047877431, 0.0, 0.0, 0.0, 0.0, 0.0, 1.6483368965351107E9, 0.0, 2022-03-26 18:21:36.535
59.0, 682.1484021679498, -2.533782219979912, 781.3099795430899, 1304.8735339399427, -0.0800000037997961, 0.288000013679266, 1.008000047877431, 0.0, 0.0, 0.0, 0.0, 0.0, 1.6483368965351107E9, 0.0, 2022-03-26 18:21:36.535
60.0, 684.1230693445541, -7.616306259762496, 776.1376979043707, 1157.8917257813737, -0.0800000037997961, 0.288000013679266, 1.0400000493973494, 0.0, 0.0, 0.0, 0.0, 0.0, 1.6483368965507843E9, 0.0, 2022-03-26 18:21:36.550
60.0, 618.5177443218417, -0.8321277401410043, 784.4290561061352, 1240.5304251522757, -0.0800000037997961, 0.288000013679266, 1.0400000493973494, 0.0, 0.0, 0.0, 0.0, 0.0, 1.6483368965507843E9, 0.0, 2022-03-26 18:21:36.550
61.0, 625.9227462341078, 6.677591370884329, 798.289125341922, 1380.3634145455435, -0.0800000037997961, 0.2240000106394291, 1.0400000493973494, 0.0, 0.0, 0.0, 0.0, 0.0, 1.6483368965514736E9, 0.0, 2022-03-26 18:21:36.551
61.0, 621.0608762917109, 0.5404155435971916, 794.0031999927014, 1280.0705174338073, -0.0800000037997961, 0.2240000106394291, 1.0400000493973494, 0.0, 0.0, 0.0, 0.0, 0.0, 1.6483368965514736E9, 0.0, 2022-03-26 18:21:36.551
62.0, 622.5643160738982, 0.7386302412487566, 795.7908721715212, 1453.1699169329368, 0.0, 0.2240000106394291, 1.0400000493973494, 0.0, 0.0, 0.0, 0.0, 0.0, 1.648336896565071E9, 0.0, 2022-03-26 18:21:36.565
62.0, 613.3492025830783, 0.6787918419577181, 790.1062242388725, 1679.3833756027743, 0.0, 0.2240000106394291, 1.0400000493973494, 0.0, 0.0, 0.0, 0.0, 0.0, 1.648336896565071E9, 0.0, 2022-03-26 18:21:36.565
63.0, 604.3210840900429, 5.286348587367684, 796.5986905619502, 1720.0753570706584, 0.0, 0.2240000106394291, 1.0400000493973494, 0.0, 0.0, 0.0, 0.0, 0.0, 1.6483368965808432E9, 0.0, 2022-03-26 18:21:36.580
63.0, 605.5776904751547, 6.161485176999122, 797.6720418492332, 1653.2321251626126, 0.0, 0.2240000106394291, 1.0400000493973494, 0.0, 0.0, 0.0, 0.0, 0.0, 1.6483368965808432E9, 0.0, 2022-03-26 18:21:36.580
64.0, 614.2953972718678, 12.463216602336615, 805.7240464538336, 1556.1779814125039, 0.0, 0.2240000106394291, 1.0400000493973494, 0.0, 0.0, 0.0, 0.0, 0.0, 1.6483368965814412E9, 0.0, 2022-03-26 18:21:36.581
64.0, 626.4313726280816, 25.10033855261281, 821.9439925616607, 1605.1968501317315, 0.0, 0.2240000106394291, 1.0400000493973494, 0.0, 0.0, 0.0, 0.0, 0.0, 1.6483368965814412E9, 0.0, 2022-03-26 18:21:36.581
65.0, 615.667940555606, 29.715375097934157, 810.3428228991106, 1542.789139571134, 0.0, 0.2240000106394291, 1.0400000493973494, 0.0, 0.0, 0.0, 0.0, 0.0, 1.6483368965951068E9, 0.0, 2022-03-26 18:21:36.595
65.0, 608.5658705397509, 34.75302033824846, 818.4733654027805, 1703.3411747189239, 0.0, 0.2240000106394291, 1.0400000493973494, 0.0, 0.0, 0.0, 0.0, 0.0, 1.6483368965951068E9, 0.0, 2022-03-26 18:21:36.595
66.0, 518.785832203459, 61.534443920943886, 844.5442079938948, 1680.015418695286, 0.0, 0.2240000106394291, 1.0400000493973494, 0.0, 0.0, 0.0, 0.0, 0.0, 1.6483368966107876E9, 0.0, 2022-03-26 18:21:36.610
66.0, 561.0504416027106, 75.7236243528314, 865.2221148489043, 1645.5653302534483, 0.0, 0.2240000106394291, 1.0400000493973494, 0.0, 0.0, 0.0, 0.0, 0.0, 1.6483368966107876E9, 0.0, 2022-03-26 18:21:36.610
67.0, 656.2570747747086, 50.23994605476037, 845.9354507774115, 1580.5677389735356, 0.0, 0.2240000106394291, 1.0400000493973494, 0.0, 0.0, 0.0, 0.0, 0.0, 1.648336896611508E9, 0.0, 2022-03-26 18:21:36.611
67.0, 683.8537965477444, 56.94184677535668, 845.06031418778, 1725.372925357893, 0.0, 0.2240000106394291, 1.0400000493973494, 0.0, 0.0, 0.0, 0.0, 0.0, 1.648336896611508E9, 0.0, 2022-03-26 18:21:36.611
68.0, 718.0402220427059, 42.47217384679243, 821.2857701694593, 1716.040005018469, 0.0, 0.2240000106394291, 1.0400000493973494, 0.0, 0.0, 0.0, 0.0, 0.0, 1.6483368966250782E9, 0.0, 2022-03-26 18:21:36.625
68.0, 698.8807145697065, 34.584724840242416, 834.5773746119812, 1813.271794016473, 0.0, 0.2240000106394291, 1.0400000493973494, 0.0, 0.0, 0.0, 0.0, 0.0, 1.6483368966250782E9, 0.0, 2022-03-26 18:21:36.625
69.0, 700.9713186449371, 48.81130427168682, 838.186378069222, 1622.9856842709705, 0.0, 0.2240000106394291, 1.0400000493973494, 0.0, 0.0, 0.0, 0.0, 0.0, 1.6483368966408165E9, 0.0, 2022-03-26 18:21:36.640
69.0, 747.0356663991697, 51.57509033894166, 839.6374592520297, 1851.9199201585725, 0.0, 0.2240000106394291, 1.0400000493973494, 0.0, 0.0, 0.0, 0.0, 0.0, 1.6483368966408165E9, 0.0, 2022-03-26 18:21:36.640
70.0, 836.4828536394052, 26.01661404175684, 815.3468090398237, 1714.8843759321608, 0.0, 0.2240000106394291, 0.9760000463575125, 0.0, 0.0, 0.0, 0.0, 0.0, 1.6483368966415408E9, 0.0, 2022-03-26 18:21:36.641
70.0, 917.4292482803576, -15.784247762989253, 779.0660395696759, 1761.5845066788606, 0.0, 0.2240000106394291, 0.9760000463575125, 0.0, 0.0, 0.0, 0.0, 0.0, 1.6483368966415408E9, 0.0, 2022-03-26 18:21:36.641
71.0, 909.3323648762889, -17.50086184265092, 774.626778322272, 1650.8946876903065, 0.0, 0.20800000987946987, 0.9760000463575125, 0.0, 0.0, 0.0, 0.0, 0.0, 1.6483368966551175E9, 0.0, 2022-03-26 18:21:36.655
71.0, 957.2442232086323, -15.48131586657837, 775.7150892093778, 1424.5914714215323, 0.0, 0.20800000987946987, 0.9760000463575125, 0.0, 0.0, 0.0, 0.0, 0.0, 1.6483368966551175E9, 0.0, 2022-03-26 18:21:36.655
72.0, 1004.2098868521862, -45.479053411167115, 753.3317879745737, 1535.1877929111943, 0.01600000075995922, 0.20800000987946987, 0.9760000463575125, 0.0, 0.0, 0.0, 0.0, 0.0, 1.6483368966708193E9, 0.0, 2022-03-26 18:21:36.670
72.0, 1026.3239152901806, -36.00214692344889, 752.4192523853853, 1679.446953902021, 0.01600000075995922, 0.20800000987946987, 0.9760000463575125, 0.0, 0.0, 0.0, 0.0, 0.0, 1.6483368966708193E9, 0.0, 2022-03-26 18:21:36.670
