%OpenBCI Raw EEG Data
%Number of channels = 4
%Sample Rate = 200 Hz
%Board = OpenBCI_GUI$BoardGanglionBLE
Sample Index, EXG Channel 0, EXG Channel 1, EXG Channel 2, EXG Channel 3, Accel Channel 0, Accel Channel 1, Accel Channel 2, Other, Other, Other, Other, Other, Timestamp, Other, Timestamp (Formatted)
2.0, -6.103516727685928, -0.5385455936193466, -1.6156367808580399, 3.186394762247801, -0.17600000835955143, 0.0, 0.0, 0.0, 0.0, 0.0, 0.0, 0.0, 1.6480855893328552E9, 0.0, 2022-03-23 20:33:09.332
2.0, 5.8155444310978055, 25.105948402546346, 19.436260069720447, 3.3995690597221255, -0.17600000835955143, 0.0, 0.0, 0.0, 0.0, 0.0, 0.0, 0.0, 1.6480855893328552E9, 0.0, 2022-03-23 20:33:09.332
3.0, 12.753058848902583, 20.812543253414333, 16.14514810871333, 14.694066925905645, -0.17600000835955143, 0.0, 0.0, 0.0, 0.0, 0.0, 0.0, 0.0, 1.6480855893473032E9, 0.0, 2022-03-23 20:33:09.347
3.0, 19.817729865200818, 24.675859907642007, 21.253851448185742, 15.169034220278263, -0.17600000835955143, 0.0, 0.0, 0.0, 0.0, 0.0, 0.0, 0.0, 1.6480855893473032E9, 0.0, 2022-03-23 20:33:09.347
4.0, 7.382562512531877, 20.99205845128745, 30.6447402369231, 13.029811445623636, -0.17600000835955143, 0.0, 0.0, 0.0, 0.0, 0.0, 0.0, 0.0, 1.6480855893480036E9, 0.0, 2022-03-23 20:33:09.348
4.0, 16.47051940485835, 15.524324716068804, 31.987364321015775, 18.50502498075366, -0.17600000835955143, 0.0, 0.0, 0.0, 0.0, 0.0, 0.0, 0.0, 1.6480855893480036E9, 0.0, 2022-03-23 20:33:09.348
5.0, 15.984332410618663, 15.449526716955006, 17.26337819546461, 14.338776430115104, -0.17600000835955143, 0.0, 0.0, 0.0, 0.0, 0.0, 0.0, 0.0, 1.6480855893615708E9, 0.0, 2022-03-23 20:33:09.361
5.0, 7.958507105708122, 20.453512857668102, 20.46473255753517, 5.516352434642613, -0.17600000835955143, 0.0, 0.0, 0.0, 0.0, 0.0, 0.0, 0.0, 1.6480855893615708E9, 0.0, 2022-03-23 20:33:09.361
6.0, 15.505625216290355, 24.062516314908862, 24.48886490985751, 16.48173910472542, -0.17600000835955143, 0.0, 0.0, 0.0, 0.0, 0.0, 0.0, 0.0, 1.6480855893773146E9, 0.0, 2022-03-23 20:33:09.377
6.0, 17.996398586779833, 22.47305883374065, 27.473305074498057, 11.758245460689068, -0.17600000835955143, 0.0, 0.0, 0.0, 0.0, 0.0, 0.0, 0.0, 1.6480855893773146E9, 0.0, 2022-03-23 20:33:09.377
7.0, 8.02956520486623, 18.426487081684172, 15.976852610707283, 8.089403604157269, -0.17600000835955143, 0.0, 0.0, 0.0, 0.0, 0.0, 0.0, 0.0, 1.6480855893780055E9, 0.0, 2022-03-23 20:33:09.378
7.0, 14.90724122337997, 30.56620233785361, 26.62060788460076, 12.599722950719297, -0.17600000835955143, 0.0, 0.0, 0.0, 0.0, 0.0, 0.0, 0.0, 1.6480855893780055E9, 0.0, 2022-03-23 20:33:09.378
8.0, 18.52372448053211, 18.433966881595552, 19.024871074594557, 17.132481697015464, -0.17600000835955143, 0.0, 0.0, 0.0, 0.0, 0.0, 0.0, 0.0, 1.6480855893915255E9, 0.0, 2022-03-23 20:33:09.391
8.0, 7.7490727081894875, 27.34988837596029, 23.609988420270383, 17.77574448939413, -0.17600000835955143, 0.0, 0.0, 0.0, 0.0, 0.0, 0.0, 0.0, 1.6480855893915255E9, 0.0, 2022-03-23 20:33:09.391
9.0, 16.377021905966103, 35.607587478123605, 24.702039207331836, 21.014497851021588, -0.17600000835955143, 0.0, 0.0, 0.0, 0.0, 0.0, 0.0, 0.0, 1.6480855894072423E9, 0.0, 2022-03-23 20:33:09.407
9.0, 18.46014618128538, 27.910873369313776, 21.74751824233681, 18.14973448496312, -0.17600000835955143, 0.0, 0.0, 0.0, 0.0, 0.0, 0.0, 0.0, 1.6480855894072423E9, 0.0, 2022-03-23 20:33:09.407
10.0, 22.286063835956156, 27.589241973124444, 17.570049991831183, 16.736052301712334, -0.17600000835955143, 0.0, 0.9920000471174717, 0.0, 0.0, 0.0, 0.0, 0.0, 1.6480855894079697E9, 0.0, 2022-03-23 20:33:09.407
10.0, 13.841369736008346, 26.19051938969642, 18.239492083899677, 10.02667178120464, -0.17600000835955143, 0.0, 0.9920000471174717, 0.0, 0.0, 0.0, 0.0, 0.0, 1.6480855894079697E9, 0.0, 2022-03-23 20:33:09.407
11.0, 10.711073473095894, 21.044417050667107, 19.870088464580476, 13.24672564305365, -0.17600000835955143, 0.0, 0.9920000471174717, 0.0, 0.0, 0.0, 0.0, 0.0, 1.648085589421696E9, 0.0, 2022-03-23 20:33:09.421
11.0, 18.04875718615949, 12.132235456258059, 21.38848784659058, 13.766571736894548, -0.17600000835955143, 0.0, 0.9920000471174717, 0.0, 0.0, 0.0, 0.0, 0.0, 1.648085589421696E9, 0.0, 2022-03-23 20:33:09.421
12.0, 12.401508253067732, 22.035490538924932, 28.96178525686264, 12.416467852890491, -0.17600000835955143, 0.0, 0.9920000471174717, 0.0, 0.0, 0.0, 0.0, 0.0, 1.648085589437704E9, 0.0, 2022-03-23 20:33:09.437
12.0, 23.901700616814196, 33.93959209788591, 33.02331660874188, 18.05623698607087, -0.17600000835955143, 0.0, 0.9920000471174717, 0.0, 0.0, 0.0, 0.0, 0.0, 1.648085589437704E9, 0.0, 2022-03-23 20:33:09.437
13.0, 31.273043429479003, 46.068087654188275, 39.52326273173094, 31.512397026643157, -0.17600000835955143, 0.0, 0.9920000471174717, 0.0, 0.0, 0.0, 0.0, 0.0, 1.6480855894522371E9, 0.0, 2022-03-23 20:33:09.452
13.0, 19.638214667327702, 33.92837239801884, 29.548949549905956, 16.317183506675065, -0.17600000835955143, 0.0, 0.9920000471174717, 0.0, 0.0, 0.0, 0.0, 0.0, 1.6480855894522371E9, 0.0, 2022-03-23 20:33:09.452
14.0, 7.9061485063284636, 27.01703727990389, 35.5365293789655, 17.110042297281325, -0.17600000835955143, 0.0, 0.9920000471174717, 0.0, 0.0, 0.0, 0.0, 0.0, 1.6480855894530406E9, 0.0, 2022-03-23 20:33:09.453
14.0, 5.104963439516723, 7.330203913152218, 16.335883006453514, 3.418268559500575, -0.17600000835955143, 0.0, 0.9920000471174717, 0.0, 0.0, 0.0, 0.0, 0.0, 1.6480855894530406E9, 0.0, 2022-03-23 20:33:09.453
15.0, 8.493312799371779, 14.013405133970082, 3.3210311606526375, 6.387749124318361, -0.17600000835955143, 0.0, 0.9920000471174717, 0.0, 0.0, 0.0, 0.0, 0.0, 1.6480855894672425E9, 0.0, 2022-03-23 20:33:09.467
15.0, 10.744732572697103, 18.50876488070935, 10.823270471766591, 17.28581759519875, -0.17600000835955143, 0.0, 0.9920000471174717, 0.0, 0.0, 0.0, 0.0, 0.0, 1.6480855894672425E9, 0.0, 2022-03-23 20:33:09.467
16.0, 17.906640987843275, 22.14768753759563, 28.019330468028784, 21.36230854690075, -0.17600000835955143, 0.0, 0.9920000471174717, 0.0, 0.0, 0.0, 0.0, 0.0, 1.6480855894680066E9, 0.0, 2022-03-23 20:33:09.468
16.0, 17.038984198123217, 18.49380528088659, 24.877814505249262, 21.414667146280408, -0.17600000835955143, 0.0, 0.9920000471174717, 0.0, 0.0, 0.0, 0.0, 0.0, 1.6480855894680066E9, 0.0, 2022-03-23 20:33:09.468
17.0, 16.55279720388353, 11.724586361087859, 38.61446704249829, 23.120061526075006, -0.17600000835955143, 0.0, 0.9920000471174717, 0.0, 0.0, 0.0, 0.0, 0.0, 1.6480855894816082E9, 0.0, 2022-03-23 20:33:09.481
17.0, 8.411035000346601, 1.6193766808137298, 40.32360132224858, 15.845956112258136, -0.17600000835955143, 0.0, 0.9920000471174717, 0.0, 0.0, 0.0, 0.0, 0.0, 1.6480855894816082E9, 0.0, 2022-03-23 20:33:09.481
18.0, 19.74293186608702, 0.7965986905619502, 49.17594451736659, 22.18508653715253, -0.17600000835955143, 0.0, 0.9920000471174717, 0.0, 0.0, 0.0, 0.0, 0.0, 1.648085589497073E9, 0.0, 2022-03-23 20:33:09.497
18.0, 13.624455538578331, 1.7053943797945976, 52.29502108041197, 18.250711783766747, -0.17600000835955143, 0.0, 0.9920000471174717, 0.0, 0.0, 0.0, 0.0, 0.0, 1.648085589497073E9, 0.0, 2022-03-23 20:33:09.497
19.0, -1.4323816830292344, -2.1616621743887663, 49.93140430841595, 22.93306652829051, -0.17600000835955143, 0.0, 0.9920000471174717, 0.0, 0.0, 0.0, 0.0, 0.0, 1.648085589513549E9, 0.0, 2022-03-23 20:33:09.513
19.0, 4.0054328525438905, -17.525171192362905, 45.78385525755584, 17.599969191476703, -0.17600000835955143, 0.0, 0.9920000471174717, 0.0, 0.0, 0.0, 0.0, 0.0, 1.648085589513549E9, 0.0, 2022-03-23 20:33:09.513
20.0, 9.64520198572427, -28.348441664129496, 46.539315048605204, 14.05080413352698, -0.17600000835955143, 0.0, 1.008000047877431, 0.0, 0.0, 0.0, 0.0, 0.0, 1.6480855895143404E9, 0.0, 2022-03-23 20:33:09.514
20.0, -2.0382454758509994, -32.4585917154327, 47.13021924160421, 12.786717948503792, -0.17600000835955143, 0.0, 1.008000047877431, 0.0, 0.0, 0.0, 0.0, 0.0, 1.6480855895143404E9, 0.0, 2022-03-23 20:33:09.514
21.0, -1.3538437839597464, -42.055175001733005, 44.912458567880094, 15.041877621784806, -0.17600000835955143, 0.0, 1.008000047877431, 0.0, 0.0, 0.0, 0.0, 0.0, 1.6480855895150535E9, 0.0, 2022-03-23 20:33:09.515
21.0, 2.6441092686727643, -45.86239315662533, 43.40901878569275, 17.543870692141354, -0.17600000835955143, 0.0, 1.008000047877431, 0.0, 0.0, 0.0, 0.0, 0.0, 1.6480855895150535E9, 0.0, 2022-03-23 20:33:09.515
22.0, 2.6740284683182836, -36.74451706465334, 42.66477869451046, 17.68972679041326, -0.17600000835955143, 0.0, 1.008000047877431, 0.0, 0.0, 0.0, 0.0, 0.0, 1.6480855895266075E9, 0.0, 2022-03-23 20:33:09.526
22.0, -4.057791451923549, -33.01209690887481, 41.49045010842383, 13.355182741768658, -0.17600000835955143, 0.0, 1.008000047877431, 0.0, 0.0, 0.0, 0.0, 0.0, 1.6480855895266075E9, 0.0, 2022-03-23 20:33:09.526
23.0, 10.43806077633053, -20.236598660238087, 59.46066939551383, 28.54291646182537, -0.17600000835955143, 0.0, 1.008000047877431, 0.0, 0.0, 0.0, 0.0, 0.0, 1.6480855895415533E9, 0.0, 2022-03-23 20:33:09.541
23.0, 12.020038457587361, -25.532296997494996, 60.47792218346149, 34.30984219349921, -0.17600000835955143, 0.0, 1.008000047877431, 0.0, 0.0, 0.0, 0.0, 0.0, 1.6480855895415533E9, 0.0, 2022-03-23 20:33:09.541
24.0, 0.9087956892326474, -30.409126539714634, 48.00535583123565, 22.96672562789172, -0.17600000835955143, 0.0, 1.008000047877431, 0.0, 0.0, 0.0, 0.0, 0.0, 1.6480855895572896E9, 0.0, 2022-03-23 20:33:09.557
24.0, 8.538191598840058, -24.784317006357014, 42.96023079100996, 22.297283535823226, -0.17600000835955143, 0.0, 1.008000047877431, 0.0, 0.0, 0.0, 0.0, 0.0, 1.6480855895572896E9, 0.0, 2022-03-23 20:33:09.557
25.0, 7.599476709961891, -27.200292377732694, 46.70761054661125, 23.71096571907401, -0.17600000835955143, 0.0, 1.008000047877431, 0.0, 0.0, 0.0, 0.0, 0.0, 1.6480855895579784E9, 0.0, 2022-03-23 20:33:09.557
25.0, 5.022685640491545, -28.303562864661217, 50.35027310345322, 20.94343975186348, -0.17600000835955143, 0.0, 1.008000047877431, 0.0, 0.0, 0.0, 0.0, 0.0, 1.6480855895579784E9, 0.0, 2022-03-23 20:33:09.557
26.0, 16.51913810428232, -20.06456326227635, 56.70062322821468, 28.288603264838457, -0.17600000835955143, 0.0, 1.008000047877431, 0.0, 0.0, 0.0, 0.0, 0.0, 1.6480855895716012E9, 0.0, 2022-03-23 20:33:09.571
26.0, 25.39766059909016, -18.205832984298468, 55.11490564700216, 28.92812615726143, -0.17600000835955143, 0.0, 1.008000047877431, 0.0, 0.0, 0.0, 0.0, 0.0, 1.6480855895716012E9, 0.0, 2022-03-23 20:33:09.571
27.0, 12.711919949389994, -19.929926863871515, 59.58782599400729, 31.145886830985546, -0.17600000835955143, 0.0, 1.008000047877431, 0.0, 0.0, 0.0, 0.0, 0.0, 1.6480855895872653E9, 0.0, 2022-03-23 20:33:09.587
27.0, 12.405248153023422, -17.222239295952022, 59.27741429768503, 33.05697570834309, -0.17600000835955143, 0.0, 1.008000047877431, 0.0, 0.0, 0.0, 0.0, 0.0, 1.6480855895872653E9, 0.0, 2022-03-23 20:33:09.587
28.0, 25.28920350037515, -8.261439002119005, 57.295267321169376, 35.95913807395846, -0.17600000835955143, 0.0, 1.008000047877431, 0.0, 0.0, 0.0, 0.0, 0.0, 1.6480855895879836E9, 0.0, 2022-03-23 20:33:09.587
28.0, 21.73255864251405, -1.4660407826304436, 63.424963348545134, 42.070134601555765, -0.17600000835955143, 0.0, 1.008000047877431, 0.0, 0.0, 0.0, 0.0, 0.0, 1.6480855895879836E9, 0.0, 2022-03-23 20:33:09.587
29.0, 13.605756038799882, -9.435767588205636, 50.67190449964255, 21.3810080466792, -0.17600000835955143, 0.0, 1.008000047877431, 0.0, 0.0, 0.0, 0.0, 0.0, 1.6480855896179416E9, 0.0, 2022-03-23 20:33:09.617
29.0, 9.996752581559122, -16.43686030525714, 48.64113882370293, 24.11487491428852, -0.17600000835955143, 0.0, 1.008000047877431, 0.0, 0.0, 0.0, 0.0, 0.0, 1.6480855896179416E9, 0.0, 2022-03-23 20:33:09.617
30.0, 11.496452463790774, -23.419253522530198, 37.79916885215789, 19.125848373398185, -0.17600000835955143, 0.0, 1.008000047877431, 0.0, 0.0, 0.0, 0.0, 0.0, 1.6480855896186905E9, 0.0, 2022-03-23 20:33:09.618
30.0, 4.3682031482458115, -21.055636750534177, 36.60614076629281, 19.974805663339794, -0.17600000835955143, 0.0, 1.008000047877431, 0.0, 0.0, 0.0, 0.0, 0.0, 1.6480855896186905E9, 0.0, 2022-03-23 20:33:09.618
31.0, 4.9703270411118865, -28.359661363996565, 27.3461484760046, 18.86405537649989, -0.17600000835955143, 0.0, 1.008000047877431, 0.0, 0.0, 0.0, 0.0, 0.0, 1.6480855896194596E9, 0.0, 2022-03-23 20:33:09.619
31.0, 10.815790671855211, -25.053589803166687, 24.043816815130413, 22.054190038703382, -0.17600000835955143, 0.0, 1.008000047877431, 0.0, 0.0, 0.0, 0.0, 0.0, 1.6480855896194596E9, 0.0, 2022-03-23 20:33:09.619
32.0, 14.312597130425274, -13.190627143718302, 41.9841169025749, 33.610480901785195, -0.17600000835955143, 0.0, 1.008000047877431, 0.0, 0.0, 0.0, 0.0, 0.0, 1.6480855896317005E9, 0.0, 2022-03-23 20:33:09.631
32.0, 9.536744887009263, -22.17760673724115, 46.64029234740883, 24.53748360928148, -0.17600000835955143, 0.0, 1.008000047877431, 0.0, 0.0, 0.0, 0.0, 0.0, 1.6480855896317005E9, 0.0, 2022-03-23 20:33:09.631
33.0, 18.261931483633816, -21.923293540254235, 32.60070791374892, 25.547256597317755, -0.17600000835955143, 0.0, 1.008000047877431, 0.0, 0.0, 0.0, 0.0, 0.0, 1.6480855896472807E9, 0.0, 2022-03-23 20:33:09.647
33.0, 13.213066543452442, -25.580915696918964, 31.071088831871748, 20.348795658908784, -0.17600000835955143, 0.0, 1.008000047877431, 0.0, 0.0, 0.0, 0.0, 0.0, 1.6480855896472807E9, 0.0, 2022-03-23 20:33:09.647
34.0, 2.4010157715529203, -16.410681005567312, 34.6090341899544, 25.442539398558438, -0.17600000835955143, 0.0, 1.008000047877431, 0.0, 0.0, 0.0, 0.0, 0.0, 1.648085589647986E9, 0.0, 2022-03-23 20:33:09.647
34.0, 12.730619449168444, -14.48089262843132, 37.77672945242375, 25.936206192709506, -0.17600000835955143, 0.0, 1.008000047877431, 0.0, 0.0, 0.0, 0.0, 0.0, 1.648085589647986E9, 0.0, 2022-03-23 20:33:09.647
35.0, 5.968880329281092, -15.864655612036586, 34.98676408547908, 21.37352824676782, -0.17600000835955143, 0.0, 1.008000047877431, 0.0, 0.0, 0.0, 0.0, 0.0, 1.6480855896617324E9, 0.0, 2022-03-23 20:33:09.661
35.0, 2.9657406648620963, -19.937406663782895, 35.626286977902055, 14.10690263286233, -0.17600000835955143, 0.0, 1.008000047877431, 0.0, 0.0, 0.0, 0.0, 0.0, 1.6480855896617324E9, 0.0, 2022-03-23 20:33:09.661
36.0, 9.996752581559122, -15.127895320765674, 31.40393992792815, 18.53494418039918, -0.17600000835955143, 0.0, 1.008000047877431, 0.0, 0.0, 0.0, 0.0, 0.0, 1.6480855896772664E9, 0.0, 2022-03-23 20:33:09.677
36.0, 19.039830674417317, -10.191227379254997, 34.73993068840355, 27.944532468914986, -0.17600000835955143, 0.0, 1.008000047877431, 0.0, 0.0, 0.0, 0.0, 0.0, 1.6480855896772664E9, 0.0, 2022-03-23 20:33:09.677
37.0, 10.221146578900516, -9.024378593079746, 37.07736816070974, 21.597922244109213, -0.17600000835955143, 0.0, 1.008000047877431, 0.0, 0.0, 0.0, 0.0, 0.0, 1.6480855896780455E9, 0.0, 2022-03-23 20:33:09.678
37.0, 8.706487096846104, -8.010865705087781, 25.37522119935602, 20.842462453059852, -0.17600000835955143, 0.0, 1.008000047877431, 0.0, 0.0, 0.0, 0.0, 0.0, 1.6480855896780455E9, 0.0, 2022-03-23 20:33:09.678
38.0, 17.416714093647897, -6.002539428882301, 27.170373178087175, 26.55702958535403, -0.17600000835955143, 0.0, 1.008000047877431, 0.0, 0.0, 0.0, 0.0, 0.0, 1.6480855896916125E9, 0.0, 2022-03-23 20:33:09.691
38.0, 13.029811445623636, -5.003986140713096, 27.918353169225156, 19.75789146590978, -0.17600000835955143, 0.0, 1.008000047877431, 0.0, 0.0, 0.0, 0.0, 0.0, 1.6480855896916125E9, 0.0, 2022-03-23 20:33:09.691
39.0, 6.073597528040409, -5.722046932205558, 29.638707148842514, 22.633874531835318, -0.17600000835955143, 0.0, 1.008000047877431, 0.0, 0.0, 0.0, 0.0, 0.0, 1.6480855897072804E9, 0.0, 2022-03-23 20:33:09.707
39.0, 10.84196997154504, -7.397522112354636, 19.537237368524075, 18.733158878050745, -0.17600000835955143, 0.0, 1.008000047877431, 0.0, 0.0, 0.0, 0.0, 0.0, 1.6480855897072804E9, 0.0, 2022-03-23 20:33:09.707
40.0, 16.234905707649887, -8.250219302251935, 32.050942620262504, 20.318876459263265, -0.17600000835955143, 0.0, 1.008000047877431, 0.0, 0.0, 0.0, 0.0, 0.0, 1.648085589707955E9, 0.0, 2022-03-23 20:33:09.707
40.0, 4.151288950815797, -10.763432072475553, 27.585502073168755, 13.766571736894548, -0.17600000835955143, 0.0, 1.008000047877431, 0.0, 0.0, 0.0, 0.0, 0.0, 1.648085589707955E9, 0.0, 2022-03-23 20:33:09.707
41.0, 1.047171987593174, -15.71505961380899, 15.378468617796898, 1.3351442841812968, -0.17600000835955143, 0.0, 1.008000047877431, 0.0, 0.0, 0.0, 0.0, 0.0, 1.6480855897215958E9, 0.0, 2022-03-23 20:33:09.721
41.0, 14.86984222382307, -11.017745269462466, 22.315983035601676, 21.579222744330764, -0.17600000835955143, 0.0, 1.008000047877431, 0.0, 0.0, 0.0, 0.0, 0.0, 1.6480855897215958E9, 0.0, 2022-03-23 20:33:09.721
42.0, 9.862116183154285, -1.372543283738196, 24.406587110832334, 11.032704869285226, -0.17600000835955143, 0.0, 1.008000047877431, 0.0, 0.0, 0.0, 0.0, 0.0, 1.6480855897372165E9, 0.0, 2022-03-23 20:33:09.737
42.0, 1.5034397821873426, -2.1878414740785956, 16.302223906852305, 7.610696409828961, -0.17600000835955143, 0.0, 1.008000047877431, 0.0, 0.0, 0.0, 0.0, 0.0, 1.6480855897372165E9, 0.0, 2022-03-23 20:33:09.737
43.0, 11.167341267690063, -4.1251096511259675, 15.68514041416347, 15.060577121563256, -0.17600000835955143, 0.0, 1.008000047877431, 0.0, 0.0, 0.0, 0.0, 0.0, 1.6480855897379446E9, 0.0, 2022-03-23 20:33:09.737
43.0, 14.159261232241988, -3.900715653784573, 19.73919196613133, 10.180007679387927, -0.17600000835955143, 0.0, 1.008000047877431, 0.0, 0.0, 0.0, 0.0, 0.0, 1.6480855897379446E9, 0.0, 2022-03-23 20:33:09.737
44.0, 11.548811063170433, 10.213666778989136, 25.046110003255308, 14.185440531931818, -0.17600000835955143, 0.0, 1.008000047877431, 0.0, 0.0, 0.0, 0.0, 0.0, 1.648085589751618E9, 0.0, 2022-03-23 20:33:09.751
44.0, 18.93137357570231, 8.399815300479531, 32.70168521255255, 25.038630203343928, -0.17600000835955143, 0.0, 1.008000047877431, 0.0, 0.0, 0.0, 0.0, 0.0, 1.648085589751618E9, 0.0, 2022-03-23 20:33:09.751
45.0, 19.34650247078389, 6.84027701895684, 31.75175062380731, 24.350488611496985, -0.17600000835955143, 0.0, 1.008000047877431, 0.0, 0.0, 0.0, 0.0, 0.0, 1.6480855897672462E9, 0.0, 2022-03-23 20:33:09.767
45.0, 11.365555965341628, 8.799984595738351, 27.043216579593718, 14.92594072315842, -0.17600000835955143, 0.0, 1.008000047877431, 0.0, 0.0, 0.0, 0.0, 0.0, 1.6480855897672462E9, 0.0, 2022-03-23 20:33:09.767
46.0, 13.635675238445401, 11.739545960910618, 25.083509002812207, 13.201846843585372, -0.17600000835955143, 0.0, 1.008000047877431, 0.0, 0.0, 0.0, 0.0, 0.0, 1.6480855897679746E9, 0.0, 2022-03-23 20:33:09.767
46.0, 26.467271986417472, 20.027164262719452, 33.70397840067744, 25.438799498602748, -0.17600000835955143, 0.0, 1.008000047877431, 0.0, 0.0, 0.0, 0.0, 0.0, 1.6480855897679746E9, 0.0, 2022-03-23 20:33:09.767
47.0, 20.408634058199823, 12.48378605209291, 41.78964210487902, 24.219592113047838, -0.17600000835955143, 0.0, 1.008000047877431, 0.0, 0.0, 0.0, 0.0, 0.0, 1.648085589781594E9, 0.0, 2022-03-23 20:33:09.781
47.0, 28.273643665015697, 12.723139649257064, 47.95299723185599, 26.459792186506093, -0.17600000835955143, 0.0, 1.008000047877431, 0.0, 0.0, 0.0, 0.0, 0.0, 1.648085589781594E9, 0.0, 2022-03-23 20:33:09.781
48.0, 26.706625583581626, 5.9352212296798825, 33.0906348079443, 23.602508620359004, -0.17600000835955143, 0.0, 1.008000047877431, 0.0, 0.0, 0.0, 0.0, 0.0, 1.6480855897972076E9, 0.0, 2022-03-23 20:33:09.797
48.0, 16.751011901535094, 4.562677945941687, 20.726525554433465, 12.188333955593407, -0.17600000835955143, 0.0, 1.008000047877431, 0.0, 0.0, 0.0, 0.0, 0.0, 1.6480855897972076E9, 0.0, 2022-03-23 20:33:09.797
49.0, 16.825809900648892, 11.178560967557132, 29.7920430470258, 18.224532484076917, -0.17600000835955143, 0.0, 1.008000047877431, 0.0, 0.0, 0.0, 0.0, 0.0, 1.64808558979795E9, 0.0, 2022-03-23 20:33:09.797
49.0, 21.534343944862485, 2.976960364729166, 28.808449358679354, 17.31199689488858, -0.17600000835955143, 0.0, 1.008000047877431, 0.0, 0.0, 0.0, 0.0, 0.0, 1.64808558979795E9, 0.0, 2022-03-23 20:33:09.797
50.0, 20.651727555319667, 1.0583916874602437, 26.21295878943056, 20.700346254743636, -0.17600000835955143, 0.0, 1.008000047877431, 0.0, 0.0, 0.0, 0.0, 0.0, 1.6480855898117046E9, 0.0, 2022-03-23 20:33:09.811
50.0, 8.740146196447313, 7.008572516962886, 22.55533663276583, 16.16384760849178, -0.17600000835955143, 0.0, 1.008000047877431, 0.0, 0.0, 0.0, 0.0, 0.0, 1.6480855898117046E9, 0.0, 2022-03-23 20:33:09.811
51.0, 13.624455538578331, 8.268918802030385, 19.533497468568385, 13.437460540793836, -0.17600000835955143, 0.0, 1.008000047877431, 0.0, 0.0, 0.0, 0.0, 0.0, 1.6480855898272464E9, 0.0, 2022-03-23 20:33:09.827
51.0, 28.12778756674379, 8.007125805132091, 24.98253170400858, 22.334682535380125, -0.17600000835955143, 0.0, 1.008000047877431, 0.0, 0.0, 0.0, 0.0, 0.0, 1.6480855898272464E9, 0.0, 2022-03-23 20:33:09.827
52.0, 11.186040767468512, 9.039338192902505, 20.13562136143446, 12.296791054308414, -0.17600000835955143, 0.0, 1.008000047877431, 0.0, 0.0, 0.0, 0.0, 0.0, 1.6480855898280268E9, 0.0, 2022-03-23 20:33:09.828
52.0, 11.829303559847176, 7.4274413120001554, 24.07747591473162, 10.180007679387927, -0.17600000835955143, 0.0, 1.008000047877431, 0.0, 0.0, 0.0, 0.0, 0.0, 1.6480855898280268E9, 0.0, 2022-03-23 20:33:09.828
53.0, 21.71759904269129, 9.106656392104924, 26.003524391911924, 17.158660996705294, -0.17600000835955143, 0.0, 1.008000047877431, 0.0, 0.0, 0.0, 0.0, 0.0, 1.648085589841494E9, 0.0, 2022-03-23 20:33:09.841
53.0, 13.616975738666952, 2.7862254669889808, 21.190273148939013, 11.735806060954928, -0.17600000835955143, 0.0, 1.008000047877431, 0.0, 0.0, 0.0, 0.0, 0.0, 1.648085589841494E9, 0.0, 2022-03-23 20:33:09.841
54.0, 21.76247784215957, 19.967325863428414, 23.116321626119316, 22.241185036487877, -0.17600000835955143, 0.0, 1.008000047877431, 0.0, 0.0, 0.0, 0.0, 0.0, 1.648085589856968E9, 0.0, 2022-03-23 20:33:09.856
54.0, 19.993505163118243, 16.13018850889057, 30.461485139094293, 21.841015741229057, -0.17600000835955143, 0.0, 1.008000047877431, 0.0, 0.0, 0.0, 0.0, 0.0, 1.648085589856968E9, 0.0, 2022-03-23 20:33:09.856
55.0, 16.661254302598536, 6.671981520950794, 20.337575959041715, 15.094236221164465, -0.17600000835955143, 0.0, 1.008000047877431, 0.0, 0.0, 0.0, 0.0, 0.0, 1.6480855898722124E9, 0.0, 2022-03-23 20:33:09.872
55.0, 10.43806077633053, 10.84944977145642, 16.339622906409204, 7.509719111025333, -0.17600000835955143, 0.0, 1.008000047877431, 0.0, 0.0, 0.0, 0.0, 0.0, 1.6480855898722124E9, 0.0, 2022-03-23 20:33:09.872
56.0, 18.57234317995608, 15.763678313232958, 25.3453019997105, 20.853682152926922, -0.17600000835955143, 0.0, 1.008000047877431, 0.0, 0.0, 0.0, 0.0, 0.0, 1.6480855898729415E9, 0.0, 2022-03-23 20:33:09.872
56.0, 21.874674840830266, 12.09857635665685, 15.385948417708278, 16.11522890906781, -0.17600000835955143, 0.0, 1.008000047877431, 0.0, 0.0, 0.0, 0.0, 0.0, 1.6480855898729415E9, 0.0, 2022-03-23 20:33:09.872
57.0, 26.680446283891797, 25.517337397672236, 29.504070750437677, 27.948272368870676, -0.17600000835955143, 0.0, 1.008000047877431, 0.0, 0.0, 0.0, 0.0, 0.0, 1.6480855898872867E9, 0.0, 2022-03-23 20:33:09.887
57.0, 17.098822597414255, 22.211265836842358, 30.057575943879783, 24.421546710655093, -0.17600000835955143, 0.0, 1.008000047877431, 0.0, 0.0, 0.0, 0.0, 0.0, 1.6480855898872867E9, 0.0, 2022-03-23 20:33:09.887
58.0, 20.412373958155513, 20.670427055098116, 27.940792568959296, 23.01160442736, -0.17600000835955143, 0.0, 1.008000047877431, 0.0, 0.0, 0.0, 0.0, 0.0, 1.6480855898879793E9, 0.0, 2022-03-23 20:33:09.887
58.0, 26.17181988991797, 26.837522082030773, 27.978191568516195, 25.072289302945137, -0.17600000835955143, 0.0, 1.008000047877431, 0.0, 0.0, 0.0, 0.0, 0.0, 1.6480855898879793E9, 0.0, 2022-03-23 20:33:09.887
59.0, 17.27833779528737, 17.828103088773787, 25.932466292753816, 17.962739487178624, -0.17600000835955143, 0.0, 1.008000047877431, 0.0, 0.0, 0.0, 0.0, 0.0, 1.6480855899016166E9, 0.0, 2022-03-23 20:33:09.901
59.0, 18.13851478509605, 12.008818757720292, 27.641600572504103, 20.763924553990364, -0.17600000835955143, 0.0, 1.008000047877431, 0.0, 0.0, 0.0, 0.0, 0.0, 1.6480855899016166E9, 0.0, 2022-03-23 20:33:09.901
60.0, 37.4625778561458, 19.615775267593563, 34.50057709123939, 34.72871098853648, -0.17600000835955143, 0.0, 1.008000047877431, 0.0, 0.0, 0.0, 0.0, 0.0, 1.6480855899172845E9, 0.0, 2022-03-23 20:33:09.917
60.0, 13.934867234900594, 3.788518655113876, 23.112581726163626, 17.596229291521013, -0.17600000835955143, 0.0, 1.008000047877431, 0.0, 0.0, 0.0, 0.0, 0.0, 1.6480855899172845E9, 0.0, 2022-03-23 20:33:09.917
61.0, 12.364109253510833, 12.936313946731389, 21.27629084791988, 15.344809518195689, -0.17600000835955143, 0.0, 1.008000047877431, 0.0, 0.0, 0.0, 0.0, 0.0, 1.6480855899179997E9, 0.0, 2022-03-23 20:33:09.917
61.0, 20.11318196170032, 6.0399384284392, 12.319230454042554, 12.016298557631671, -0.17600000835955143, 0.0, 1.008000047877431, 0.0, 0.0, 0.0, 0.0, 0.0, 1.6480855899179997E9, 0.0, 2022-03-23 20:33:09.917
62.0, 25.939946092665195, 27.611681372858584, 33.36364750470966, 22.08784913830459, -0.17600000835955143, 0.0, 1.008000047877431, 0.0, 0.0, 0.0, 0.0, 0.0, 1.6480855899315453E9, 0.0, 2022-03-23 20:33:09.931
62.0, 13.497298940084875, 19.073489774018526, 24.410327010788023, 16.14888800866902, -0.17600000835955143, 0.0, 1.008000047877431, 0.0, 0.0, 0.0, 0.0, 0.0, 1.6480855899315453E9, 0.0, 2022-03-23 20:33:09.931
63.0, 19.537237368524075, 8.88600229471922, 22.87696802895516, 18.224532484076917, -0.17600000835955143, 0.0, 1.008000047877431, 0.0, 0.0, 0.0, 0.0, 0.0, 1.6480855899472992E9, 0.0, 2022-03-23 20:33:09.947
63.0, 17.491512092761695, 18.57608307991177, 21.048156950622797, 19.952366263605654, -0.17600000835955143, 0.0, 1.008000047877431, 0.0, 0.0, 0.0, 0.0, 0.0, 1.6480855899472992E9, 0.0, 2022-03-23 20:33:09.947
64.0, 13.598276238888502, 24.61602150835097, 20.53953055664897, 18.340469382703304, -0.17600000835955143, 0.0, 1.008000047877431, 0.0, 0.0, 0.0, 0.0, 0.0, 1.6480855899481122E9, 0.0, 2022-03-23 20:33:09.948
64.0, 24.709519007243216, 21.560523244552314, 17.207279696129262, 23.523970721289515, -0.17600000835955143, 0.0, 1.008000047877431, 0.0, 0.0, 0.0, 0.0, 0.0, 1.6480855899481122E9, 0.0, 2022-03-23 20:33:09.948
65.0, 25.70433239545673, 13.998445534147322, 15.427087317220867, 20.59188915602863, -0.17600000835955143, 0.0, 1.008000047877431, 0.0, 0.0, 0.0, 0.0, 0.0, 1.648085589961642E9, 0.0, 2022-03-23 20:33:09.961
65.0, 20.95465945173055, 20.09074256196618, 20.97709885146469, 18.190873384475708, -0.17600000835955143, 0.0, 1.008000047877431, 0.0, 0.0, 0.0, 0.0, 0.0, 1.648085589961642E9, 0.0, 2022-03-23 20:33:09.961
66.0, 18.96503267530352, 24.025117315351963, 26.654266984201968, 22.49923813343048, -0.17600000835955143, 0.0, 1.008000047877431, 0.0, 0.0, 0.0, 0.0, 0.0, 1.6480855899773567E9, 0.0, 2022-03-23 20:33:09.977
66.0, 31.310442429035902, 23.445432822220027, 30.667179636657238, 27.088095379061997, -0.17600000835955143, 0.0, 1.008000047877431, 0.0, 0.0, 0.0, 0.0, 0.0, 1.6480855899773567E9, 0.0, 2022-03-23 20:33:09.977
67.0, 28.17640626616776, 27.02077717985958, 29.907979945652187, 23.434213122352958, -0.17600000835955143, 0.0, 1.008000047877431, 0.0, 0.0, 0.0, 0.0, 0.0, 1.648085589977949E9, 0.0, 2022-03-23 20:33:09.977
67.0, 12.771758348681033, 15.27375141903758, 21.31368984747678, 17.390534793958068, -0.17600000835955143, 0.0, 1.008000047877431, 0.0, 0.0, 0.0, 0.0, 0.0, 1.648085589977949E9, 0.0, 2022-03-23 20:33:09.977
68.0, 20.666687155142426, 18.09363598562777, 17.001585198566318, 21.571742944419384, -0.17600000835955143, 0.0, 1.008000047877431, 0.0, 0.0, 0.0, 0.0, 0.0, 1.6480855899918432E9, 0.0, 2022-03-23 20:33:09.991
68.0, 12.88021544739604, 22.708672530949116, 24.447726010344923, 24.679599807597697, -0.17600000835955143, 0.0, 1.008000047877431, 0.0, 0.0, 0.0, 0.0, 0.0, 1.6480855899918432E9, 0.0, 2022-03-23 20:33:09.991
69.0, 15.70383991394192, 20.374974958598614, 14.308857230469584, 17.68598689045757, -0.17600000835955143, 0.0, 1.008000047877431, 0.0, 0.0, 0.0, 0.0, 0.0, 1.648085590007298E9, 0.0, 2022-03-23 20:33:10.007
69.0, 23.972758715972304, 26.874921081587672, 21.998091539368033, 21.863455140963197, -0.17600000835955143, 0.0, 1.008000047877431, 0.0, 0.0, 0.0, 0.0, 0.0, 1.648085590007298E9, 0.0, 2022-03-23 20:33:10.007
70.0, 20.87986145261675, 12.06491725705564, 22.15516733750701, 22.92932662833482, -0.17600000835955143, 0.0, 1.008000047877431, 0.0, 0.0, 0.0, 0.0, 0.0, 1.6480855900080454E9, 0.0, 2022-03-23 20:33:10.008
70.0, 14.335036530159414, 23.32201612368226, 22.19256633706391, 18.17591378465295, -0.17600000835955143, 0.0, 1.008000047877431, 0.0, 0.0, 0.0, 0.0, 0.0, 1.6480855900080454E9, 0.0, 2022-03-23 20:33:10.008
71.0, 21.75499804224819, 25.034890303388238, 30.472704838961363, 30.315629040822387, -0.17600000835955143, 0.0, 1.008000047877431, 0.0, 0.0, 0.0, 0.0, 0.0, 1.6480855900215726E9, 0.0, 2022-03-23 20:33:10.021
71.0, 28.243724465370178, 19.604555567726493, 29.507810650393367, 21.025717550888658, -0.17600000835955143, 0.0, 1.008000047877431, 0.0, 0.0, 0.0, 0.0, 0.0, 1.6480855900215726E9, 0.0, 2022-03-23 20:33:10.021
72.0, 12.431427452713251, 13.508518639951944, 18.10111578553915, 9.63772218581289, -0.17600000835955143, 0.0, 1.008000047877431, 0.0, 0.0, 0.0, 0.0, 0.0, 1.648085590037296E9, 0.0, 2022-03-23 20:33:10.037
72.0, 5.946440929546952, 7.3451635129749775, 8.732666396535933, 10.04911118093878, -0.17600000835955143, 0.0, 1.008000047877431, 0.0, 0.0, 0.0, 0.0, 0.0, 1.648085590037296E9, 0.0, 2022-03-23 20:33:10.037
73.0, 21.68393994309008, 13.205586743541062, 14.86236242391169, 18.332989582791924, -0.17600000835955143, 0.0, 1.008000047877431, 0.0, 0.0, 0.0, 0.0, 0.0, 1.6480855900379927E9, 0.0, 2022-03-23 20:33:10.037
73.0, 22.207525936886668, 18.16095418483019, 20.793843753635883, 24.855375105515122, -0.17600000835955143, 0.0, 1.008000047877431, 0.0, 0.0, 0.0, 0.0, 0.0, 1.6480855900379927E9, 0.0, 2022-03-23 20:33:10.037
74.0, 12.607202750630677, 7.218006914481521, 14.88480182364583, 10.692373973317444, -0.17600000835955143, 0.0, 1.008000047877431, 0.0, 0.0, 0.0, 0.0, 0.0, 1.6480855900516028E9, 0.0, 2022-03-23 20:33:10.051
74.0, 9.173974591307342, 4.865609842352569, 15.060577121563256, 17.536390892229974, -0.17600000835955143, 0.0, 1.008000047877431, 0.0, 0.0, 0.0, 0.0, 0.0, 1.6480855900516028E9, 0.0, 2022-03-23 20:33:10.051
75.0, 22.09532893821597, 12.50622545182705, 17.899161187931895, 22.17760673724115, -0.17600000835955143, 0.0, 1.008000047877431, 0.0, 0.0, 0.0, 0.0, 0.0, 1.6480855900672133E9, 0.0, 2022-03-23 20:33:10.067
75.0, 18.288110783323646, 14.955859922803938, 20.92100035212934, 14.241539031267166, -0.17600000835955143, 0.0, 1.008000047877431, 0.0, 0.0, 0.0, 0.0, 0.0, 1.6480855900672133E9, 0.0, 2022-03-23 20:33:10.067
76.0, 9.215113490819931, 18.778037677519023, 23.879261217080057, 21.093035750091076, -0.17600000835955143, 0.0, 1.008000047877431, 0.0, 0.0, 0.0, 0.0, 0.0, 1.6480855900679743E9, 0.0, 2022-03-23 20:33:10.067
76.0, 31.108487831428647, 18.284370883367956, 13.362662541680038, 26.11946129053831, -0.17600000835955143, 0.0, 1.008000047877431, 0.0, 0.0, 0.0, 0.0, 0.0, 1.6480855900679743E9, 0.0, 2022-03-23 20:33:10.067
77.0, 11.803124260157347, 13.25420544296503, 6.492466323077679, 10.84944977145642, -0.17600000835955143, 0.0, 1.008000047877431, 0.0, 0.0, 0.0, 0.0, 0.0, 1.6480855900814896E9, 0.0, 2022-03-23 20:33:10.081
77.0, 12.644601750187576, 19.432520169764757, 16.691173502244055, 9.301131189800799, -0.17600000835955143, 0.0, 1.008000047877431, 0.0, 0.0, 0.0, 0.0, 0.0, 1.6480855900814896E9, 0.0, 2022-03-23 20:33:10.081
78.0, 21.051896850578487, 22.55533663276583, 21.538083844818175, 13.893728335388005, -0.17600000835955143, 0.0, 1.008000047877431, 0.0, 0.0, 0.0, 0.0, 0.0, 1.6480855900972798E9, 0.0, 2022-03-23 20:33:10.097
78.0, 29.982777944765985, 33.247710606083274, 40.50685642007738, 24.60854170843959, -0.17600000835955143, 0.0, 1.008000047877431, 0.0, 0.0, 0.0, 0.0, 0.0, 1.6480855900972798E9, 0.0, 2022-03-23 20:33:10.097
79.0, 24.672120007686317, 22.764771030284464, 30.63352053705603, 24.645940707996488, -0.17600000835955143, 0.0, 1.008000047877431, 0.0, 0.0, 0.0, 0.0, 0.0, 1.6480855900980165E9, 0.0, 2022-03-23 20:33:10.098
79.0, 25.064809503033757, 19.36520197056234, 27.585502073168755, 17.869241988286376, -0.17600000835955143, 0.0, 1.008000047877431, 0.0, 0.0, 0.0, 0.0, 0.0, 1.6480855900980165E9, 0.0, 2022-03-23 20:33:10.098
80.0, 34.99050398543477, 20.95091955177486, 26.478491686284542, 27.095575178973377, -0.17600000835955143, 0.0, 1.008000047877431, 0.0, 0.0, 0.0, 0.0, 0.0, 1.6480855901116436E9, 0.0, 2022-03-23 20:33:10.111
80.0, 20.606848755851388, 22.8994074286893, 27.37232777569443, 23.131281225942075, -0.17600000835955143, 0.0, 1.008000047877431, 0.0, 0.0, 0.0, 0.0, 0.0, 1.6480855901116436E9, 0.0, 2022-03-23 20:33:10.111
81.0, 9.087956892326474, 8.43347440008074, 15.928233911283314, 9.072997292503715, -0.17600000835955143, 0.0, 1.008000047877431, 0.0, 0.0, 0.0, 0.0, 0.0, 1.6480855901272361E9, 0.0, 2022-03-23 20:33:10.127
81.0, 27.563062673434615, 8.770065396092832, 13.044771045446396, 16.309703706763685, -0.17600000835955143, 0.0, 1.008000047877431, 0.0, 0.0, 0.0, 0.0, 0.0, 1.6480855901272361E9, 0.0, 2022-03-23 20:33:10.127
82.0, 22.16638703737408, 16.822070000693202, 17.33069639466703, 19.129588273353875, -0.17600000835955143, 0.0, 1.008000047877431, 0.0, 0.0, 0.0, 0.0, 0.0, 1.648085590127917E9, 0.0, 2022-03-23 20:33:10.127
82.0, 16.5640169037506, 25.446279298514128, 21.878414740785956, 16.257345107384026, -0.17600000835955143, 0.0, 1.008000047877431, 0.0, 0.0, 0.0, 0.0, 0.0, 1.648085590127917E9, 0.0, 2022-03-23 20:33:10.127
83.0, 17.465332793071866, 33.80121579952538, 15.819776812568307, 17.611188891343772, -0.17600000835955143, 0.0, 1.008000047877431, 0.0, 0.0, 0.0, 0.0, 0.0, 1.6480855901579816E9, 0.0, 2022-03-23 20:33:10.157
83.0, 25.80530969426036, 33.93585219793022, 20.797583653591573, 15.647741414606571, -0.17600000835955143, 0.0, 1.008000047877431, 0.0, 0.0, 0.0, 0.0, 0.0, 1.6480855901579816E9, 0.0, 2022-03-23 20:33:10.157
84.0, 18.56860328000039, 26.321415888145566, 11.758245460689068, 14.851142724044621, -0.17600000835955143, 0.0, 1.008000047877431, 0.0, 0.0, 0.0, 0.0, 0.0, 1.6480855901586652E9, 0.0, 2022-03-23 20:33:10.158
84.0, 24.470165410079062, 18.209572884254158, 19.567156568169594, 19.080969573929906, -0.17600000835955143, 0.0, 1.008000047877431, 0.0, 0.0, 0.0, 0.0, 0.0, 1.6480855901586652E9, 0.0, 2022-03-23 20:33:10.158
85.0, 34.33228159323335, 20.629288155585527, 23.669826819561422, 24.15227391384542, -0.17600000835955143, 0.0, 1.008000047877431, 0.0, 0.0, 0.0, 0.0, 0.0, 1.648085590159494E9, 0.0, 2022-03-23 20:33:10.159
85.0, 13.69551363773644, 26.852481681853533, 22.660053831525147, 24.346748711541295, -0.17600000835955143, 0.0, 1.008000047877431, 0.0, 0.0, 0.0, 0.0, 0.0, 1.648085590159494E9, 0.0, 2022-03-23 20:33:10.159
86.0, 28.812189258635044, 33.965771397575736, 31.05612923204899, 26.411173487082124, -0.17600000835955143, 0.0, 1.008000047877431, 0.0, 0.0, 0.0, 0.0, 0.0, 1.648085590171608E9, 0.0, 2022-03-23 20:33:10.171
86.0, 42.043955301865935, 30.62978063710034, 26.97215848043561, 27.619161172769964, -0.17600000835955143, 0.0, 1.008000047877431, 0.0, 0.0, 0.0, 0.0, 0.0, 1.648085590171608E9, 0.0, 2022-03-23 20:33:10.171
87.0, 26.388734087347984, 40.51059632003307, 27.944532468914986, 25.633274296298623, -0.17600000835955143, 0.0, 1.008000047877431, 0.0, 0.0, 0.0, 0.0, 0.0, 1.6480855901872008E9, 0.0, 2022-03-23 20:33:10.187
87.0, 12.715659849345684, 18.44892648141831, 15.516844916157424, 11.713366661220789, -0.17600000835955143, 0.0, 1.008000047877431, 0.0, 0.0, 0.0, 0.0, 0.0, 1.6480855901872008E9, 0.0, 2022-03-23 20:33:10.187
88.0, 27.72387837152928, 26.063362791202962, 19.152027673088014, 22.49923813343048, -0.17600000835955143, 0.0, 1.008000047877431, 0.0, 0.0, 0.0, 0.0, 0.0, 1.6480855901879241E9, 0.0, 2022-03-23 20:33:10.187
88.0, 17.861762188374996, 23.79698341805488, 16.8594690002501, 14.245278931222856, -0.17600000835955143, 0.0, 1.008000047877431, 0.0, 0.0, 0.0, 0.0, 0.0, 1.6480855901879241E9, 0.0, 2022-03-23 20:33:10.187
89.0, 16.403201205655932, 28.726171559654176, 24.335529011674225, 21.452066145837307, -0.17600000835955143, 0.0, 1.008000047877431, 0.0, 0.0, 0.0, 0.0, 0.0, 1.6480855902015932E9, 0.0, 2022-03-23 20:33:10.201
89.0, 26.456052286550403, 25.094728702679276, 21.33986914716661, 29.167479754425585, -0.17600000835955143, 0.0, 1.008000047877431, 0.0, 0.0, 0.0, 0.0, 0.0, 1.6480855902015932E9, 0.0, 2022-03-23 20:33:10.201
90.0, 25.083509002812207, 17.32695649471134, 16.90808769967407, 22.353382035158575, -0.17600000835955143, 0.0, 1.008000047877431, 0.0, 0.0, 0.0, 0.0, 0.0, 1.648085590217292E9, 0.0, 2022-03-23 20:33:10.217
90.0, 14.993258922360837, 17.570049991831183, 18.026317786425352, 18.303070383146405, -0.17600000835955143, 0.0, 1.008000047877431, 0.0, 0.0, 0.0, 0.0, 0.0, 1.648085590217292E9, 0.0, 2022-03-23 20:33:10.217
91.0, 22.312243135645986, 16.279784507118165, 13.2654251428321, 18.011358186602592, -0.17600000835955143, 0.0, 1.008000047877431, 0.0, 0.0, 0.0, 0.0, 0.0, 1.6480855902179952E9, 0.0, 2022-03-23 20:33:10.217
91.0, 31.976144621148705, 10.280984978191555, 14.585609827190638, 23.168680225498974, -0.17600000835955143, 0.0, 1.008000047877431, 0.0, 0.0, 0.0, 0.0, 0.0, 1.6480855902179952E9, 0.0, 2022-03-23 20:33:10.217
92.0, 16.238645607605577, 8.190380902960896, 5.404155435971916, 13.467379740439355, -0.17600000835955143, 0.0, 1.008000047877431, 0.0, 0.0, 0.0, 0.0, 0.0, 1.6480855902315867E9, 0.0, 2022-03-23 20:33:10.231
92.0, 2.3897960716858506, -5.665948432870209, 3.9680338529869914, 7.446140811778605, -0.17600000835955143, 0.0, 1.008000047877431, 0.0, 0.0, 0.0, 0.0, 0.0, 1.6480855902315867E9, 0.0, 2022-03-23 20:33:10.231
93.0, 14.551950727589428, 12.730619449168444, 4.495359746739268, 15.397168117575347, -0.17600000835955143, 0.0, 1.008000047877431, 0.0, 0.0, 0.0, 0.0, 0.0, 1.6480855902472725E9, 0.0, 2022-03-23 20:33:10.247
93.0, 25.82026929408312, 21.2688110480085, 6.529865322634578, 20.610588655807078, -0.17600000835955143, 0.0, 1.008000047877431, 0.0, 0.0, 0.0, 0.0, 0.0, 1.6480855902472725E9, 0.0, 2022-03-23 20:33:10.247
94.0, 17.390534793958068, 17.33817619457841, 14.645448226481676, 11.459053464233875, -0.17600000835955143, 0.0, 1.008000047877431, 0.0, 0.0, 0.0, 0.0, 0.0, 1.6480855902479815E9, 0.0, 2022-03-23 20:33:10.247
94.0, 14.637968426570296, 4.188687950372696, 17.31573679484427, 14.750165425240993, -0.17600000835955143, 0.0, 1.008000047877431, 0.0, 0.0, 0.0, 0.0, 0.0, 1.6480855902479815E9, 0.0, 2022-03-23 20:33:10.247
95.0, 12.420207752846181, -6.410188524052501, 3.2836321610957384, 12.760538648813963, -0.17600000835955143, 0.0, 1.008000047877431, 0.0, 0.0, 0.0, 0.0, 0.0, 1.648085590261496E9, 0.0, 2022-03-23 20:33:10.261
95.0, 1.533358981832862, 5.879122730344534, -7.311504413373768, -2.2663793731480837, -0.17600000835955143, 0.0, 1.008000047877431, 0.0, 0.0, 0.0, 0.0, 0.0, 1.648085590261496E9, 0.0, 2022-03-23 20:33:10.261
96.0, 5.680908032692969, 9.390888788737357, -5.456514035351574, -0.07479799911379814, -0.17600000835955143, 0.0, 1.008000047877431, 0.0, 0.0, 0.0, 0.0, 0.0, 1.6480855902773225E9, 0.0, 2022-03-23 20:33:10.277
96.0, 14.07698343321681, 11.571250462904572, -18.10859558545053, 6.713120420463383, -0.17600000835955143, 0.0, 1.008000047877431, 0.0, 0.0, 0.0, 0.0, 0.0, 1.6480855902773225E9, 0.0, 2022-03-23 20:33:10.277
97.0, 5.355536736547947, 7.65183530934155, -24.95635240431875, -3.010619464330375, -0.17600000835955143, 0.0, 1.008000047877431, 0.0, 0.0, 0.0, 0.0, 0.0, 1.6480855902779255E9, 0.0, 2022-03-23 20:33:10.277
97.0, -1.1331896865740418, 14.675367426127195, -27.32370907627046, -6.226933426223695, -0.17600000835955143, 0.0, 1.008000047877431, 0.0, 0.0, 0.0, 0.0, 0.0, 1.6480855902779255E9, 0.0, 2022-03-23 20:33:10.277
98.0, 18.15347438491881, 25.487418198026717, -21.485725245438516, 11.309457466006279, -0.17600000835955143, 0.0, 1.008000047877431, 0.0, 0.0, 0.0, 0.0, 0.0, 1.6480855902916176E9, 0.0, 2022-03-23 20:33:10.291
98.0, 26.19051938969642, 27.843555170111358, -5.65098883304745, 13.815190436318517, -0.17600000835955143, 0.0, 1.008000047877431, 0.0, 0.0, 0.0, 0.0, 0.0, 1.6480855902916176E9, 0.0, 2022-03-23 20:33:10.291
99.0, 22.046710238792002, 32.836321610957384, -11.092543268576264, 10.000492481514812, -0.17600000835955143, 0.0, 1.008000047877431, 0.0, 0.0, 0.0, 0.0, 0.0, 1.6480855903236115E9, 0.0, 2022-03-23 20:33:10.323
99.0, 8.250219302251935, 24.683339707553387, -25.139607502147555, 5.045125040225685, -0.17600000835955143, 0.0, 1.008000047877431, 0.0, 0.0, 0.0, 0.0, 0.0, 1.6480855903236115E9, 0.0, 2022-03-23 20:33:10.323
100.0, 16.231165807694197, 16.294744106940925, -28.266163865104318, 5.583670633845031, -0.17600000835955143, 0.0, 1.008000047877431, 0.0, 0.0, 0.0, 0.0, 0.0, 1.648085590324375E9, 0.0, 2022-03-23 20:33:10.324
100.0, 9.368449389003217, 11.339376665651798, -25.528557097539306, 3.373389760032296, -0.17600000835955143, 0.0, 1.008000047877431, 0.0, 0.0, 0.0, 0.0, 0.0, 1.648085590324375E9, 0.0, 2022-03-23 20:33:10.324
0.0, 800.074927570764, 509.1481100176461, 1602.5041221636347, 989.6654159245081, -0.17600000835955143, 0.0, 1.008000047877431, 0.0, 0.0, 0.0, 0.0, 0.0, 1.6480855903251405E9, 0.0, 2022-03-23 20:33:10.325
1.0, 807.6781441806816, 501.7767672049813, 1598.5360883106478, 987.7842462467961, -0.17600000835955143, 0.0, 1.008000047877431, 0.0, 0.0, 0.0, 0.0, 0.0, 1.648085590326012E9, 0.0, 2022-03-23 20:33:10.326
1.0, 800.4189983666874, 505.6662631588988, 1603.6298320502974, 982.7054621069692, -0.17600000835955143, 0.0, 1.008000047877431, 0.0, 0.0, 0.0, 0.0, 0.0, 1.648085590326012E9, 0.0, 2022-03-23 20:33:10.326
2.0, 799.7906951741315, 511.5940045886673, 1604.3927716412582, 983.9807679918595, -0.17600000835955143, 0.0, 1.008000047877431, 0.0, 0.0, 0.0, 0.0, 0.0, 1.6480855903366091E9, 0.0, 2022-03-23 20:33:10.336
2.0, 800.5012761657126, 505.3595913625322, 1594.6765115563758, 984.4258160865866, -0.17600000835955143, 0.0, 1.008000047877431, 0.0, 0.0, 0.0, 0.0, 0.0, 1.6480855903366091E9, 0.0, 2022-03-23 20:33:10.336
3.0, 802.9995293361135, 511.57156518893316, 1616.1023984025232, 986.3369049639441, -0.17600000835955143, 0.0, 1.008000047877431, 0.0, 0.0, 0.0, 0.0, 0.0, 1.64808559035227E9, 0.0, 2022-03-23 20:33:10.352
3.0, 804.8171207145788, 520.1022769878618, 1611.004914762918, 984.9419222804718, -0.17600000835955143, 0.0, 1.008000047877431, 0.0, 0.0, 0.0, 0.0, 0.0, 1.64808559035227E9, 0.0, 2022-03-23 20:33:10.352
4.0, 801.1707182577811, 507.8428849331103, 1598.7791818077676, 980.9252697280608, -0.17600000835955143, 0.0, 1.008000047877431, 0.0, 0.0, 0.0, 0.0, 0.0, 1.6480855903530445E9, 0.0, 2022-03-23 20:33:10.353
4.0, 798.2274169926532, 500.1723501239903, 1606.0981660210527, 989.9047695216723, -0.17600000835955143, 0.0, 1.008000047877431, 0.0, 0.0, 0.0, 0.0, 0.0, 1.6480855903530445E9, 0.0, 2022-03-23 20:33:10.353
5.0, 798.9417378841899, 494.45030319178477, 1611.666877055075, 983.2066087010317, -0.17600000835955143, 0.0, 1.008000047877431, 0.0, 0.0, 0.0, 0.0, 0.0, 1.6480855903666313E9, 0.0, 2022-03-23 20:33:10.366
5.0, 801.9673169483431, 509.90356980869547, 1618.529593473766, 991.8420376987197, -0.17600000835955143, 0.0, 1.008000047877431, 0.0, 0.0, 0.0, 0.0, 0.0, 1.6480855903666313E9, 0.0, 2022-03-23 20:33:10.366
6.0, 819.3503719423898, 517.338490920607, 1617.7068154835142, 998.7234536171891, -0.17600000835955143, 0.0, 1.008000047877431, 0.0, 0.0, 0.0, 0.0, 0.0, 1.6480855903823044E9, 0.0, 2022-03-23 20:33:10.382
6.0, 805.0265551120974, 509.72405461082235, 1610.316773171071, 985.9180361689068, -0.17600000835955143, 0.0, 1.008000047877431, 0.0, 0.0, 0.0, 0.0, 0.0, 1.6480855903823044E9, 0.0, 2022-03-23 20:33:10.382
7.0, 794.3603604384698, 506.4179830499925, 1606.8648455119692, 978.4307564576156, -0.17600000835955143, 0.0, 1.008000047877431, 0.0, 0.0, 0.0, 0.0, 0.0, 1.648085590382978E9, 0.0, 2022-03-23 20:33:10.382
7.0, 804.6787444162183, 503.87485108012334, 1608.3196665947326, 983.371164299082, -0.17600000835955143, 0.0, 1.008000047877431, 0.0, 0.0, 0.0, 0.0, 0.0, 1.648085590382978E9, 0.0, 2022-03-23 20:33:10.382
8.0, 807.2368359859101, 512.839391273912, 1618.3164191762917, 989.3662239280529, -0.17600000835955143, 0.0, 1.008000047877431, 0.0, 0.0, 0.0, 0.0, 0.0, 1.6480855903965693E9, 0.0, 2022-03-23 20:33:10.396
8.0, 805.9951892006211, 508.72924122260883, 1611.4798820572905, 986.1723493658938, -0.17600000835955143, 0.0, 1.008000047877431, 0.0, 0.0, 0.0, 0.0, 0.0, 1.6480855903965693E9, 0.0, 2022-03-23 20:33:10.396
9.0, 810.5803065462969, 513.6659091641195, 1613.716342230793, 993.2557198819704, -0.17600000835955143, 0.0, 1.008000047877431, 0.0, 0.0, 0.0, 0.0, 0.0, 1.6480855904119613E9, 0.0, 2022-03-23 20:33:10.411
9.0, 811.0440541408025, 514.5223462539725, 1621.3980967397802, 997.4518876322545, -0.17600000835955143, 0.0, 1.008000047877431, 0.0, 0.0, 0.0, 0.0, 0.0, 1.6480855904119613E9, 0.0, 2022-03-23 20:33:10.411
10.0, 810.7710414440371, 521.7253935686313, 1623.0922714197077, 998.0914105246775, -0.17600000835955143, 0.0, 1.008000047877431, 0.0, 0.0, 0.0, 0.0, 0.0, 1.6480855904272316E9, 0.0, 2022-03-23 20:33:10.427
10.0, 814.2603681026958, 517.0766979237087, 1622.0937181315385, 994.5646848664619, -0.17600000835955143, 0.0, 1.008000047877431, 0.0, 0.0, 0.0, 0.0, 0.0, 1.6480855904272316E9, 0.0, 2022-03-23 20:33:10.427
11.0, 820.3264858308248, 513.2694797688164, 1626.5180197791196, 995.7203139527701, -0.17600000835955143, 0.0, 1.008000047877431, 0.0, 0.0, 0.0, 0.0, 0.0, 1.648085590427987E9, 0.0, 2022-03-23 20:33:10.427
11.0, 814.8288328959607, 519.5188525947742, 1625.6129639898427, 995.4061623564921, -0.17600000835955143, 0.0, 1.008000047877431, 0.0, 0.0, 0.0, 0.0, 0.0, 1.648085590427987E9, 0.0, 2022-03-23 20:33:10.427
12.0, 806.4402372953482, 516.8597837262787, 1622.94267542148, 990.4059161157347, -0.17600000835955143, 0.0, 1.008000047877431, 0.0, 0.0, 0.0, 0.0, 0.0, 1.6480855904429343E9, 0.0, 2022-03-23 20:33:10.442
12.0, 813.7293023089878, 513.3068787683733, 1615.646130607929, 991.9766740971245, -0.17600000835955143, 0.0, 1.008000047877431, 0.0, 0.0, 0.0, 0.0, 0.0, 1.6480855904429343E9, 0.0, 2022-03-23 20:33:10.442
13.0, 814.6455777981319, 517.7760592154227, 1623.7729332116432, 996.3673166451044, -0.17600000835955143, 0.0, 1.008000047877431, 0.0, 0.0, 0.0, 0.0, 0.0, 1.6480855904436061E9, 0.0, 2022-03-23 20:33:10.443
13.0, 810.1352584515698, 520.1658552871086, 1625.6054841899313, 992.9640076854266, -0.17600000835955143, 0.0, 1.008000047877431, 0.0, 0.0, 0.0, 0.0, 0.0, 1.6480855904436061E9, 0.0, 2022-03-23 20:33:10.443
14.0, 817.0091945701279, 525.1997606274672, 1633.399435697589, 1001.7527725812979, -0.17600000835955143, 0.0, 1.008000047877431, 0.0, 0.0, 0.0, 0.0, 0.0, 1.6480855904566016E9, 0.0, 2022-03-23 20:33:10.456
14.0, 828.9806143282913, 523.5242854473181, 1640.8156573097222, 1004.0827302536927, -0.17600000835955143, 0.0, 1.008000047877431, 0.0, 0.0, 0.0, 0.0, 0.0, 1.6480855904566016E9, 0.0, 2022-03-23 20:33:10.456
15.0, 820.6817763266154, 529.2799914791249, 1638.7138335346244, 996.879682939034, -0.17600000835955143, 0.0, 1.008000047877431, 0.0, 0.0, 0.0, 0.0, 0.0, 1.6480855904722443E9, 0.0, 2022-03-23 20:33:10.472
15.0, 813.6732038096525, 527.2492258031853, 1632.0530717135407, 996.2588595463894, -0.17600000835955143, 0.0, 1.008000047877431, 0.0, 0.0, 0.0, 0.0, 0.0, 1.6480855904722443E9, 0.0, 2022-03-23 20:33:10.472
16.0, 821.3773977183737, 522.5818306584843, 1629.723114041146, 1000.6756813940592, -0.17600000835955143, 0.0, 1.008000047877431, 0.0, 0.0, 0.0, 0.0, 0.0, 1.6480855904729471E9, 0.0, 2022-03-23 20:33:10.472
16.0, 813.920037206728, 524.7734120325185, 1618.9783814684488, 983.0308334031142, -0.17600000835955143, 0.0, 1.008000047877431, 0.0, 0.0, 0.0, 0.0, 0.0, 1.6480855904729471E9, 0.0, 2022-03-23 20:33:10.472
17.0, 809.4321572599001, 527.7241930975579, 1623.4101629159413, 985.2859930763952, -0.17600000835955143, 0.0, 1.008000047877431, 0.0, 0.0, 0.0, 0.0, 0.0, 1.6480855904865627E9, 0.0, 2022-03-23 20:33:10.486
17.0, 823.6475169914775, 530.9255474596284, 1618.6343106725253, 999.6434690062888, -0.17600000835955143, 0.0, 1.008000047877431, 0.0, 0.0, 0.0, 0.0, 0.0, 1.6480855904865627E9, 0.0, 2022-03-23 20:33:10.486
18.0, 824.2907797838561, 531.7371057500131, 1624.2666000057943, 1003.5516644599847, -0.17600000835955143, 0.0, 1.008000047877431, 0.0, 0.0, 0.0, 0.0, 0.0, 1.6480855905022776E9, 0.0, 2022-03-23 20:33:10.502
18.0, 814.1556509039365, 519.8143046912737, 1607.010701610241, 997.8333574277349, -0.17600000835955143, 0.0, 1.008000047877431, 0.0, 0.0, 0.0, 0.0, 0.0, 1.6480855905022776E9, 0.0, 2022-03-23 20:33:10.502
19.0, 829.0105335279368, 514.8065786506049, 1614.2511479244567, 1006.2331727282144, -0.17600000835955143, 0.0, 1.008000047877431, 0.0, 0.0, 0.0, 0.0, 0.0, 1.6480855905029745E9, 0.0, 2022-03-23 20:33:10.502
19.0, 829.8632307178341, 517.8396375146694, 1614.7373349186964, 1013.3427225439809, -0.17600000835955143, 0.0, 1.008000047877431, 0.0, 0.0, 0.0, 0.0, 0.0, 1.6480855905029745E9, 0.0, 2022-03-23 20:33:10.502
20.0, 816.5641464754008, 514.4026694553904, 1613.8285392294638, 1002.9906794666313, -0.17600000835955143, 0.0, 0.9920000471174717, 0.0, 0.0, 0.0, 0.0, 0.0, 1.6480855905329597E9, 0.0, 2022-03-23 20:33:10.532
20.0, 804.6600449164398, 511.31725199194625, 1610.4888085690327, 988.7753197350539, -0.17600000835955143, 0.0, 0.9920000471174717, 0.0, 0.0, 0.0, 0.0, 0.0, 1.6480855905329597E9, 0.0, 2022-03-23 20:33:10.532
21.0, 794.0761280418374, 500.1499107242562, 1603.7869078484364, 967.7757814838551, -0.17600000835955143, 0.0, 0.9920000471174717, 0.0, 0.0, 0.0, 0.0, 0.0, 1.6480855905336545E9, 0.0, 2022-03-23 20:33:10.533
21.0, 785.0816686484031, 503.5270403842442, 1615.5825523086824, 965.8684325064532, -0.17600000835955143, 0.0, 0.9920000471174717, 0.0, 0.0, 0.0, 0.0, 0.0, 1.6480855905336545E9, 0.0, 2022-03-23 20:33:10.533
22.0, 799.9851699718274, 517.1926348223351, 1625.489547291305, 977.5930188675411, -0.17600000835955143, 0.0, 0.9920000471174717, 0.0, 0.0, 0.0, 0.0, 0.0, 1.6480855905345004E9, 0.0, 2022-03-23 20:33:10.534
22.0, 814.93355009472, 528.072003793437, 1625.1940951948054, 989.7738730232231, -0.17600000835955143, 0.0, 0.9920000471174717, 0.0, 0.0, 0.0, 0.0, 0.0, 1.6480855905345004E9, 0.0, 2022-03-23 20:33:10.534
23.0, 819.817859436851, 531.0115651586093, 1626.8134718756191, 992.2384670940228, -0.17600000835955143, 0.0, 0.9920000471174717, 0.0, 0.0, 0.0, 0.0, 0.0, 1.64808559054656E9, 0.0, 2022-03-23 20:33:10.546
23.0, 813.3852315130644, 515.4199222433381, 1621.8169655348174, 994.3515105689876, -0.17600000835955143, 0.0, 0.9920000471174717, 0.0, 0.0, 0.0, 0.0, 0.0, 1.64808559054656E9, 0.0, 2022-03-23 20:33:10.546
24.0, 834.9607143574394, 521.4972596713342, 1623.3727639163844, 1006.816597121302, -0.17600000835955143, 0.0, 0.9920000471174717, 0.0, 0.0, 0.0, 0.0, 0.0, 1.6480855905622227E9, 0.0, 2022-03-23 20:33:10.562
24.0, 832.421322287526, 515.7939122389071, 1614.2586277243681, 1008.9408602961339, -0.17600000835955143, 0.0, 0.9920000471174717, 0.0, 0.0, 0.0, 0.0, 0.0, 1.6480855905622227E9, 0.0, 2022-03-23 20:33:10.562
25.0, 818.5724727516063, 520.9474943778478, 1618.0920251789503, 997.9829534259625, -0.17600000835955143, 0.0, 0.9920000471174717, 0.0, 0.0, 0.0, 0.0, 0.0, 1.6480855905629315E9, 0.0, 2022-03-23 20:33:10.562
25.0, 819.2194754439406, 540.2191988495179, 1634.8991355798207, 997.3434305335395, -0.17600000835955143, 0.0, 0.9920000471174717, 0.0, 0.0, 0.0, 0.0, 0.0, 1.6480855905629315E9, 0.0, 2022-03-23 20:33:10.562
26.0, 813.3927113129757, 536.2661245963536, 1629.457581144292, 986.7595136589371, -0.17600000835955143, 0.0, 0.9920000471174717, 0.0, 0.0, 0.0, 0.0, 0.0, 1.6480855905765705E9, 0.0, 2022-03-23 20:33:10.576
26.0, 791.7499102693982, 529.5006455765106, 1626.8134718756191, 960.8008680664934, -0.17600000835955143, 0.0, 0.9920000471174717, 0.0, 0.0, 0.0, 0.0, 0.0, 1.6480855905765705E9, 0.0, 2022-03-23 20:33:10.576
27.0, 804.1065397229977, 535.1104955100454, 1638.6726946351118, 966.571533698123, -0.17600000835955143, 0.0, 0.9920000471174717, 0.0, 0.0, 0.0, 0.0, 0.0, 1.6480855905923097E9, 0.0, 2022-03-23 20:33:10.592
27.0, 825.0649390746839, 542.605255021248, 1645.3110170564614, 991.4119492038153, -0.17600000835955143, 0.0, 0.9920000471174717, 0.0, 0.0, 0.0, 0.0, 0.0, 1.6480855905923097E9, 0.0, 2022-03-23 20:33:10.592
28.0, 841.4943195800297, 550.3618075293489, 1648.0635834238492, 1016.2710642092861, -0.17600000835955143, 0.0, 0.9920000471174717, 0.0, 0.0, 0.0, 0.0, 0.0, 1.648085590593072E9, 0.0, 2022-03-23 20:33:10.593
28.0, 843.4465473568998, 547.8822538587265, 1639.5066923252307, 1026.5931880869903, -0.17600000835955143, 0.0, 0.9920000471174717, 0.0, 0.0, 0.0, 0.0, 0.0, 1.648085590593072E9, 0.0, 2022-03-23 20:33:10.593
29.0, 858.073296083603, 549.2660168423317, 1648.0673233238049, 1052.7500483770855, -0.17600000835955143, 0.0, 0.9920000471174717, 0.0, 0.0, 0.0, 0.0, 0.0, 1.6480855906066034E9, 0.0, 2022-03-23 20:33:10.606
29.0, 862.8229690273292, 557.7929887413047, 1653.011471065227, 1067.3506178040989, -0.17600000835955143, 0.0, 0.9920000471174717, 0.0, 0.0, 0.0, 0.0, 0.0, 1.6480855906066034E9, 0.0, 2022-03-23 20:33:10.606
30.0, 848.5889097959734, 550.6572596258484, 1649.4024676079862, 1046.6016528499313, -0.17600000835955143, 0.0, 1.008000047877431, 0.0, 0.0, 0.0, 0.0, 0.0, 1.6480855906222856E9, 0.0, 2022-03-23 20:33:10.622
30.0, 862.621014429722, 565.822553946171, 1668.2814825843088, 1048.4529033279978, -0.17600000835955143, 0.0, 1.008000047877431, 0.0, 0.0, 0.0, 0.0, 0.0, 1.6480855906222856E9, 0.0, 2022-03-23 20:33:10.622
31.0, 870.1606527403928, 588.0824384824373, 1683.9441835987382, 1051.321406594012, -0.17600000835955143, 0.0, 1.008000047877431, 0.0, 0.0, 0.0, 0.0, 0.0, 1.6480855906230228E9, 0.0, 2022-03-23 20:33:10.623
31.0, 853.8846081332304, 616.199006349314, 1707.849624115508, 1046.339859853033, -0.17600000835955143, 0.0, 1.008000047877431, 0.0, 0.0, 0.0, 0.0, 0.0, 1.6480855906230228E9, 0.0, 2022-03-23 20:33:10.623
32.0, 869.3640540498309, 635.9344584154896, 1731.777504032012, 1051.0446539972909, -0.144000006839633, 0.0, 1.008000047877431, 0.0, 0.0, 0.0, 0.0, 0.0, 1.6480855906366177E9, 0.0, 2022-03-23 20:33:10.636
32.0, 877.7152506508864, 647.6029462772422, 1753.8391738706268, 1061.3480783752166, -0.144000006839633, 0.0, 1.008000047877431, 0.0, 0.0, 0.0, 0.0, 0.0, 1.6480855906366177E9, 0.0, 2022-03-23 20:33:10.636
33.0, 888.2168897264637, 675.0051932525821, 1779.00870057242, 1068.9363353853114, -0.144000006839633, 0.0, 1.008000047877431, 0.0, 0.0, 0.0, 0.0, 0.0, 1.648085590652282E9, 0.0, 2022-03-23 20:33:10.652
33.0, 903.4195830463432, 695.5035849097185, 1799.14806183381, 1082.0446847300045, -0.144000006839633, 0.0, 1.008000047877431, 0.0, 0.0, 0.0, 0.0, 0.0, 1.648085590652282E9, 0.0, 2022-03-23 20:33:10.652
34.0, 911.538905850146, 704.1464937073179, 1809.6197817097418, 1090.0555504350923, -0.144000006839633, 0.0, 1.008000047877431, 0.0, 0.0, 0.0, 0.0, 0.0, 1.648085590652966E9, 0.0, 2022-03-23 20:33:10.652
34.0, 924.8753890921362, 715.3474940746091, 1827.2047913013957, 1100.9573588059284, -0.144000006839633, 0.0, 1.008000047877431, 0.0, 0.0, 0.0, 0.0, 0.0, 1.648085590652966E9, 0.0, 2022-03-23 20:33:10.652
35.0, 913.1620224309154, 718.3169746394269, 1822.9113861522637, 1098.6386208334006, -0.144000006839633, 0.0, 1.008000047877431, 0.0, 0.0, 0.0, 0.0, 0.0, 1.6480855906665847E9, 0.0, 2022-03-23 20:33:10.666
35.0, 912.3729035402648, 706.9738580738194, 1826.370793611277, 1105.4676781524904, -0.144000006839633, 0.0, 1.008000047877431, 0.0, 0.0, 0.0, 0.0, 0.0, 1.6480855906665847E9, 0.0, 2022-03-23 20:33:10.666
36.0, 914.7290405123495, 682.4924729638733, 1801.429400806781, 1099.7007524208166, -0.144000006839633, 0.0, 1.008000047877431, 0.0, 0.0, 0.0, 0.0, 0.0, 1.6480855906822228E9, 0.0, 2022-03-23 20:33:10.682
36.0, 902.4060701583512, 687.7021536021493, 1797.7343796505593, 1093.8627685899846, -0.144000006839633, 0.0, 1.008000047877431, 0.0, 0.0, 0.0, 0.0, 0.0, 1.6480855906822228E9, 0.0, 2022-03-23 20:33:10.682
37.0, 893.3480324656703, 686.8344968124293, 1789.7160341455601, 1089.5431841411628, -0.144000006839633, 0.0, 1.008000047877431, 0.0, 0.0, 0.0, 0.0, 0.0, 1.6480855906829956E9, 0.0, 2022-03-23 20:33:10.682
37.0, 892.1662240796722, 669.6234772163443, 1778.1485235826112, 1082.9833996188827, -0.144000006839633, 0.0, 1.008000047877431, 0.0, 0.0, 0.0, 0.0, 0.0, 1.6480855906829956E9, 0.0, 2022-03-23 20:33:10.682
38.0, 888.5422610226087, 658.9797219424509, 1759.8342334995978, 1070.4996135667898, -0.144000006839633, 0.0, 1.008000047877431, 0.0, 0.0, 0.0, 0.0, 0.0, 1.6480855907129376E9, 0.0, 2022-03-23 20:33:10.712
38.0, 868.1411067643203, 643.3843391272239, 1746.7969422540627, 1057.4024839219637, -0.144000006839633, 0.0, 1.008000047877431, 0.0, 0.0, 0.0, 0.0, 0.0, 1.6480855907129376E9, 0.0, 2022-03-23 20:33:10.712
39.0, 876.3015684676357, 645.867632697802, 1746.1761188614182, 1064.1455235420726, -0.144000006839633, 0.0, 1.008000047877431, 0.0, 0.0, 0.0, 0.0, 0.0, 1.6480855907136693E9, 0.0, 2022-03-23 20:33:10.713
39.0, 869.4538116487674, 622.5119574745186, 1731.586769134272, 1050.1433381079696, -0.144000006839633, 0.0, 1.008000047877431, 0.0, 0.0, 0.0, 0.0, 0.0, 1.6480855907136693E9, 0.0, 2022-03-23 20:33:10.713
40.0, 852.7962972461246, 608.143261844758, 1725.2588584092446, 1040.2812219248153, -0.144000006839633, 0.0, 0.9760000463575125, 0.0, 0.0, 0.0, 0.0, 0.0, 1.6480855907144532E9, 0.0, 2022-03-23 20:33:10.714
40.0, 848.0615839022212, 599.8406839431264, 1712.868569856044, 1032.1394597212784, -0.144000006839633, 0.0, 0.9760000463575125, 0.0, 0.0, 0.0, 0.0, 0.0, 1.6480855907144532E9, 0.0, 2022-03-23 20:33:10.714
41.0, 843.0800371612422, 573.2163361585699, 1684.9502166868187, 1019.4985978710465, -0.144000006839633, -0.01600000075995922, 0.9760000463575125, 0.0, 0.0, 0.0, 0.0, 0.0, 1.6480855907265513E9, 0.0, 2022-03-23 20:33:10.726
41.0, 837.7506797243841, 566.7126501356252, 1682.9755495102145, 1018.3990672840737, -0.144000006839633, -0.01600000075995922, 0.9760000463575125, 0.0, 0.0, 0.0, 0.0, 0.0, 1.6480855907265513E9, 0.0, 2022-03-23 20:33:10.726
42.0, 825.7493407665752, 553.7351972893812, 1676.045514892321, 1010.5490172770806, -0.19200000911951065, -0.01600000075995922, 0.9760000463575125, 0.0, 0.0, 0.0, 0.0, 0.0, 1.64808559074221E9, 0.0, 2022-03-23 20:33:10.742
42.0, 835.7760125477798, 552.9722576984204, 1675.0955803035758, 1024.2894097142853, -0.19200000911951065, -0.01600000075995922, 0.9760000463575125, 0.0, 0.0, 0.0, 0.0, 0.0, 1.64808559074221E9, 0.0, 2022-03-23 20:33:10.742
43.0, 838.2892253180034, 543.9030003058724, 1665.8168885135092, 1022.0417298409157, -0.19200000911951065, -0.01600000075995922, 0.9760000463575125, 0.0, 0.0, 0.0, 0.0, 0.0, 1.648085590742931E9, 0.0, 2022-03-23 20:33:10.742
43.0, 822.9593753996305, 539.9611457525752, 1661.1906322683208, 1015.549263517838, -0.19200000911951065, -0.01600000075995922, 0.9760000463575125, 0.0, 0.0, 0.0, 0.0, 0.0, 1.648085590742931E9, 0.0, 2022-03-23 20:33:10.742
44.0, 830.3531576120295, 539.6395143563859, 1652.2223521745764, 1011.5625301650725, -0.19200000911951065, -0.01600000075995922, 0.9760000463575125, 0.0, 0.0, 0.0, 0.0, 0.0, 1.6480855907565837E9, 0.0, 2022-03-23 20:33:10.756
44.0, 837.7095408248715, 538.2669710726477, 1657.9294395069592, 1012.8602754496969, -0.19200000911951065, -0.01600000075995922, 0.9760000463575125, 0.0, 0.0, 0.0, 0.0, 0.0, 1.6480855907565837E9, 0.0, 2022-03-23 20:33:10.756
45.0, 825.8615377652459, 529.7549587734975, 1645.8570424499922, 1006.8352966210805, -0.19200000911951065, -0.01600000075995922, 0.9760000463575125, 0.0, 0.0, 0.0, 0.0, 0.0, 1.6480855907722535E9, 0.0, 2022-03-23 20:33:10.772
45.0, 819.6458240388893, 520.8988756784238, 1649.200513010379, 1003.2749118632637, -0.19200000911951065, -0.01600000075995922, 0.9760000463575125, 0.0, 0.0, 0.0, 0.0, 0.0, 1.6480855907722535E9, 0.0, 2022-03-23 20:33:10.772
46.0, 825.8652776652016, 523.9693335420452, 1636.4661536612548, 1004.2211065520532, -0.19200000911951065, -0.01600000075995922, 0.9760000463575125, 0.0, 0.0, 0.0, 0.0, 0.0, 1.648085590772972E9, 0.0, 2022-03-23 20:33:10.772
46.0, 821.325039118994, 520.8689564787783, 1628.5413056551479, 1001.1992673878558, -0.19200000911951065, -0.01600000075995922, 0.9760000463575125, 0.0, 0.0, 0.0, 0.0, 0.0, 1.648085590772972E9, 0.0, 2022-03-23 20:33:10.772
47.0, 815.8872245834209, 526.6919807097875, 1641.443960502278, 1001.5096790841781, -0.19200000911951065, -0.01600000075995922, 0.9760000463575125, 0.0, 0.0, 0.0, 0.0, 0.0, 1.6480855907868145E9, 0.0, 2022-03-23 20:33:10.786
47.0, 812.4652161239646, 517.8508572145365, 1642.0685237948783, 995.8848695508204, -0.19200000911951065, -0.01600000075995922, 0.9760000463575125, 0.0, 0.0, 0.0, 0.0, 0.0, 1.6480855907868145E9, 0.0, 2022-03-23 20:33:10.786
48.0, 801.1744581577368, 514.2156744576059, 1625.8710170867853, 983.8124724938534, -0.19200000911951065, -0.01600000075995922, 0.9760000463575125, 0.0, 0.0, 0.0, 0.0, 0.0, 1.6480855908022392E9, 0.0, 2022-03-23 20:33:10.802
48.0, 799.4615839780308, 513.5200530658476, 1627.0603052726947, 984.4893943858333, -0.19200000911951065, -0.01600000075995922, 0.9760000463575125, 0.0, 0.0, 0.0, 0.0, 0.0, 1.6480855908022392E9, 0.0, 2022-03-23 20:33:10.802
49.0, 819.2980133430101, 517.7012612163089, 1631.5220059198327, 993.5773512781598, -0.19200000911951065, -0.01600000075995922, 0.9760000463575125, 0.0, 0.0, 0.0, 0.0, 0.0, 1.6480855908029354E9, 0.0, 2022-03-23 20:33:10.802
49.0, 815.4421764886938, 503.8598914803006, 1623.3914634161629, 986.9203293570317, -0.19200000911951065, -0.01600000075995922, 0.9760000463575125, 0.0, 0.0, 0.0, 0.0, 0.0, 1.6480855908029354E9, 0.0, 2022-03-23 20:33:10.802
50.0, 801.5559279532172, 502.38637089775875, 1615.9154034047388, 980.2371281362139, -0.19200000911951065, -0.01600000075995922, 1.008000047877431, 0.0, 0.0, 0.0, 0.0, 0.0, 1.6480855908329685E9, 0.0, 2022-03-23 20:33:10.832
50.0, 807.0012222887017, 505.16885646479204, 1615.6049917084165, 988.7080015358515, -0.19200000911951065, -0.01600000075995922, 1.008000047877431, 0.0, 0.0, 0.0, 0.0, 0.0, 1.6480855908329685E9, 0.0, 2022-03-23 20:33:10.832
51.0, 821.2203219202347, 509.49966061348096, 1627.5427523669787, 994.9648541617207, -0.19200000911951065, -0.01600000075995922, 1.008000047877431, 0.0, 0.0, 0.0, 0.0, 0.0, 1.6480855908339045E9, 0.0, 2022-03-23 20:33:10.833
51.0, 807.69684368046, 510.0718653067015, 1622.3704707282595, 992.922868785914, -0.19200000911951065, -0.01600000075995922, 1.008000047877431, 0.0, 0.0, 0.0, 0.0, 0.0, 1.6480855908339045E9, 0.0, 2022-03-23 20:33:10.833
52.0, 805.8343735025264, 498.16402384778485, 1608.5777196916752, 986.3630842636339, -0.17600000835955143, -0.01600000075995922, 1.008000047877431, 0.0, 0.0, 0.0, 0.0, 0.0, 1.6480855908344648E9, 0.0, 2022-03-23 20:33:10.834
52.0, 819.8440387365408, 498.3024001461454, 1610.653364167083, 978.9917414509691, -0.17600000835955143, -0.01600000075995922, 1.008000047877431, 0.0, 0.0, 0.0, 0.0, 0.0, 1.6480855908344648E9, 0.0, 2022-03-23 20:33:10.834
53.0, 803.8073477265425, 503.2652473873459, 1613.6153649319895, 974.7806141008623, -0.17600000835955143, -0.01600000075995922, 1.008000047877431, 0.0, 0.0, 0.0, 0.0, 0.0, 1.6480855908465145E9, 0.0, 2022-03-23 20:33:10.846
53.0, 798.7697024862282, 498.1789834476076, 1601.513048675377, 967.8804986826144, -0.17600000835955143, -0.01600000075995922, 1.008000047877431, 0.0, 0.0, 0.0, 0.0, 0.0, 1.6480855908465145E9, 0.0, 2022-03-23 20:33:10.846
54.0, 801.4100718549453, 491.9595298212953, 1598.5360883106478, 970.3750119530596, -0.17600000835955143, -0.01600000075995922, 1.008000047877431, 0.0, 0.0, 0.0, 0.0, 0.0, 1.6480855908622422E9, 0.0, 2022-03-23 20:33:10.862
54.0, 799.8243542737328, 486.74984918301925, 1598.7417828082107, 969.8476860593073, -0.17600000835955143, -0.01600000075995922, 1.008000047877431, 0.0, 0.0, 0.0, 0.0, 0.0, 1.6480855908622422E9, 0.0, 2022-03-23 20:33:10.862
55.0, 800.351680167485, 493.45174990361556, 1609.5126946805976, 977.2489480716176, -0.17600000835955143, -0.01600000075995922, 1.008000047877431, 0.0, 0.0, 0.0, 0.0, 0.0, 1.648085590862955E9, 0.0, 2022-03-23 20:33:10.862
55.0, 807.3752122842707, 493.90053789829835, 1606.0906862211414, 978.2662008595653, -0.17600000835955143, -0.01600000075995922, 1.008000047877431, 0.0, 0.0, 0.0, 0.0, 0.0, 1.648085590862955E9, 0.0, 2022-03-23 20:33:10.862
56.0, 815.1542041921057, 495.2132427827455, 1607.4744492047466, 978.7262085541151, -0.17600000835955143, -0.01600000075995922, 1.008000047877431, 0.0, 0.0, 0.0, 0.0, 0.0, 1.6480855908765986E9, 0.0, 2022-03-23 20:33:10.876
56.0, 813.643284610007, 501.1372443125583, 1614.6737566194497, 976.1793366842903, -0.17600000835955143, -0.01600000075995922, 1.008000047877431, 0.0, 0.0, 0.0, 0.0, 0.0, 1.6480855908765986E9, 0.0, 2022-03-23 20:33:10.876
57.0, 811.025354641024, 501.081145813223, 1612.5046146451496, 978.9169434518553, -0.17600000835955143, -0.01600000075995922, 1.008000047877431, 0.0, 0.0, 0.0, 0.0, 0.0, 1.6480855908923025E9, 0.0, 2022-03-23 20:33:10.892
57.0, 824.9527420760132, 505.2212150641717, 1613.2862537358887, 984.1341038900428, -0.17600000835955143, -0.01600000075995922, 1.008000047877431, 0.0, 0.0, 0.0, 0.0, 0.0, 1.6480855908923025E9, 0.0, 2022-03-23 20:33:10.892
58.0, 816.6800833740272, 514.6981215518899, 1627.5838912664913, 981.3029996235855, -0.17600000835955143, -0.01600000075995922, 1.008000047877431, 0.0, 0.0, 0.0, 0.0, 0.0, 1.6480855908931012E9, 0.0, 2022-03-23 20:33:10.893
58.0, 800.5947736646049, 505.7335813581012, 1620.4145030514337, 972.3347195298411, -0.17600000835955143, -0.01600000075995922, 1.008000047877431, 0.0, 0.0, 0.0, 0.0, 0.0, 1.6480855908931012E9, 0.0, 2022-03-23 20:33:10.893
59.0, 801.9336578487419, 495.7667479761876, 1614.382044422906, 969.2792212660424, -0.17600000835955143, -0.01600000075995922, 1.008000047877431, 0.0, 0.0, 0.0, 0.0, 0.0, 1.6480855909067245E9, 0.0, 2022-03-23 20:33:10.906
59.0, 808.4485635715537, 503.08573218947276, 1613.1179582378827, 972.7722878246568, -0.17600000835955143, -0.01600000075995922, 1.008000047877431, 0.0, 0.0, 0.0, 0.0, 0.0, 1.6480855909067245E9, 0.0, 2022-03-23 20:33:10.906
60.0, 797.9431845960207, 516.5867710295133, 1614.6849763193168, 977.3873243699782, -0.17600000835955143, -0.01600000075995922, 1.008000047877431, 0.0, 0.0, 0.0, 0.0, 0.0, 1.6480855909222913E9, 0.0, 2022-03-23 20:33:10.922
60.0, 798.4667705898173, 509.4473020141013, 1608.0803129975684, 966.9417837937362, -0.17600000835955143, -0.01600000075995922, 1.008000047877431, 0.0, 0.0, 0.0, 0.0, 0.0, 1.6480855909222913E9, 0.0, 2022-03-23 20:33:10.922
61.0, 811.4891022355296, 516.4970134305768, 1618.529593473766, 975.7193289897405, -0.17600000835955143, -0.04800000227987766, 1.008000047877431, 0.0, 0.0, 0.0, 0.0, 0.0, 1.6480855909230044E9, 0.0, 2022-03-23 20:33:10.923
61.0, 803.4296178310178, 514.0623385594226, 1619.965715056751, 963.1270858389325, -0.17600000835955143, -0.04800000227987766, 1.008000047877431, 0.0, 0.0, 0.0, 0.0, 0.0, 1.6480855909230044E9, 0.0, 2022-03-23 20:33:10.923
62.0, 797.9170052963309, 519.1673019989394, 1625.8410978871398, 961.1262393626384, -0.19200000911951065, -0.04800000227987766, 1.008000047877431, 0.0, 0.0, 0.0, 0.0, 0.0, 1.6480855909365814E9, 0.0, 2022-03-23 20:33:10.936
62.0, 811.388124936726, 521.0297721768729, 1629.674495341722, 961.7433228553273, -0.19200000911951065, -0.04800000227987766, 1.008000047877431, 0.0, 0.0, 0.0, 0.0, 0.0, 1.6480855909365814E9, 0.0, 2022-03-23 20:33:10.936
63.0, 810.3895716485567, 529.0705570816062, 1634.8617365802638, 963.8825456299819, -0.19200000911951065, -0.04800000227987766, 1.008000047877431, 0.0, 0.0, 0.0, 0.0, 0.0, 1.6480855909522798E9, 0.0, 2022-03-23 20:33:10.952
63.0, 809.2750814617611, 540.398714047391, 1648.6170886172913, 972.2000831314363, -0.19200000911951065, -0.04800000227987766, 1.008000047877431, 0.0, 0.0, 0.0, 0.0, 0.0, 1.6480855909522798E9, 0.0, 2022-03-23 20:33:10.952
64.0, 816.5716262753122, 542.4631388229318, 1655.4012671369128, 976.340152382385, -0.19200000911951065, -0.04800000227987766, 1.008000047877431, 0.0, 0.0, 0.0, 0.0, 0.0, 1.6480855909530268E9, 0.0, 2022-03-23 20:33:10.953
64.0, 805.28460820904, 526.0300184176303, 1638.4744799374603, 968.5536806746386, -0.19200000911951065, -0.04800000227987766, 1.008000047877431, 0.0, 0.0, 0.0, 0.0, 0.0, 1.6480855909530268E9, 0.0, 2022-03-23 20:33:10.953
65.0, 794.0649083419703, 523.984293141868, 1634.6597819826566, 943.6459469697438, -0.19200000911951065, -0.04800000227987766, 1.008000047877431, 0.0, 0.0, 0.0, 0.0, 0.0, 1.6480855909665852E9, 0.0, 2022-03-23 20:33:10.966
65.0, 804.8657394140027, 537.661107279826, 1640.0003591193818, 952.3823532662354, -0.19200000911951065, -0.04800000227987766, 1.008000047877431, 0.0, 0.0, 0.0, 0.0, 0.0, 1.6480855909665852E9, 0.0, 2022-03-23 20:33:10.966
66.0, 810.2960741496645, 539.5160976578481, 1636.6606284589507, 961.1374590625055, -0.19200000911951065, -0.04800000227987766, 1.008000047877431, 0.0, 0.0, 0.0, 0.0, 0.0, 1.6480855909823027E9, 0.0, 2022-03-23 20:33:10.982
66.0, 803.1117263347842, 535.8360361014493, 1645.9393202490173, 950.5348426881246, -0.19200000911951065, -0.04800000227987766, 1.008000047877431, 0.0, 0.0, 0.0, 0.0, 0.0, 1.6480855909823027E9, 0.0, 2022-03-23 20:33:10.982
67.0, 805.4117648075335, 539.9461861527525, 1655.2254918389954, 956.0287557230331, -0.19200000911951065, -0.04800000227987766, 1.008000047877431, 0.0, 0.0, 0.0, 0.0, 0.0, 1.6480855909830587E9, 0.0, 2022-03-23 20:33:10.983
67.0, 815.1130652925931, 535.465786005836, 1651.0517634884454, 959.8546733777039, -0.19200000911951065, -0.04800000227987766, 1.008000047877431, 0.0, 0.0, 0.0, 0.0, 0.0, 1.6480855909830587E9, 0.0, 2022-03-23 20:33:10.983
68.0, 813.8938579070382, 527.0285717057995, 1644.5480774655007, 949.7793828970753, -0.19200000911951065, -0.04800000227987766, 1.008000047877431, 0.0, 0.0, 0.0, 0.0, 0.0, 1.6480855909965727E9, 0.0, 2022-03-23 20:33:10.996
68.0, 816.8895177715458, 525.0875636287965, 1635.594756971579, 954.1176668456756, -0.19200000911951065, -0.04800000227987766, 1.008000047877431, 0.0, 0.0, 0.0, 0.0, 0.0, 1.6480855909965727E9, 0.0, 2022-03-23 20:33:10.996
69.0, 829.6537963203155, 523.7411996447481, 1644.2937642685138, 957.4686172059737, -0.19200000911951065, -0.04800000227987766, 1.008000047877431, 0.0, 0.0, 0.0, 0.0, 0.0, 1.648085591012222E9, 0.0, 2022-03-23 20:33:11.012
69.0, 840.0619378970005, 531.7894643493928, 1648.415134019684, 966.6126725976355, -0.19200000911951065, -0.04800000227987766, 1.008000047877431, 0.0, 0.0, 0.0, 0.0, 0.0, 1.648085591012222E9, 0.0, 2022-03-23 20:33:11.012
70.0, 833.0795446797274, 532.5374443405308, 1651.7174656805582, 965.0232151164673, -0.19200000911951065, -0.04800000227987766, 1.008000047877431, 0.0, 0.0, 0.0, 0.0, 0.0, 1.6480855910130153E9, 0.0, 2022-03-23 20:33:11.013
70.0, 842.1637616720982, 537.4741122820415, 1655.0945953405462, 979.0254005505703, -0.19200000911951065, -0.04800000227987766, 1.008000047877431, 0.0, 0.0, 0.0, 0.0, 0.0, 1.6480855910130153E9, 0.0, 2022-03-23 20:33:11.013
71.0, 853.660214135889, 541.8535351301543, 1647.992525324691, 981.9500023159198, -0.19200000911951065, -0.04800000227987766, 1.008000047877431, 0.0, 0.0, 0.0, 0.0, 0.0, 1.6480855910265777E9, 0.0, 2022-03-23 20:33:11.026
71.0, 840.0768974968232, 522.3387371613644, 1646.6648608404212, 969.6382516617887, -0.19200000911951065, -0.04800000227987766, 1.008000047877431, 0.0, 0.0, 0.0, 0.0, 0.0, 1.6480855910265777E9, 0.0, 2022-03-23 20:33:11.026
72.0, 837.2944119297899, 533.6706340271048, 1658.6213209987618, 972.1103255324997, -0.17600000835955143, -0.04800000227987766, 1.008000047877431, 0.0, 0.0, 0.0, 0.0, 0.0, 1.6480855910422907E9, 0.0, 2022-03-23 20:33:11.042
72.0, 843.5101256561466, 530.749772161711, 1650.165407198947, 968.1759507791139, -0.17600000835955143, -0.04800000227987766, 1.008000047877431, 0.0, 0.0, 0.0, 0.0, 0.0, 1.6480855910422907E9, 0.0, 2022-03-23 20:33:11.042
73.0, 836.0378055446781, 520.4239083840512, 1643.6617211760022, 960.2137037734501, -0.17600000835955143, -0.04800000227987766, 1.008000047877431, 0.0, 0.0, 0.0, 0.0, 0.0, 1.6480855910430346E9, 0.0, 2022-03-23 20:33:11.043
73.0, 822.1178979096003, 515.4722808427177, 1656.844868519809, 954.9254852361046, -0.17600000835955143, -0.04800000227987766, 1.008000047877431, 0.0, 0.0, 0.0, 0.0, 0.0, 1.6480855910430346E9, 0.0, 2022-03-23 20:33:11.043
74.0, 831.2769129010849, 523.2288333508186, 1659.8517480841838, 955.6697253272869, -0.17600000835955143, -0.04800000227987766, 1.008000047877431, 0.0, 0.0, 0.0, 0.0, 0.0, 1.6480855910565803E9, 0.0, 2022-03-23 20:33:11.056
74.0, 836.4454546398483, 523.8833158430643, 1655.1506938398816, 962.6109796450473, -0.17600000835955143, -0.04800000227987766, 1.008000047877431, 0.0, 0.0, 0.0, 0.0, 0.0, 1.6480855910565803E9, 0.0, 2022-03-23 20:33:11.056
75.0, 831.9426150931977, 521.6356359696947, 1655.158173639793, 963.7441693316214, -0.17600000835955143, -0.04800000227987766, 1.008000047877431, 0.0, 0.0, 0.0, 0.0, 0.0, 1.6480855910720239E9, 0.0, 2022-03-23 20:33:11.072
75.0, 825.8540579653345, 514.6943816519342, 1649.862475302536, 958.3886325950734, -0.17600000835955143, -0.04800000227987766, 1.008000047877431, 0.0, 0.0, 0.0, 0.0, 0.0, 1.6480855910720239E9, 0.0, 2022-03-23 20:33:11.072
76.0, 834.3473707647063, 511.1489564939402, 1645.9879389484413, 954.2710027438588, -0.17600000835955143, -0.04800000227987766, 1.008000047877431, 0.0, 0.0, 0.0, 0.0, 0.0, 1.6480855910872893E9, 0.0, 2022-03-23 20:33:11.087
76.0, 826.3327651596628, 518.2697260095738, 1648.3515557204373, 952.3973128660582, -0.17600000835955143, -0.04800000227987766, 1.008000047877431, 0.0, 0.0, 0.0, 0.0, 0.0, 1.6480855910872893E9, 0.0, 2022-03-23 20:33:11.087
77.0, 837.6534423255362, 544.2657706015743, 1660.8054225728847, 955.5762278283946, -0.17600000835955143, -0.04800000227987766, 1.008000047877431, 0.0, 0.0, 0.0, 0.0, 0.0, 1.648085591088011E9, 0.0, 2022-03-23 20:33:11.088
77.0, 843.5176054560579, 535.2563516083173, 1660.622167475056, 959.7873551785015, -0.17600000835955143, -0.04800000227987766, 1.008000047877431, 0.0, 0.0, 0.0, 0.0, 0.0, 1.648085591088011E9, 0.0, 2022-03-23 20:33:11.088
78.0, 837.3205912294798, 530.4655397650786, 1662.9633448473178, 963.5010758345015, -0.17600000835955143, -0.04800000227987766, 1.008000047877431, 0.0, 0.0, 0.0, 0.0, 0.0, 1.6480855911023E9, 0.0, 2022-03-23 20:33:11.102
78.0, 826.3402449595742, 526.0786371170543, 1653.7856303560548, 957.9286249005236, -0.17600000835955143, -0.04800000227987766, 1.008000047877431, 0.0, 0.0, 0.0, 0.0, 0.0, 1.6480855911023E9, 0.0, 2022-03-23 20:33:11.102
79.0, 837.1560356314294, 536.2287255967967, 1666.7443837025203, 957.9809834999032, -0.17600000835955143, -0.04800000227987766, 1.008000047877431, 0.0, 0.0, 0.0, 0.0, 0.0, 1.6480855911030543E9, 0.0, 2022-03-23 20:33:11.103
79.0, 845.409994833637, 541.1915728379972, 1669.7063844674267, 962.7942347428761, -0.17600000835955143, -0.04800000227987766, 1.008000047877431, 0.0, 0.0, 0.0, 0.0, 0.0, 1.6480855911030543E9, 0.0, 2022-03-23 20:33:11.103
80.0, 838.7230537128635, 539.6133350566961, 1667.6008207923733, 955.9315183241852, -0.17600000835955143, -0.04800000227987766, 1.008000047877431, 0.0, 0.0, 0.0, 0.0, 0.0, 1.6480855911166303E9, 0.0, 2022-03-23 20:33:11.116
80.0, 833.4236154756509, 540.8699414418079, 1664.130193633493, 945.6168742463924, -0.17600000835955143, -0.04800000227987766, 1.008000047877431, 0.0, 0.0, 0.0, 0.0, 0.0, 1.6480855911166303E9, 0.0, 2022-03-23 20:33:11.116
81.0, 851.031064467039, 545.7729502837174, 1664.3807669305243, 958.1567587978207, -0.17600000835955143, -0.04800000227987766, 1.008000047877431, 0.0, 0.0, 0.0, 0.0, 0.0, 1.648085591132335E9, 0.0, 2022-03-23 20:33:11.132
81.0, 844.8527497402392, 538.0687563749962, 1664.5453225285746, 950.2580900914036, -0.17600000835955143, -0.04800000227987766, 1.008000047877431, 0.0, 0.0, 0.0, 0.0, 0.0, 1.648085591132335E9, 0.0, 2022-03-23 20:33:11.132
82.0, 829.9567282167263, 544.70333889639, 1664.9604514236562, 949.9888172945939, -0.2240000106394291, -0.04800000227987766, 1.008000047877431, 0.0, 0.0, 0.0, 0.0, 0.0, 1.648085591132964E9, 0.0, 2022-03-23 20:33:11.132
82.0, 835.2599063538946, 537.4404531824403, 1657.7349647092633, 941.3945271964185, -0.2240000106394291, -0.04800000227987766, 1.008000047877431, 0.0, 0.0, 0.0, 0.0, 0.0, 1.648085591132964E9, 0.0, 2022-03-23 20:33:11.132
83.0, 821.5269937166013, 545.3952203881927, 1666.856580701191, 932.7740577985533, -0.2240000106394291, -0.04800000227987766, 1.008000047877431, 0.0, 0.0, 0.0, 0.0, 0.0, 1.6480855911466477E9, 0.0, 2022-03-23 20:33:11.146
83.0, 810.0043619531207, 548.611534350086, 1660.1920789801516, 917.3843694808893, -0.2240000106394291, -0.04800000227987766, 1.008000047877431, 0.0, 0.0, 0.0, 0.0, 0.0, 1.6480855911466477E9, 0.0, 2022-03-23 20:33:11.146
84.0, 821.1193446214311, 553.7277174894698, 1670.8545337538235, 929.0117184431292, -0.2240000106394291, -0.04800000227987766, 1.008000047877431, 0.0, 0.0, 0.0, 0.0, 0.0, 1.6480855911622555E9, 0.0, 2022-03-23 20:33:11.162
84.0, 826.7329344549216, 544.9913111929782, 1662.3761805542745, 925.6682478827424, -0.2240000106394291, -0.04800000227987766, 1.008000047877431, 0.0, 0.0, 0.0, 0.0, 0.0, 1.6480855911622555E9, 0.0, 2022-03-23 20:33:11.162
85.0, 819.0250006462447, 543.4766517109238, 1663.7113248384558, 922.3733960217796, -0.2240000106394291, -0.04800000227987766, 1.008000047877431, 0.0, 0.0, 0.0, 0.0, 0.0, 1.6480855911630027E9, 0.0, 2022-03-23 20:33:11.163
85.0, 820.9585289233364, 554.303662082646, 1668.109447186347, 919.5909104547463, -0.2240000106394291, -0.04800000227987766, 1.008000047877431, 0.0, 0.0, 0.0, 0.0, 0.0, 1.6480855911630027E9, 0.0, 2022-03-23 20:33:11.163
86.0, 835.1626689550467, 551.1995451194234, 1665.5700551164337, 917.1786749833263, -0.2240000106394291, -0.04800000227987766, 1.008000047877431, 0.0, 0.0, 0.0, 0.0, 0.0, 1.6480855911766489E9, 0.0, 2022-03-23 20:33:11.176
86.0, 826.2430075607263, 556.5289025562815, 1673.2667692252435, 918.461460668128, -0.2240000106394291, -0.04800000227987766, 1.008000047877431, 0.0, 0.0, 0.0, 0.0, 0.0, 1.6480855911766489E9, 0.0, 2022-03-23 20:33:11.176
87.0, 816.8820379716344, 540.4847317463718, 1670.787215554621, 906.0636923150159, -0.2240000106394291, -0.04800000227987766, 1.008000047877431, 0.0, 0.0, 0.0, 0.0, 0.0, 1.6480855911922548E9, 0.0, 2022-03-23 20:33:11.192
87.0, 830.3456778121181, 553.9408917869441, 1689.1239450373687, 923.3083710107021, -0.2240000106394291, -0.04800000227987766, 1.008000047877431, 0.0, 0.0, 0.0, 0.0, 0.0, 1.6480855911922548E9, 0.0, 2022-03-23 20:33:11.192
88.0, 818.7968667489477, 542.1078483271413, 1666.7892625019886, 904.2087019369937, -0.2240000106394291, -0.04800000227987766, 1.008000047877431, 0.0, 0.0, 0.0, 0.0, 0.0, 1.648085591193022E9, 0.0, 2022-03-23 20:33:11.193
88.0, 815.7451083851047, 549.5614689388312, 1671.0826676511206, 914.179275218863, -0.2240000106394291, -0.04800000227987766, 1.008000047877431, 0.0, 0.0, 0.0, 0.0, 0.0, 1.648085591193022E9, 0.0, 2022-03-23 20:33:11.193
89.0, 812.9850622178055, 550.8292950238101, 1676.41950488789, 917.2085941829719, -0.2240000106394291, -0.04800000227987766, 1.008000047877431, 0.0, 0.0, 0.0, 0.0, 0.0, 1.6480855912066245E9, 0.0, 2022-03-23 20:33:11.206
89.0, 814.8811914953403, 549.9578983341344, 1669.0182428755797, 911.3107719528489, -0.2240000106394291, -0.04800000227987766, 1.008000047877431, 0.0, 0.0, 0.0, 0.0, 0.0, 1.6480855912066245E9, 0.0, 2022-03-23 20:33:11.206
90.0, 802.1206528465264, 541.4870249344967, 1672.9301782292314, 899.851718488615, -0.2240000106394291, -0.04800000227987766, 0.9920000471174717, 0.0, 0.0, 0.0, 0.0, 0.0, 1.6480855912222755E9, 0.0, 2022-03-23 20:33:11.222
90.0, 788.9599449024536, 544.2732504014857, 1670.1289931624196, 894.6495176502503, -0.2240000106394291, -0.04800000227987766, 0.9920000471174717, 0.0, 0.0, 0.0, 0.0, 0.0, 1.6480855912222755E9, 0.0, 2022-03-23 20:33:11.222
91.0, 813.2618148145266, 550.7619768246077, 1670.2972886604257, 903.7225149427541, -0.2240000106394291, -0.04800000227987766, 0.9920000471174717, 0.0, 0.0, 0.0, 0.0, 0.0, 1.648085591223075E9, 0.0, 2022-03-23 20:33:11.223
91.0, 803.4969360302202, 551.0649087210186, 1673.307908124756, 897.8321725125425, -0.2240000106394291, -0.04800000227987766, 0.9920000471174717, 0.0, 0.0, 0.0, 0.0, 0.0, 1.648085591223075E9, 0.0, 2022-03-23 20:33:11.223
92.0, 819.2493946435861, 561.2935350998305, 1695.2611208646558, 915.4770205034874, -0.2240000106394291, -0.04800000227987766, 0.9920000471174717, 0.0, 0.0, 0.0, 0.0, 0.0, 1.6480855912366352E9, 0.0, 2022-03-23 20:33:11.236
92.0, 827.5744119449519, 549.9242392345332, 1675.8809592942707, 917.2833921820857, -0.2240000106394291, -0.04800000227987766, 0.9920000471174717, 0.0, 0.0, 0.0, 0.0, 0.0, 1.6480855912366352E9, 0.0, 2022-03-23 20:33:11.236
93.0, 818.7332884497009, 546.9547586697154, 1653.9688854538836, 905.4503487222828, -0.2240000106394291, -0.04800000227987766, 0.9920000471174717, 0.0, 0.0, 0.0, 0.0, 0.0, 1.6480855912522695E9, 0.0, 2022-03-23 20:33:11.252
93.0, 816.3883711774834, 547.3885870645754, 1649.8923945021816, 904.5153737333603, -0.2240000106394291, -0.04800000227987766, 0.9920000471174717, 0.0, 0.0, 0.0, 0.0, 0.0, 1.6480855912522695E9, 0.0, 2022-03-23 20:33:11.252
94.0, 828.7375208311714, 549.0827617445029, 1657.9406592068262, 905.543846221175, -0.2240000106394291, -0.04800000227987766, 0.9920000471174717, 0.0, 0.0, 0.0, 0.0, 0.0, 1.6480855912530422E9, 0.0, 2022-03-23 20:33:11.253
94.0, 832.2605065894313, 552.4262323048897, 1658.69237909792, 917.9677938739769, -0.2240000106394291, -0.04800000227987766, 0.9920000471174717, 0.0, 0.0, 0.0, 0.0, 0.0, 1.6480855912530422E9, 0.0, 2022-03-23 20:33:11.253
95.0, 828.2999525363557, 546.9136197702028, 1659.7470308854245, 922.4855930204503, -0.2240000106394291, -0.04800000227987766, 0.9920000471174717, 0.0, 0.0, 0.0, 0.0, 0.0, 1.6480855912665398E9, 0.0, 2022-03-23 20:33:11.266
95.0, 820.1282711331733, 534.9272404122166, 1658.4829447004013, 919.0112259616144, -0.2240000106394291, -0.04800000227987766, 0.9920000471174717, 0.0, 0.0, 0.0, 0.0, 0.0, 1.6480855912665398E9, 0.0, 2022-03-23 20:33:11.266
96.0, 833.0047466806136, 543.9478791053407, 1663.9918173351325, 923.1475553126074, -0.2240000106394291, -0.04800000227987766, 0.9920000471174717, 0.0, 0.0, 0.0, 0.0, 0.0, 1.648085591282254E9, 0.0, 2022-03-23 20:33:11.282
96.0, 821.9496024115942, 547.1903723669238, 1667.1969115971588, 913.8015453233384, -0.2240000106394291, -0.04800000227987766, 0.9920000471174717, 0.0, 0.0, 0.0, 0.0, 0.0, 1.648085591282254E9, 0.0, 2022-03-23 20:33:11.282
97.0, 789.0160434017889, 529.7773981732316, 1654.9823983418755, 891.2499485905282, -0.2240000106394291, -0.04800000227987766, 0.9920000471174717, 0.0, 0.0, 0.0, 0.0, 0.0, 1.6480855912829394E9, 0.0, 2022-03-23 20:33:11.282
97.0, 798.5415685889311, 531.389295054134, 1652.8506553671323, 887.7531421319582, -0.2240000106394291, -0.04800000227987766, 0.9920000471174717, 0.0, 0.0, 0.0, 0.0, 0.0, 1.6480855912829394E9, 0.0, 2022-03-23 20:33:11.282
98.0, 794.8839464322664, 539.6133350566961, 1651.2237988864072, 882.6444387924857, -0.2240000106394291, -0.04800000227987766, 0.9920000471174717, 0.0, 0.0, 0.0, 0.0, 0.0, 1.6480855912966647E9, 0.0, 2022-03-23 20:33:11.296
98.0, 797.9731037956662, 546.1095412797295, 1662.9783044471405, 890.7675014962442, -0.2240000106394291, -0.04800000227987766, 0.9920000471174717, 0.0, 0.0, 0.0, 0.0, 0.0, 1.6480855912966647E9, 0.0, 2022-03-23 20:33:11.296
99.0, 811.4180441363715, 550.5375828272663, 1669.4146722708829, 907.1931421016343, -0.2240000106394291, -0.04800000227987766, 0.9920000471174717, 0.0, 0.0, 0.0, 0.0, 0.0, 1.6480855913122833E9, 0.0, 2022-03-23 20:33:11.312
99.0, 818.7893869490363, 552.1345201083459, 1665.9739643116482, 911.3070320528932, -0.2240000106394291, -0.04800000227987766, 0.9920000471174717, 0.0, 0.0, 0.0, 0.0, 0.0, 1.6480855913122833E9, 0.0, 2022-03-23 20:33:11.312
100.0, 810.9692561416887, 546.3002761774696, 1661.934872359503, 911.3481709524058, -0.2240000106394291, -0.04800000227987766, 0.9600000455975533, 0.0, 0.0, 0.0, 0.0, 0.0, 1.6480855913129668E9, 0.0, 2022-03-23 20:33:11.312
100.0, 797.9955431954004, 535.9145740005188, 1653.3929408607073, 915.5443387026899, -0.2240000106394291, -0.04800000227987766, 0.9600000455975533, 0.0, 0.0, 0.0, 0.0, 0.0, 1.6480855913129668E9, 0.0, 2022-03-23 20:33:11.312
0.0, 815.7881172345951, 535.6527810036205, 1659.1673463922925, 920.5576745932922, -0.2240000106394291, -0.04800000227987766, 0.9600000455975533, 0.0, 0.0, 0.0, 0.0, 0.0, 1.6480855913272676E9, 0.0, 2022-03-23 20:33:11.327
1.0, 808.854342716746, 539.8564285538159, 1666.8790201009251, 916.7317569386214, -0.2240000106394291, -0.01600000075995922, 0.9600000455975533, 0.0, 0.0, 0.0, 0.0, 0.0, 1.648085591328015E9, 0.0, 2022-03-23 20:33:11.328
1.0, 783.1911492208019, 531.931580547709, 1657.461952012498, 898.3052698569372, -0.2240000106394291, -0.01600000075995922, 0.9600000455975533, 0.0, 0.0, 0.0, 0.0, 0.0, 1.648085591328015E9, 0.0, 2022-03-23 20:33:11.328
2.0, 793.3898563999683, 525.1960207275115, 1648.2430986217223, 896.2034460818395, -0.20800000987946987, -0.01600000075995922, 0.9600000455975533, 0.0, 0.0, 0.0, 0.0, 0.0, 1.648085591341642E9, 0.0, 2022-03-23 20:33:11.341
2.0, 797.746839848347, 529.025678282138, 1646.137534946669, 895.7845772868022, -0.20800000987946987, -0.01600000075995922, 0.9600000455975533, 0.0, 0.0, 0.0, 0.0, 0.0, 1.648085591341642E9, 0.0, 2022-03-23 20:33:11.341
3.0, 813.0692099668086, 543.5551896099932, 1657.0804822170176, 918.9756969120353, -0.20800000987946987, -0.01600000075995922, 0.9600000455975533, 0.0, 0.0, 0.0, 0.0, 0.0, 1.6480855913573196E9, 0.0, 2022-03-23 20:33:11.357
3.0, 823.8139425395057, 543.1512804147787, 1653.759451056365, 930.4684094758704, -0.20800000987946987, -0.01600000075995922, 0.9600000455975533, 0.0, 0.0, 0.0, 0.0, 0.0, 1.6480855913573196E9, 0.0, 2022-03-23 20:33:11.357
4.0, 823.6082480419427, 530.4543200652115, 1651.5416903826408, 928.2132498025894, -0.20800000987946987, -0.01600000075995922, 0.9600000455975533, 0.0, 0.0, 0.0, 0.0, 0.0, 1.648085591358036E9, 0.0, 2022-03-23 20:33:11.358
4.0, 826.8956201029941, 543.0129041164182, 1660.584768475499, 936.4111105054617, -0.20800000987946987, -0.01600000075995922, 0.9600000455975533, 0.0, 0.0, 0.0, 0.0, 0.0, 1.648085591358036E9, 0.0, 2022-03-23 20:33:11.358
5.0, 813.4207605626434, 531.5314112524502, 1649.840035902802, 931.4819223638624, -0.20800000987946987, -0.01600000075995922, 0.9600000455975533, 0.0, 0.0, 0.0, 0.0, 0.0, 1.64808559137172E9, 0.0, 2022-03-23 20:33:11.371
5.0, 815.4851853381842, 521.9759668656625, 1645.9617596487515, 934.3466857299209, -0.20800000987946987, -0.01600000075995922, 0.9600000455975533, 0.0, 0.0, 0.0, 0.0, 0.0, 1.64808559137172E9, 0.0, 2022-03-23 20:33:11.371
6.0, 803.0200987858698, 532.5299645406194, 1642.9100012849085, 928.5947195980698, -0.20800000987946987, -0.01600000075995922, 0.9600000455975533, 0.0, 0.0, 0.0, 0.0, 0.0, 1.6480855913872647E9, 0.0, 2022-03-23 20:33:11.387
6.0, 808.5514108203351, 540.2304185493849, 1652.7421982684173, 930.6254852740094, -0.20800000987946987, -0.01600000075995922, 0.9600000455975533, 0.0, 0.0, 0.0, 0.0, 0.0, 1.6480855913872647E9, 0.0, 2022-03-23 20:33:11.387
7.0, 812.123015278019, 535.2152127088048, 1654.4475926482119, 932.330879653804, -0.20800000987946987, -0.01600000075995922, 0.9600000455975533, 0.0, 0.0, 0.0, 0.0, 0.0, 1.6480855913879972E9, 0.0, 2022-03-23 20:33:11.387
7.0, 805.8362434525043, 542.605255021248, 1651.9717788775451, 931.3809450650588, -0.20800000987946987, -0.01600000075995922, 0.9600000455975533, 0.0, 0.0, 0.0, 0.0, 0.0, 1.6480855913879972E9, 0.0, 2022-03-23 20:33:11.387
8.0, 795.8133115712553, 540.4435928468592, 1651.3434756849892, 931.7698946604505, -0.20800000987946987, -0.01600000075995922, 0.9600000455975533, 0.0, 0.0, 0.0, 0.0, 0.0, 1.6480855914015634E9, 0.0, 2022-03-23 20:33:11.401
8.0, 799.4971130276099, 535.9220538004301, 1655.2404514388181, 936.0034614102915, -0.20800000987946987, -0.01600000075995922, 0.9600000455975533, 0.0, 0.0, 0.0, 0.0, 0.0, 1.6480855914015634E9, 0.0, 2022-03-23 20:33:11.401
9.0, 800.1029768204316, 525.285778326448, 1642.5995895885862, 929.3015606896952, -0.20800000987946987, -0.01600000075995922, 0.9600000455975533, 0.0, 0.0, 0.0, 0.0, 0.0, 1.6480855914172401E9, 0.0, 2022-03-23 20:33:11.417
9.0, 787.7949660662562, 524.5938968346454, 1644.2227061693557, 925.094173239544, -0.20800000987946987, -0.01600000075995922, 0.9600000455975533, 0.0, 0.0, 0.0, 0.0, 0.0, 1.6480855914172401E9, 0.0, 2022-03-23 20:33:11.417
10.0, 783.8568514129147, 530.050410869997, 1643.8374964739196, 933.4603294404224, -0.20800000987946987, -0.01600000075995922, 1.0400000493973494, 0.0, 0.0, 0.0, 0.0, 0.0, 1.6480855914179947E9, 0.0, 2022-03-23 20:33:11.417
10.0, 794.6128036854789, 526.2768518147059, 1634.4540874850936, 924.4583902470767, -0.20800000987946987, -0.01600000075995922, 1.0400000493973494, 0.0, 0.0, 0.0, 0.0, 0.0, 1.6480855914179947E9, 0.0, 2022-03-23 20:33:11.417
11.0, 773.9835155298933, 517.7573597156443, 1623.896349910181, 911.2939424030483, -0.20800000987946987, -0.04800000227987766, 1.0400000493973494, 0.0, 0.0, 0.0, 0.0, 0.0, 1.6480855914315445E9, 0.0, 2022-03-23 20:33:11.431
11.0, 772.7643081443384, 517.6489026169293, 1631.7164807175286, 907.6213606465608, -0.20800000987946987, -0.04800000227987766, 1.0400000493973494, 0.0, 0.0, 0.0, 0.0, 0.0, 1.6480855914315445E9, 0.0, 2022-03-23 20:33:11.431
12.0, 780.2254085559398, 511.36213079141453, 1629.3528639455326, 905.5905949706212, -0.17600000835955143, -0.04800000227987766, 1.0400000493973494, 0.0, 0.0, 0.0, 0.0, 0.0, 1.6480855914472284E9, 0.0, 2022-03-23 20:33:11.447
12.0, 779.3016532668844, 493.8743585986085, 1626.1664691832848, 908.2010451396927, -0.17600000835955143, -0.04800000227987766, 1.0400000493973494, 0.0, 0.0, 0.0, 0.0, 0.0, 1.6480855914472284E9, 0.0, 2022-03-23 20:33:11.447
13.0, 784.0737656103447, 512.3419845798053, 1625.6391432895325, 907.1314337523654, -0.17600000835955143, -0.04800000227987766, 1.0400000493973494, 0.0, 0.0, 0.0, 0.0, 0.0, 1.6480855914479356E9, 0.0, 2022-03-23 20:33:11.447
13.0, 796.8866628585383, 525.1997606274672, 1626.6788354772143, 926.9828227171674, -0.17600000835955143, -0.04800000227987766, 1.0400000493973494, 0.0, 0.0, 0.0, 0.0, 0.0, 1.6480855914479356E9, 0.0, 2022-03-23 20:33:11.447
14.0, 805.9447005512193, 527.7241930975579, 1635.6658150707372, 929.978482581675, -0.17600000835955143, -0.04800000227987766, 1.0400000493973494, 0.0, 0.0, 0.0, 0.0, 0.0, 1.6480855914615767E9, 0.0, 2022-03-23 20:33:11.461
14.0, 796.8268244592473, 518.6586756049655, 1631.5332256196998, 919.7386365029961, -0.17600000835955143, -0.04800000227987766, 1.0400000493973494, 0.0, 0.0, 0.0, 0.0, 0.0, 1.6480855914615767E9, 0.0, 2022-03-23 20:33:11.461
15.0, 784.021407010965, 503.8823308800347, 1615.4815750098787, 910.2318108156323, -0.17600000835955143, -0.04800000227987766, 1.0400000493973494, 0.0, 0.0, 0.0, 0.0, 0.0, 1.6480855914772532E9, 0.0, 2022-03-23 20:33:11.477
15.0, 805.1892407601699, 507.56987223634496, 1611.3078466593288, 927.4764895113185, -0.17600000835955143, -0.04800000227987766, 1.0400000493973494, 0.0, 0.0, 0.0, 0.0, 0.0, 1.6480855914772532E9, 0.0, 2022-03-23 20:33:11.477
16.0, 793.5170129984617, 498.38841784512624, 1604.0225215456448, 918.7251236150041, -0.17600000835955143, -0.04800000227987766, 1.0400000493973494, 0.0, 0.0, 0.0, 0.0, 0.0, 1.6480855914779615E9, 0.0, 2022-03-23 20:33:11.477
16.0, 785.191995697096, 502.2966132988222, 1602.7584353606217, 919.3085480080917, -0.17600000835955143, -0.04800000227987766, 1.0400000493973494, 0.0, 0.0, 0.0, 0.0, 0.0, 1.6480855914779615E9, 0.0, 2022-03-23 20:33:11.477
17.0, 776.6201449986547, 485.78495499445125, 1593.9472310650162, 906.4021532610059, -0.17600000835955143, -0.04800000227987766, 1.0400000493973494, 0.0, 0.0, 0.0, 0.0, 0.0, 1.648085591491648E9, 0.0, 2022-03-23 20:33:11.491
17.0, 777.6186982868239, 490.08583994349465, 1606.1841837200336, 908.1337269404903, -0.17600000835955143, -0.04800000227987766, 1.0400000493973494, 0.0, 0.0, 0.0, 0.0, 0.0, 1.648085591491648E9, 0.0, 2022-03-23 20:33:11.491
18.0, 774.8249930199236, 499.9666556264274, 1610.6234449674375, 908.0439693415537, -0.17600000835955143, -0.04800000227987766, 1.0400000493973494, 0.0, 0.0, 0.0, 0.0, 0.0, 1.648085591507202E9, 0.0, 2022-03-23 20:33:11.507
18.0, 786.6318571800366, 504.6714497706853, 1605.5970194269903, 916.2754891440272, -0.17600000835955143, -0.04800000227987766, 1.0400000493973494, 0.0, 0.0, 0.0, 0.0, 0.0, 1.648085591507202E9, 0.0, 2022-03-23 20:33:11.507
19.0, 793.7376670958474, 509.2565671163611, 1619.4271694631316, 929.4212374882773, -0.17600000835955143, -0.04800000227987766, 1.0400000493973494, 0.0, 0.0, 0.0, 0.0, 0.0, 1.648085591507975E9, 0.0, 2022-03-23 20:33:11.507
19.0, 783.9466090118513, 493.0702801081352, 1611.883791252505, 914.7047311626375, -0.17600000835955143, -0.04800000227987766, 1.0400000493973494, 0.0, 0.0, 0.0, 0.0, 0.0, 1.648085591507975E9, 0.0, 2022-03-23 20:33:11.507
20.0, 765.2770284330472, 484.2852551122196, 1601.2400359786116, 900.9531190255657, -0.17600000835955143, -0.04800000227987766, 1.0560000501573086, 0.0, 0.0, 0.0, 0.0, 0.0, 1.6480855915217211E9, 0.0, 2022-03-23 20:33:11.521
20.0, 774.8810915192589, 489.7305494477041, 1601.187677379232, 893.7051929114386, -0.17600000835955143, -0.04800000227987766, 1.0560000501573086, 0.0, 0.0, 0.0, 0.0, 0.0, 1.6480855915217211E9, 0.0, 2022-03-23 20:33:11.521
21.0, 786.5944581804797, 496.2267556707375, 1609.5800128798, 902.1237077116966, -0.17600000835955143, -0.04800000227987766, 1.0560000501573086, 0.0, 0.0, 0.0, 0.0, 0.0, 1.648085591537243E9, 0.0, 2022-03-23 20:33:11.537
21.0, 793.0831846036017, 487.26969527686015, 1603.0090086576529, 910.3701871139929, -0.17600000835955143, -0.04800000227987766, 1.0560000501573086, 0.0, 0.0, 0.0, 0.0, 0.0, 1.648085591537243E9, 0.0, 2022-03-23 20:33:11.537
22.0, 807.8670091284439, 485.6129195964895, 1604.4339105407707, 930.1654775794595, -0.12800000607967377, -0.04800000227987766, 1.0560000501573086, 0.0, 0.0, 0.0, 0.0, 0.0, 1.648085591537972E9, 0.0, 2022-03-23 20:33:11.537
22.0, 815.8516955338418, 494.0950126959942, 1601.4307708763517, 947.4400754747912, -0.12800000607967377, -0.04800000227987766, 1.0560000501573086, 0.0, 0.0, 0.0, 0.0, 0.0, 1.648085591537972E9, 0.0, 2022-03-23 20:33:11.537
23.0, 809.2395524121821, 501.54115350777283, 1599.317727401387, 953.0723648080602, -0.12800000607967377, -0.04800000227987766, 1.0560000501573086, 0.0, 0.0, 0.0, 0.0, 0.0, 1.648085591551609E9, 0.0, 2022-03-23 20:33:11.551
23.0, 809.9239541040733, 499.05412003723904, 1598.9138182061724, 950.5105333384126, -0.12800000607967377, -0.04800000227987766, 1.0560000501573086, 0.0, 0.0, 0.0, 0.0, 0.0, 1.648085591551609E9, 0.0, 2022-03-23 20:33:11.551
24.0, 809.9576132036746, 500.3369057220407, 1602.6798974615522, 953.135943107307, -0.12800000607967377, -0.04800000227987766, 1.0560000501573086, 0.0, 0.0, 0.0, 0.0, 0.0, 1.648085591567247E9, 0.0, 2022-03-23 20:33:11.567
24.0, 800.1665551196784, 513.4265555669554, 1614.707415719051, 944.6837692074478, -0.12800000607967377, -0.04800000227987766, 1.0560000501573086, 0.0, 0.0, 0.0, 0.0, 0.0, 1.648085591567247E9, 0.0, 2022-03-23 20:33:11.567
25.0, 800.2450930187479, 514.383969955612, 1625.3586507928558, 947.8701639696956, -0.12800000607967377, -0.04800000227987766, 1.0560000501573086, 0.0, 0.0, 0.0, 0.0, 0.0, 1.648085591567943E9, 0.0, 2022-03-23 20:33:11.567
25.0, 804.2617455711588, 518.5502185062505, 1631.8137181163765, 957.9080554507673, -0.12800000607967377, -0.04800000227987766, 1.0560000501573086, 0.0, 0.0, 0.0, 0.0, 0.0, 1.648085591567943E9, 0.0, 2022-03-23 20:33:11.567
26.0, 796.9801603574306, 525.1586217279546, 1634.207254088018, 947.5335729736835, -0.12800000607967377, -0.04800000227987766, 1.0560000501573086, 0.0, 0.0, 0.0, 0.0, 0.0, 1.648085591581558E9, 0.0, 2022-03-23 20:33:11.581
26.0, 797.2008144548163, 521.1195297758095, 1629.2967654461972, 949.4409219510853, -0.12800000607967377, -0.04800000227987766, 1.0560000501573086, 0.0, 0.0, 0.0, 0.0, 0.0, 1.648085591581558E9, 0.0, 2022-03-23 20:33:11.581
27.0, 784.8404451012611, 511.2948125922121, 1617.792833182495, 933.235935443081, -0.12800000607967377, -0.04800000227987766, 1.0560000501573086, 0.0, 0.0, 0.0, 0.0, 0.0, 1.6480855915972812E9, 0.0, 2022-03-23 20:33:11.597
27.0, 774.4472631243989, 517.9854936129414, 1617.8526715817861, 919.402045506984, -0.12800000607967377, -0.04800000227987766, 1.0560000501573086, 0.0, 0.0, 0.0, 0.0, 0.0, 1.6480855915972812E9, 0.0, 2022-03-23 20:33:11.597
28.0, 764.8058010386303, 522.4696336598136, 1622.3106323289685, 918.2351967208087, -0.12800000607967377, -0.04800000227987766, 1.0560000501573086, 0.0, 0.0, 0.0, 0.0, 0.0, 1.6480855915979967E9, 0.0, 2022-03-23 20:33:11.597
28.0, 761.2379364809021, 521.0596913765185, 1621.087685043458, 911.2415838036686, -0.12800000607967377, -0.04800000227987766, 1.0560000501573086, 0.0, 0.0, 0.0, 0.0, 0.0, 1.6480855915979967E9, 0.0, 2022-03-23 20:33:11.597
29.0, 774.9783289181069, 533.1582677331753, 1634.35311018629, 932.1925033554435, -0.12800000607967377, -0.04800000227987766, 1.0560000501573086, 0.0, 0.0, 0.0, 0.0, 0.0, 1.6480855916115685E9, 0.0, 2022-03-23 20:33:11.611
29.0, 808.25221882388, 533.9473866238259, 1638.7736719339155, 962.2126802997664, -0.12800000607967377, -0.04800000227987766, 1.0560000501573086, 0.0, 0.0, 0.0, 0.0, 0.0, 1.6480855916115685E9, 0.0, 2022-03-23 20:33:11.611
30.0, 835.8040617974475, 517.5254859183915, 1626.0393125847913, 994.4954967172816, -0.12800000607967377, -0.04800000227987766, 0.9920000471174717, 0.0, 0.0, 0.0, 0.0, 0.0, 1.6480855916273296E9, 0.0, 2022-03-23 20:33:11.627
30.0, 869.9942271923646, 528.277698291, 1626.910709274467, 1025.8395982459188, -0.12800000607967377, -0.04800000227987766, 0.9920000471174717, 0.0, 0.0, 0.0, 0.0, 0.0, 1.6480855916273296E9, 0.0, 2022-03-23 20:33:11.627
31.0, 873.4124957518652, 536.9355666884221, 1624.7677465998568, 1030.6752888886258, -0.12800000607967377, -0.09600000455975533, 0.9920000471174717, 0.0, 0.0, 0.0, 0.0, 0.0, 1.6480855916279824E9, 0.0, 2022-03-23 20:33:11.627
31.0, 858.6698101265356, 525.914081519004, 1613.3760113348253, 1021.4751349976286, -0.12800000607967377, -0.09600000455975533, 0.9920000471174717, 0.0, 0.0, 0.0, 0.0, 0.0, 1.6480855916279824E9, 0.0, 2022-03-23 20:33:11.627
32.0, 865.9887943398207, 522.3649164610542, 1619.2850532648154, 1030.91464248579, -0.1600000075995922, -0.09600000455975533, 0.9920000471174717, 0.0, 0.0, 0.0, 0.0, 0.0, 1.6480855916416347E9, 0.0, 2022-03-23 20:33:11.641
32.0, 845.9017916778103, 524.2760053384118, 1630.3551571336575, 1010.266654830426, -0.1600000075995922, -0.09600000455975533, 0.9920000471174717, 0.0, 0.0, 0.0, 0.0, 0.0, 1.6480855916416347E9, 0.0, 2022-03-23 20:33:11.641
33.0, 818.5257240021601, 529.1528348806314, 1632.737473405432, 981.4918645713478, -0.1600000075995922, -0.09600000455975533, 0.9920000471174717, 0.0, 0.0, 0.0, 0.0, 0.0, 1.6480855916572936E9, 0.0, 2022-03-23 20:33:11.657
33.0, 802.6648082900792, 531.5987294516526, 1626.4507015799172, 966.1620146529749, -0.1600000075995922, -0.09600000455975533, 0.9920000471174717, 0.0, 0.0, 0.0, 0.0, 0.0, 1.6480855916572936E9, 0.0, 2022-03-23 20:33:11.657
34.0, 787.4508952703327, 523.4868864477612, 1629.7904322403483, 951.7073013242334, -0.1600000075995922, -0.09600000455975533, 0.9920000471174717, 0.0, 0.0, 0.0, 0.0, 0.0, 1.6480855916580036E9, 0.0, 2022-03-23 20:33:11.658
34.0, 799.8075247239321, 549.2360976426862, 1662.1817057565786, 964.9876860668883, -0.1600000075995922, -0.09600000455975533, 0.9920000471174717, 0.0, 0.0, 0.0, 0.0, 0.0, 1.6480855916580036E9, 0.0, 2022-03-23 20:33:11.658
35.0, 798.5883173383772, 558.7092642304488, 1651.1228215876035, 971.7456852868199, -0.1600000075995922, -0.09600000455975533, 0.9920000471174717, 0.0, 0.0, 0.0, 0.0, 0.0, 1.6480855916715686E9, 0.0, 2022-03-23 20:33:11.671
35.0, 819.8945273859426, 552.1419999082573, 1660.7792432731949, 1002.5288018221036, -0.1600000075995922, -0.09600000455975533, 0.9920000471174717, 0.0, 0.0, 0.0, 0.0, 0.0, 1.6480855916715686E9, 0.0, 2022-03-23 20:33:11.671
36.0, 831.9332653433084, 557.1534658488818, 1673.681898120325, 1021.1198445018381, -0.1600000075995922, -0.09600000455975533, 0.9920000471174717, 0.0, 0.0, 0.0, 0.0, 0.0, 1.6480855916879418E9, 0.0, 2022-03-23 20:33:11.687
36.0, 847.6333653572947, 557.897705940064, 1665.095087822061, 1034.822837939486, -0.1600000075995922, -0.09600000455975533, 0.9920000471174717, 0.0, 0.0, 0.0, 0.0, 0.0, 1.6480855916879418E9, 0.0, 2022-03-23 20:33:11.687
37.0, 864.0365665629506, 559.5918806199916, 1667.2492701965384, 1042.0445847539231, -0.1600000075995922, -0.09600000455975533, 0.9920000471174717, 0.0, 0.0, 0.0, 0.0, 0.0, 1.6480855916886334E9, 0.0, 2022-03-23 20:33:11.688
37.0, 852.4353969004005, 556.970210751053, 1661.8974733599462, 1025.342191551812, -0.1600000075995922, -0.09600000455975533, 0.9920000471174717, 0.0, 0.0, 0.0, 0.0, 0.0, 1.6480855916886334E9, 0.0, 2022-03-23 20:33:11.688
38.0, 857.3945042416453, 564.5472480612807, 1676.0529946922325, 1041.0048925662413, -0.1600000075995922, -0.09600000455975533, 0.9920000471174717, 0.0, 0.0, 0.0, 0.0, 0.0, 1.6480855917016757E9, 0.0, 2022-03-23 20:33:11.701
38.0, 852.3979979008436, 558.2529964358546, 1670.7535564550199, 1031.8047386752442, -0.1600000075995922, -0.09600000455975533, 0.9920000471174717, 0.0, 0.0, 0.0, 0.0, 0.0, 1.6480855917016757E9, 0.0, 2022-03-23 20:33:11.701
39.0, 852.1623842036352, 558.6606455310248, 1671.9391047409736, 1033.7345270523801, -0.1600000075995922, -0.09600000455975533, 0.9920000471174717, 0.0, 0.0, 0.0, 0.0, 0.0, 1.6480855917172966E9, 0.0, 2022-03-23 20:33:11.717
39.0, 840.707070639357, 556.4728040569462, 1667.1520327976905, 1026.1836690418422, -0.1600000075995922, -0.09600000455975533, 0.9920000471174717, 0.0, 0.0, 0.0, 0.0, 0.0, 1.6480855917172966E9, 0.0, 2022-03-23 20:33:11.717
40.0, 849.88478513062, 541.4683254347183, 1661.6842990624718, 1041.382622461766, -0.1600000075995922, -0.09600000455975533, 1.0240000486373901, 0.0, 0.0, 0.0, 0.0, 0.0, 1.6480855917179656E9, 0.0, 2022-03-23 20:33:11.717
40.0, 868.1766358138993, 553.6865785899572, 1670.2262305612676, 1057.7933034673333, -0.1600000075995922, -0.09600000455975533, 1.0240000486373901, 0.0, 0.0, 0.0, 0.0, 0.0, 1.6480855917179656E9, 0.0, 2022-03-23 20:33:11.717
41.0, 874.3624303406104, 552.15695950808, 1677.2722020777874, 1058.6235612574965, -0.1600000075995922, -0.03200000151991844, 1.0240000486373901, 0.0, 0.0, 0.0, 0.0, 0.0, 1.64808559173149E9, 0.0, 2022-03-23 20:33:11.731
41.0, 856.8522187480703, 552.9273788989522, 1672.2270770375617, 1041.008632466197, -0.1600000075995922, -0.03200000151991844, 1.0240000486373901, 0.0, 0.0, 0.0, 0.0, 0.0, 1.64808559173149E9, 0.0, 2022-03-23 20:33:11.731
42.0, 847.3416531607509, 544.6659398968332, 1663.6552263391204, 1025.0243000555784, -0.12800000607967377, -0.03200000151991844, 1.0240000486373901, 0.0, 0.0, 0.0, 0.0, 0.0, 1.6480855917473018E9, 0.0, 2022-03-23 20:33:11.747
42.0, 819.9955046847463, 542.9455859172158, 1654.9749185419641, 995.8942193007097, -0.12800000607967377, -0.03200000151991844, 1.0240000486373901, 0.0, 0.0, 0.0, 0.0, 0.0, 1.6480855917473018E9, 0.0, 2022-03-23 20:33:11.747
43.0, 816.1733269300312, 559.8387140170671, 1681.5282082273625, 996.2457698965445, -0.12800000607967377, -0.03200000151991844, 1.0240000486373901, 0.0, 0.0, 0.0, 0.0, 0.0, 1.6480855917480924E9, 0.0, 2022-03-23 20:33:11.748
43.0, 824.9059933265671, 569.4091180036776, 1696.9627753444947, 997.3901792829856, -0.12800000607967377, -0.03200000151991844, 1.0240000486373901, 0.0, 0.0, 0.0, 0.0, 0.0, 1.6480855917480924E9, 0.0, 2022-03-23 20:33:11.748
44.0, 826.0840618126094, 581.1000452651642, 1701.9144028858282, 997.7940884782001, -0.12800000607967377, -0.03200000151991844, 1.0240000486373901, 0.0, 0.0, 0.0, 0.0, 0.0, 1.6480855917615635E9, 0.0, 2022-03-23 20:33:11.761
44.0, 837.9470244720578, 586.5752588002943, 1713.7885852451436, 1008.6248387498781, -0.12800000607967377, -0.03200000151991844, 1.0240000486373901, 0.0, 0.0, 0.0, 0.0, 0.0, 1.6480855917615635E9, 0.0, 2022-03-23 20:33:11.761
45.0, 852.8954045949504, 589.1969286692329, 1721.309524056036, 1015.9064239636064, -0.12800000607967377, -0.03200000151991844, 1.0240000486373901, 0.0, 0.0, 0.0, 0.0, 0.0, 1.6480855917772968E9, 0.0, 2022-03-23 20:33:11.777
45.0, 854.4773822762072, 578.3661783975549, 1716.3092778152786, 1019.8707179166377, -0.12800000607967377, -0.03200000151991844, 1.0240000486373901, 0.0, 0.0, 0.0, 0.0, 0.0, 1.6480855917772968E9, 0.0, 2022-03-23 20:33:11.777
46.0, 844.5591675937176, 580.7484946693294, 1703.133610271383, 1002.8167741186917, -0.12800000607967377, -0.03200000151991844, 1.0240000486373901, 0.0, 0.0, 0.0, 0.0, 0.0, 1.6480855917779977E9, 0.0, 2022-03-23 20:33:11.777
46.0, 844.5703872935846, 585.3036928153597, 1703.3056456693448, 1005.4795828871429, -0.12800000607967377, -0.03200000151991844, 1.0240000486373901, 0.0, 0.0, 0.0, 0.0, 0.0, 1.6480855917779977E9, 0.0, 2022-03-23 20:33:11.777
47.0, 860.5846389038488, 586.9081098963507, 1715.4154417258687, 1020.3943039104342, -0.12800000607967377, -0.03200000151991844, 1.0240000486373901, 0.0, 0.0, 0.0, 0.0, 0.0, 1.648085591791577E9, 0.0, 2022-03-23 20:33:11.791
47.0, 865.9775746399537, 588.9313957723789, 1718.800051185768, 1023.2216682769358, -0.12800000607967377, -0.03200000151991844, 1.0240000486373901, 0.0, 0.0, 0.0, 0.0, 0.0, 1.648085591791577E9, 0.0, 2022-03-23 20:33:11.791
48.0, 857.0878324452788, 566.9108648332767, 1706.836111227516, 1016.7628610534593, -0.12800000607967377, -0.03200000151991844, 1.0240000486373901, 0.0, 0.0, 0.0, 0.0, 0.0, 1.6480855918070242E9, 0.0, 2022-03-23 20:33:11.807
48.0, 876.9354815101251, 589.3727039671503, 1722.8802820374258, 1044.8869087202474, -0.12800000607967377, -0.03200000151991844, 1.0240000486373901, 0.0, 0.0, 0.0, 0.0, 0.0, 1.6480855918070242E9, 0.0, 2022-03-23 20:33:11.807
49.0, 886.3188904989511, 592.005593535956, 1718.8037910857238, 1055.2576512973756, -0.12800000607967377, -0.03200000151991844, 1.0240000486373901, 0.0, 0.0, 0.0, 0.0, 0.0, 1.648085591822289E9, 0.0, 2022-03-23 20:33:11.822
49.0, 851.1114723160863, 562.4379444862716, 1701.712448288221, 1023.6218375721946, -0.12800000607967377, -0.03200000151991844, 1.0240000486373901, 0.0, 0.0, 0.0, 0.0, 0.0, 1.648085591822289E9, 0.0, 2022-03-23 20:33:11.822
50.0, 834.8391676088795, 561.9891564915888, 1704.0685852603056, 1021.1983824009076, -0.12800000607967377, -0.03200000151991844, 0.9760000463575125, 0.0, 0.0, 0.0, 0.0, 0.0, 1.6480855918230517E9, 0.0, 2022-03-23 20:33:11.823
50.0, 824.5170437311754, 557.0113496505655, 1716.8141643092968, 1012.9219837989658, -0.12800000607967377, -0.03200000151991844, 0.9760000463575125, 0.0, 0.0, 0.0, 0.0, 0.0, 1.6480855918230517E9, 0.0, 2022-03-23 20:33:11.823
51.0, 828.1260471884161, 570.4637697911821, 1711.2491931752302, 1021.4152965983376, -0.12800000607967377, -0.01600000075995922, 0.9760000463575125, 0.0, 0.0, 0.0, 0.0, 0.0, 1.6480855918372662E9, 0.0, 2022-03-23 20:33:11.837
51.0, 831.7163511458784, 590.1057243584655, 1719.1852608812042, 1009.5598137388006, -0.12800000607967377, -0.01600000075995922, 0.9760000463575125, 0.0, 0.0, 0.0, 0.0, 0.0, 1.6480855918372662E9, 0.0, 2022-03-23 20:33:11.837
52.0, 832.5690483357757, 584.6379906232469, 1714.5851839357056, 1003.1832843143493, -0.11200000531971455, -0.01600000075995922, 0.9760000463575125, 0.0, 0.0, 0.0, 0.0, 0.0, 1.648085591837993E9, 0.0, 2022-03-23 20:33:11.837
52.0, 819.685092988424, 571.4997220789082, 1717.6294624996372, 979.7902100915089, -0.11200000531971455, -0.01600000075995922, 0.9760000463575125, 0.0, 0.0, 0.0, 0.0, 0.0, 1.648085591837993E9, 0.0, 2022-03-23 20:33:11.837
53.0, 805.3276170585304, 573.444470055867, 1709.3268845980056, 960.7877784166485, -0.11200000531971455, -0.01600000075995922, 0.9760000463575125, 0.0, 0.0, 0.0, 0.0, 0.0, 1.6480855918515675E9, 0.0, 2022-03-23 20:33:11.851
53.0, 811.5582903847098, 563.8179675699212, 1691.809193205554, 956.8047849638388, -0.11200000531971455, -0.01600000075995922, 0.9760000463575125, 0.0, 0.0, 0.0, 0.0, 0.0, 1.6480855918515675E9, 0.0, 2022-03-23 20:33:11.851
54.0, 838.6314261639491, 553.4247855930589, 1701.6339103891514, 982.5053774593398, -0.11200000531971455, -0.01600000075995922, 0.9760000463575125, 0.0, 0.0, 0.0, 0.0, 0.0, 1.6480855918672543E9, 0.0, 2022-03-23 20:33:11.867
54.0, 854.817713172175, 557.2133042481728, 1700.0743721076287, 993.3249080311507, -0.11200000531971455, -0.01600000075995922, 0.9760000463575125, 0.0, 0.0, 0.0, 0.0, 0.0, 1.6480855918672543E9, 0.0, 2022-03-23 20:33:11.867
55.0, 875.0206527328119, 560.3623000108637, 1710.6807283819653, 1021.6022915961221, -0.11200000531971455, -0.01600000075995922, 0.9760000463575125, 0.0, 0.0, 0.0, 0.0, 0.0, 1.648085591867964E9, 0.0, 2022-03-23 20:33:11.867
55.0, 893.6827535117045, 549.0640622447245, 1698.7504475233145, 1036.0383054250851, -0.11200000531971455, -0.01600000075995922, 0.9760000463575125, 0.0, 0.0, 0.0, 0.0, 0.0, 1.648085591867964E9, 0.0, 2022-03-23 20:33:11.867
56.0, 885.9860394028947, 538.8316959659569, 1684.9876156863756, 1034.9350349381566, -0.11200000531971455, -0.01600000075995922, 0.9760000463575125, 0.0, 0.0, 0.0, 0.0, 0.0, 1.6480855918816595E9, 0.0, 2022-03-23 20:33:11.881
56.0, 874.6803218368441, 533.7080330266617, 1701.663829588797, 1023.4423223743215, -0.11200000531971455, -0.01600000075995922, 0.9760000463575125, 0.0, 0.0, 0.0, 0.0, 0.0, 1.6480855918816595E9, 0.0, 2022-03-23 20:33:11.881
57.0, 873.2255007540807, 538.7307186671533, 1704.3864767565392, 1011.9982285099104, -0.11200000531971455, -0.01600000075995922, 0.9760000463575125, 0.0, 0.0, 0.0, 0.0, 0.0, 1.648085591897247E9, 0.0, 2022-03-23 20:33:11.897
57.0, 863.7934730658308, 541.8423154302873, 1710.8228445802815, 1000.7411296432838, -0.11200000531971455, -0.01600000075995922, 0.9760000463575125, 0.0, 0.0, 0.0, 0.0, 0.0, 1.648085591897247E9, 0.0, 2022-03-23 20:33:11.897
58.0, 850.7786212200299, 534.4896721174009, 1701.2973193931393, 987.0867549050599, -0.11200000531971455, -0.01600000075995922, 0.9760000463575125, 0.0, 0.0, 0.0, 0.0, 0.0, 1.6480855918980055E9, 0.0, 2022-03-23 20:33:11.898
58.0, 859.8553584124893, 520.1882946868427, 1701.8657841864042, 991.6643924508244, -0.11200000531971455, -0.01600000075995922, 0.9760000463575125, 0.0, 0.0, 0.0, 0.0, 0.0, 1.6480855918980055E9, 0.0, 2022-03-23 20:33:11.898
59.0, 860.3004065072164, 498.60159214260057, 1685.5224213800393, 988.4630380887538, -0.11200000531971455, -0.01600000075995922, 0.9760000463575125, 0.0, 0.0, 0.0, 0.0, 0.0, 1.6480855919116092E9, 0.0, 2022-03-23 20:33:11.911
59.0, 828.3616608856246, 483.63451251992956, 1660.5885083754547, 966.5023455489427, -0.11200000531971455, -0.01600000075995922, 0.9760000463575125, 0.0, 0.0, 0.0, 0.0, 0.0, 1.6480855919116092E9, 0.0, 2022-03-23 20:33:11.911
60.0, 835.6544657992199, 512.5551588772796, 1699.1281774188392, 982.6661931574345, -0.11200000531971455, -0.01600000075995922, 0.9280000440776348, 0.0, 0.0, 0.0, 0.0, 0.0, 1.648085591927263E9, 0.0, 2022-03-23 20:33:11.927
60.0, 828.8441079799086, 509.1219307179563, 1706.4209823324345, 979.7640307918191, -0.11200000531971455, -0.01600000075995922, 0.9280000440776348, 0.0, 0.0, 0.0, 0.0, 0.0, 1.648085591927263E9, 0.0, 2022-03-23 20:33:11.927
61.0, 806.4533269451931, 511.91563598485664, 1711.0547183775343, 977.557489817962, -0.11200000531971455, 0.06400000303983688, 0.9280000440776348, 0.0, 0.0, 0.0, 0.0, 0.0, 1.6480855919279892E9, 0.0, 2022-03-23 20:33:11.927
61.0, 798.120829843916, 521.5757975704037, 1728.4901319709606, 991.3652004543692, -0.11200000531971455, 0.06400000303983688, 0.9280000440776348, 0.0, 0.0, 0.0, 0.0, 0.0, 1.6480855919279892E9, 0.0, 2022-03-23 20:33:11.927
62.0, 828.8815069794655, 515.9135890374891, 1728.5873693698086, 1033.7906255517155, -0.09600000455975533, 0.06400000303983688, 0.9280000440776348, 0.0, 0.0, 0.0, 0.0, 0.0, 1.648085591941682E9, 0.0, 2022-03-23 20:33:11.941
62.0, 835.0149429067969, 505.08657866576687, 1722.7045067395084, 1065.890186871402, -0.09600000455975533, 0.06400000303983688, 0.9280000440776348, 0.0, 0.0, 0.0, 0.0, 0.0, 1.648085591941682E9, 0.0, 2022-03-23 20:33:11.941
63.0, 821.1361741712317, 486.2487025889568, 1694.2176887770183, 1085.5658005382866, -0.09600000455975533, 0.06400000303983688, 0.9280000440776348, 0.0, 0.0, 0.0, 0.0, 0.0, 1.6480855919572792E9, 0.0, 2022-03-23 20:33:11.957
63.0, 830.9646312547848, 481.93285804009065, 1689.1276849373244, 1108.4427685672417, -0.09600000455975533, 0.06400000303983688, 0.9280000440776348, 0.0, 0.0, 0.0, 0.0, 0.0, 1.6480855919572792E9, 0.0, 2022-03-23 20:33:11.957
64.0, 824.6965589290485, 487.16123817814514, 1701.517973490525, 1137.094142127782, -0.09600000455975533, 0.06400000303983688, 0.9280000440776348, 0.0, 0.0, 0.0, 0.0, 0.0, 1.6480855919579916E9, 0.0, 2022-03-23 20:33:11.957
64.0, 796.3817763645202, 491.30504732904956, 1703.7880927636288, 1144.7384976372123, -0.09600000455975533, 0.06400000303983688, 0.9280000440776348, 0.0, 0.0, 0.0, 0.0, 0.0, 1.6480855919579916E9, 0.0, 2022-03-23 20:33:11.957
65.0, 760.0523881949484, 501.9301031031646, 1717.981013095472, 1153.7890555299819, -0.09600000455975533, 0.06400000303983688, 0.9280000440776348, 0.0, 0.0, 0.0, 0.0, 0.0, 1.648085591971765E9, 0.0, 2022-03-23 20:33:11.971
65.0, 760.6507721878588, 508.50110732531175, 1728.5050915707834, 1179.9982744194567, -0.09600000455975533, 0.06400000303983688, 0.9280000440776348, 0.0, 0.0, 0.0, 0.0, 0.0, 1.648085591971765E9, 0.0, 2022-03-23 20:33:11.971
66.0, 746.5214301552624, 512.8319114740007, 1725.3224367084913, 1232.3306944994256, -0.09600000455975533, 0.06400000303983688, 0.9280000440776348, 0.0, 0.0, 0.0, 0.0, 0.0, 1.648085591987259E9, 0.0, 2022-03-23 20:33:11.987
66.0, 761.4211915787309, 512.188648681622, 1727.4915786827914, 1303.628147254698, -0.09600000455975533, 0.06400000303983688, 0.9280000440776348, 0.0, 0.0, 0.0, 0.0, 0.0, 1.648085591987259E9, 0.0, 2022-03-23 20:33:11.987
67.0, 829.0759817771614, 503.79631318105385, 1718.9047683845274, 1412.5901324637234, -0.09600000455975533, 0.06400000303983688, 0.9280000440776348, 0.0, 0.0, 0.0, 0.0, 0.0, 1.6480855919882228E9, 0.0, 2022-03-23 20:33:11.988
67.0, 867.4436154225841, 478.00596308661625, 1698.009947332088, 1480.061667564325, -0.09600000455975533, 0.06400000303983688, 0.9280000440776348, 0.0, 0.0, 0.0, 0.0, 0.0, 1.6480855919882228E9, 0.0, 2022-03-23 20:33:11.988
68.0, 871.7931190710515, 461.4307264829986, 1675.372332900297, 1529.2862307811156, -0.09600000455975533, 0.06400000303983688, 0.9280000440776348, 0.0, 0.0, 0.0, 0.0, 0.0, 1.6480855920015934E9, 0.0, 2022-03-23 20:33:12.001
68.0, 870.7571667833254, 466.32625552499667, 1684.3667922937311, 1567.9081776235253, -0.09600000455975533, 0.06400000303983688, 0.9280000440776348, 0.0, 0.0, 0.0, 0.0, 0.0, 1.6480855920015934E9, 0.0, 2022-03-23 20:33:12.001
69.0, 836.0321956947446, 444.9377676784061, 1676.7149569843896, 1574.9167501404881, -0.09600000455975533, 0.06400000303983688, 0.9280000440776348, 0.0, 0.0, 0.0, 0.0, 0.0, 1.6480855920172336E9, 0.0, 2022-03-23 20:33:12.017
69.0, 827.8118955921382, 459.3139431080781, 1681.0233217333443, 1600.957673531957, -0.09600000455975533, 0.06400000303983688, 0.9280000440776348, 0.0, 0.0, 0.0, 0.0, 0.0, 1.6480855920172336E9, 0.0, 2022-03-23 20:33:12.017
70.0, 802.4217147929594, 455.21875265659764, 1657.9855380062945, 1625.7083314387128, -0.09600000455975533, 0.06400000303983688, 0.944000044837594, 0.0, 0.0, 0.0, 0.0, 0.0, 1.648085592017954E9, 0.0, 2022-03-23 20:33:12.017
70.0, 798.3153046416119, 450.07265031756833, 1651.2163190864958, 1669.1622290238738, -0.09600000455975533, 0.06400000303983688, 0.944000044837594, 0.0, 0.0, 0.0, 0.0, 0.0, 1.648085592017954E9, 0.0, 2022-03-23 20:33:12.017
71.0, 809.3405297109857, 440.05719823623076, 1647.1547877346165, 1733.454849162139, -0.09600000455975533, 0.09600000455975533, 0.944000044837594, 0.0, 0.0, 0.0, 0.0, 0.0, 1.6480855920316253E9, 0.0, 2022-03-23 20:33:12.031
71.0, 821.83179556299, 437.8581370622851, 1641.6159959002398, 1797.3211207054555, -0.09600000455975533, 0.09600000455975533, 0.944000044837594, 0.0, 0.0, 0.0, 0.0, 0.0, 1.6480855920316253E9, 0.0, 2022-03-23 20:33:12.031
72.0, 857.5590598396957, 448.195220539812, 1653.7893702560104, 1887.635964735411, -0.144000006839633, 0.09600000455975533, 0.944000044837594, 0.0, 0.0, 0.0, 0.0, 0.0, 1.6480855920472531E9, 0.0, 2022-03-23 20:33:12.047
72.0, 872.0062933685258, 434.32019170420244, 1636.825184057001, 1955.1224594358355, -0.144000006839633, 0.09600000455975533, 0.944000044837594, 0.0, 0.0, 0.0, 0.0, 0.0, 1.6480855920472531E9, 0.0, 2022-03-23 20:33:12.047
73.0, 875.7648928239942, 419.19603628339246, 1616.8092394941486, 2015.4994043204933, -0.144000006839633, 0.09600000455975533, 0.944000044837594, 0.0, 0.0, 0.0, 0.0, 0.0, 1.648085592048011E9, 0.0, 2022-03-23 20:33:12.048
73.0, 894.8309027981013, 402.63949917955324, 1612.2353418483399, 2064.869823635556, -0.144000006839633, 0.09600000455975533, 0.944000044837594, 0.0, 0.0, 0.0, 0.0, 0.0, 1.648085592048011E9, 0.0, 2022-03-23 20:33:12.048
74.0, 892.2279324289411, 404.0718808625825, 1619.5281467619352, 2117.2546023149043, -0.144000006839633, 0.09600000455975533, 0.944000044837594, 0.0, 0.0, 0.0, 0.0, 0.0, 1.648085592061643E9, 0.0, 2022-03-23 20:33:12.061
74.0, 884.8528497163206, 396.12085355678573, 1603.091286456678, 2134.2075688140467, -0.144000006839633, 0.09600000455975533, 0.944000044837594, 0.0, 0.0, 0.0, 0.0, 0.0, 1.648085592061643E9, 0.0, 2022-03-23 20:33:12.061
75.0, 876.6213299138471, 413.2570751537569, 1603.3642991534434, 2168.240658410825, -0.144000006839633, 0.09600000455975533, 0.944000044837594, 0.0, 0.0, 0.0, 0.0, 0.0, 1.648085592093599E9, 0.0, 2022-03-23 20:33:12.093
75.0, 906.7125649573281, 407.5537277213298, 1616.985014792066, 2204.23719548434, -0.144000006839633, 0.09600000455975533, 0.944000044837594, 0.0, 0.0, 0.0, 0.0, 0.0, 1.648085592093599E9, 0.0, 2022-03-23 20:33:12.093
76.0, 899.9657854372635, 380.2300186450593, 1586.123360357713, 2204.3905313825235, -0.144000006839633, 0.09600000455975533, 0.944000044837594, 0.0, 0.0, 0.0, 0.0, 0.0, 1.64808559209429E9, 0.0, 2022-03-23 20:33:12.094
76.0, 938.120244785212, 417.5953591023572, 1611.135811261367, 2255.013817182742, -0.144000006839633, 0.09600000455975533, 0.944000044837594, 0.0, 0.0, 0.0, 0.0, 0.0, 1.64808559209429E9, 0.0, 2022-03-23 20:33:12.094
77.0, 939.7097022663802, 407.430311022792, 1600.0320482929237, 2241.2135863462463, -0.144000006839633, 0.09600000455975533, 0.944000044837594, 0.0, 0.0, 0.0, 0.0, 0.0, 1.6480855920950952E9, 0.0, 2022-03-23 20:33:12.095
77.0, 922.4276245711371, 416.0956592201255, 1604.5648070392199, 2228.9093154920265, -0.144000006839633, 0.09600000455975533, 0.944000044837594, 0.0, 0.0, 0.0, 0.0, 0.0, 1.6480855920950952E9, 0.0, 2022-03-23 20:33:12.095
78.0, 910.018636518158, 411.52924137422815, 1583.8345415848307, 2236.1909007057548, -0.144000006839633, 0.09600000455975533, 0.944000044837594, 0.0, 0.0, 0.0, 0.0, 0.0, 1.6480855920958269E9, 0.0, 2022-03-23 20:33:12.095
78.0, 923.7328496556729, 418.743508388754, 1604.1833372437395, 2260.634886816144, -0.144000006839633, 0.09600000455975533, 0.944000044837594, 0.0, 0.0, 0.0, 0.0, 0.0, 1.6480855920958269E9, 0.0, 2022-03-23 20:33:12.095
79.0, 936.5906257033348, 430.35215785121545, 1629.9774272381328, 2302.824698216282, -0.144000006839633, 0.09600000455975533, 0.944000044837594, 0.0, 0.0, 0.0, 0.0, 0.0, 1.6480855921066055E9, 0.0, 2022-03-23 20:33:12.106
79.0, 914.3270012671128, 404.75254265451804, 1599.8861921946518, 2299.253093758598, -0.144000006839633, 0.09600000455975533, 0.944000044837594, 0.0, 0.0, 0.0, 0.0, 0.0, 1.6480855921066055E9, 0.0, 2022-03-23 20:33:12.106
