%OpenBCI Raw EEG Data
%Number of channels = 4
%Sample Rate = 200 Hz
%Board = OpenBCI_GUI$BoardGanglionBLE
Sample Index, EXG Channel 0, EXG Channel 1, EXG Channel 2, EXG Channel 3, Accel Channel 0, Accel Channel 1, Accel Channel 2, Other, Other, Other, Other, Other, Timestamp, Other, Timestamp (Formatted)
2.0, -7.25540591403842, 5.852943430654705, -6.638322421349585, -6.3802693244069815, -0.0800000037997961, 0.0, 0.0, 0.0, 0.0, 0.0, 0.0, 0.0, 1.6483378875671299E9, 0.0, 2022-03-26 18:38:07.567
2.0, -9.921954582445323, -6.956213917583227, -14.49211232829839, -9.723739884793758, -0.0800000037997961, 0.0, 0.0, 0.0, 0.0, 0.0, 0.0, 0.0, 1.6483378875671299E9, 0.0, 2022-03-26 18:38:07.567
3.0, -13.089649844914675, -4.330804148688912, -5.785625231452286, -3.6389226568862796, -0.0800000037997961, 0.0, 0.0, 0.0, 0.0, 0.0, 0.0, 0.0, 1.6483378875815792E9, 0.0, 2022-03-26 18:38:07.581
3.0, -14.200400131754577, -17.573789891786873, -12.805417448282242, 1.6567756803706288, -0.0800000037997961, 0.0, 0.0, 0.0, 0.0, 0.0, 0.0, 0.0, 1.6483378875815792E9, 0.0, 2022-03-26 18:38:07.581
4.0, -16.94548669923097, -13.789011136628687, -16.57149670366198, 3.3958291597664356, -0.0800000037997961, 0.0, 0.0, 0.0, 0.0, 0.0, 0.0, 0.0, 1.6483378875822992E9, 0.0, 2022-03-26 18:38:07.582
4.0, -14.787564424797893, -4.4878799468278885, -9.577883786521852, -0.7105809915810823, -0.0800000037997961, 0.0, 0.0, 0.0, 0.0, 0.0, 0.0, 0.0, 1.6483378875822992E9, 0.0, 2022-03-26 18:38:07.582
5.0, -16.795890701003373, -10.367002677172422, -8.908441694453359, 4.001692952588201, -0.0800000037997961, 0.0, 0.0, 0.0, 0.0, 0.0, 0.0, 0.0, 1.648337887596018E9, 0.0, 2022-03-26 18:38:07.596
5.0, -15.460746416822076, -9.966833381913602, -9.27121199015528, 10.755952272564173, -0.0800000037997961, 0.0, 0.0, 0.0, 0.0, 0.0, 0.0, 0.0, 1.648337887596018E9, 0.0, 2022-03-26 18:38:07.596
6.0, -21.437106546014547, -6.664501721039414, -12.955013446509838, -3.739899955689907, -0.0800000037997961, 0.0, 0.0, 0.0, 0.0, 0.0, 0.0, 0.0, 1.648337887611612E9, 0.0, 2022-03-26 18:38:07.611
6.0, -3.751119655556977, -6.03245862852782, -1.3949826834723353, 12.768018448725343, -0.0800000037997961, 0.0, 0.0, 0.0, 0.0, 0.0, 0.0, 0.0, 1.648337887611612E9, 0.0, 2022-03-26 18:38:07.611
7.0, -9.405848388560116, -5.763185831718147, -10.404401676729321, 11.776944960467517, -0.0800000037997961, 0.0, 0.0, 0.0, 0.0, 0.0, 0.0, 0.0, 1.6483378876122992E9, 0.0, 2022-03-26 18:38:07.612
7.0, -5.658468632958829, -9.495605987496674, -15.404647917486727, 4.9703270411118865, -0.0800000037997961, 0.0, 0.0, 0.0, 0.0, 0.0, 0.0, 0.0, 1.6483378876122992E9, 0.0, 2022-03-26 18:38:07.612
8.0, -13.908687935210764, -5.456514035351574, -11.137422068044543, 14.436013828963041, -0.0800000037997961, 0.0, 0.0, 0.0, 0.0, 0.0, 0.0, 0.0, 1.648337887626001E9, 0.0, 2022-03-26 18:38:07.626
8.0, -6.989873017184436, -12.90639474708587, -6.694420920684934, 20.853682152926922, -0.0800000037997961, 0.0, 0.0, 0.0, 0.0, 0.0, 0.0, 0.0, 1.648337887626001E9, 0.0, 2022-03-26 18:38:07.626
9.0, -1.8026317786425352, -14.88480182364583, -4.521539046429098, 24.769357406534255, -0.0800000037997961, 0.0, 0.0, 0.0, 0.0, 0.0, 0.0, 0.0, 1.6483378876416857E9, 0.0, 2022-03-26 18:38:07.641
9.0, -9.873335883021355, -5.363016536459327, -11.70214696135372, 13.070950345136225, -0.0800000037997961, 0.0, 0.0, 0.0, 0.0, 0.0, 0.0, 0.0, 1.6483378876416857E9, 0.0, 2022-03-26 18:38:07.641
10.0, -7.969726805575192, -14.06202383339405, -15.142854920588434, 3.7698191553354263, -0.0800000037997961, 0.0, 0.9600000455975533, 0.0, 0.0, 0.0, 0.0, 0.0, 1.6483378876424215E9, 0.0, 2022-03-26 18:38:07.642
10.0, 1.9671873766928911, -0.3253712961450219, -0.6694420920684934, 41.37077330984175, -0.0800000037997961, 0.0, 0.9600000455975533, 0.0, 0.0, 0.0, 0.0, 0.0, 1.6483378876424215E9, 0.0, 2022-03-26 18:38:07.642
11.0, -4.865609842352569, 3.7585994554683566, -6.264332425780594, 29.582608649507165, -0.0800000037997961, 0.4640000220388174, 0.9600000455975533, 0.0, 0.0, 0.0, 0.0, 0.0, 1.6483378876558928E9, 0.0, 2022-03-26 18:38:07.655
11.0, 2.8460638662800193, 2.128003074787557, 3.0854174634441733, 27.050696379505098, -0.0800000037997961, 0.4640000220388174, 0.9600000455975533, 0.0, 0.0, 0.0, 0.0, 0.0, 1.6483378876558928E9, 0.0, 2022-03-26 18:38:07.655
12.0, -2.098083875142038, -3.702500956133008, -0.684401691891253, 25.068549402989447, -0.09600000455975533, 0.4640000220388174, 0.9600000455975533, 0.0, 0.0, 0.0, 0.0, 0.0, 1.6483378876715407E9, 0.0, 2022-03-26 18:38:07.671
12.0, -0.18699499778449535, -0.033659099601209164, -4.600076945498586, 29.638707148842514, -0.09600000455975533, 0.4640000220388174, 0.9600000455975533, 0.0, 0.0, 0.0, 0.0, 0.0, 1.6483378876715407E9, 0.0, 2022-03-26 18:38:07.671
13.0, -4.356983448378742, -2.617929968982935, -0.4375682948157191, 11.69466716144234, -0.09600000455975533, 0.4640000220388174, 0.9600000455975533, 0.0, 0.0, 0.0, 0.0, 0.0, 1.6483378876722767E9, 0.0, 2022-03-26 18:38:07.672
13.0, -4.379422848112881, -8.07444400433451, -14.937160423025489, -4.188687950372696, -0.09600000455975533, 0.4640000220388174, 0.9600000455975533, 0.0, 0.0, 0.0, 0.0, 0.0, 1.6483378876722767E9, 0.0, 2022-03-26 18:38:07.672
14.0, -5.3742362363263965, -8.089403604157269, -19.140807973220944, 8.317537501454353, -0.09600000455975533, 0.4640000220388174, 0.9600000455975533, 0.0, 0.0, 0.0, 0.0, 0.0, 1.6483378876860096E9, 0.0, 2022-03-26 18:38:07.686
14.0, -3.938114653341472, -5.879122730344534, -5.538791834376752, 15.195213519968092, -0.09600000455975533, 0.4640000220388174, 0.9600000455975533, 0.0, 0.0, 0.0, 0.0, 0.0, 1.6483378876860096E9, 0.0, 2022-03-26 18:38:07.686
15.0, -3.2088341619819403, -8.227779902517796, -5.882862630300224, 13.852589435875416, -0.09600000455975533, 0.4640000220388174, 0.9600000455975533, 0.0, 0.0, 0.0, 0.0, 0.0, 1.6483378877015789E9, 0.0, 2022-03-26 18:38:07.701
15.0, -10.999045769684017, -12.726879549212754, -8.07444400433451, 19.122108473442495, -0.09600000455975533, 0.4640000220388174, 0.9600000455975533, 0.0, 0.0, 0.0, 0.0, 0.0, 1.6483378877015789E9, 0.0, 2022-03-26 18:38:07.701
16.0, -2.8423239663243294, -2.782485567033291, -9.884555582888424, 17.633628291077912, -0.09600000455975533, 0.4640000220388174, 0.9600000455975533, 0.0, 0.0, 0.0, 0.0, 0.0, 1.6483378877023308E9, 0.0, 2022-03-26 18:38:07.702
16.0, 7.65931510925293, 5.4527741353958845, 6.077337427996099, 8.534451698884368, -0.09600000455975533, 0.4640000220388174, 0.9600000455975533, 0.0, 0.0, 0.0, 0.0, 0.0, 1.6483378877023308E9, 0.0, 2022-03-26 18:38:07.702
17.0, 11.324417065829039, 1.3127048844471574, -4.155028850771487, 34.0891880961135, -0.09600000455975533, 0.4640000220388174, 0.9600000455975533, 0.0, 0.0, 0.0, 0.0, 0.0, 1.648337887715908E9, 0.0, 2022-03-26 18:38:07.715
17.0, 11.556290863081813, -2.4271950712427497, 2.7076875679194927, 4.8506502425298095, -0.09600000455975533, 0.4640000220388174, 0.9600000455975533, 0.0, 0.0, 0.0, 0.0, 0.0, 1.648337887715908E9, 0.0, 2022-03-26 18:38:07.715
18.0, 5.527572134509683, -11.866702559404075, -0.3590303957462311, 23.568849520757794, -0.09600000455975533, 0.4640000220388174, 0.9600000455975533, 0.0, 0.0, 0.0, 0.0, 0.0, 1.648337887731568E9, 0.0, 2022-03-26 18:38:07.731
18.0, 10.022931881248951, -3.4481877591460943, -5.561231234110892, 26.747764483094215, -0.09600000455975533, 0.4640000220388174, 0.9600000455975533, 0.0, 0.0, 0.0, 0.0, 0.0, 1.648337887731568E9, 0.0, 2022-03-26 18:38:07.731
19.0, 13.201846843585372, 1.6268564807251096, -2.733866867609322, 25.450019198469818, -0.09600000455975533, 0.4640000220388174, 0.9600000455975533, 0.0, 0.0, 0.0, 0.0, 0.0, 1.6483378877322698E9, 0.0, 2022-03-26 18:38:07.732
19.0, 8.523231999017298, 9.809757583774626, -14.383655229583383, 27.282570176757872, -0.09600000455975533, 0.4640000220388174, 0.9600000455975533, 0.0, 0.0, 0.0, 0.0, 0.0, 1.6483378877322698E9, 0.0, 2022-03-26 18:38:07.732
20.0, 11.492712563835084, 2.128003074787557, -9.936914182268083, 22.660053831525147, -0.09600000455975533, 0.4640000220388174, 0.944000044837594, 0.0, 0.0, 0.0, 0.0, 0.0, 1.6483378877458968E9, 0.0, 2022-03-26 18:38:07.745
20.0, 8.05574450455606, -0.7928587906062603, 4.555198146030307, 29.470411650836468, -0.09600000455975533, 0.4640000220388174, 0.944000044837594, 0.0, 0.0, 0.0, 0.0, 0.0, 1.6483378877458968E9, 0.0, 2022-03-26 18:38:07.745
21.0, 3.347210460342467, -1.9597075767815113, -2.4683339707553387, 30.65222003683448, -0.09600000455975533, 0.3840000182390213, 0.944000044837594, 0.0, 0.0, 0.0, 0.0, 0.0, 1.6483378877615244E9, 0.0, 2022-03-26 18:38:07.761
21.0, 6.271812225691974, -9.181454391218722, -2.1205232748761773, 32.25663711782545, -0.09600000455975533, 0.3840000182390213, 0.944000044837594, 0.0, 0.0, 0.0, 0.0, 0.0, 1.6483378877615244E9, 0.0, 2022-03-26 18:38:07.761
22.0, 10.539038075134158, 3.257452861405909, -2.569311269558966, 38.69674484152347, -0.03200000151991844, 0.3840000182390213, 0.944000044837594, 0.0, 0.0, 0.0, 0.0, 0.0, 1.6483378877622428E9, 0.0, 2022-03-26 18:38:07.762
22.0, -0.7105809915810823, 1.6605155803263187, -4.319584448821843, 27.888433969579637, -0.03200000151991844, 0.3840000182390213, 0.944000044837594, 0.0, 0.0, 0.0, 0.0, 0.0, 1.6483378877622428E9, 0.0, 2022-03-26 18:38:07.762
23.0, 4.936667941510677, 13.803970736451447, -4.914228541776538, 33.93211229797453, -0.03200000151991844, 0.3840000182390213, 0.944000044837594, 0.0, 0.0, 0.0, 0.0, 0.0, 1.6483378877759027E9, 0.0, 2022-03-26 18:38:07.775
23.0, 5.486433234997094, 10.221146578900516, -4.211127350106835, 45.630519359372556, -0.03200000151991844, 0.3840000182390213, 0.944000044837594, 0.0, 0.0, 0.0, 0.0, 0.0, 1.6483378877759027E9, 0.0, 2022-03-26 18:38:07.775
24.0, 16.84450940042734, 5.430334735661745, 7.7864717077463865, 55.328079944476485, -0.03200000151991844, 0.3840000182390213, 0.944000044837594, 0.0, 0.0, 0.0, 0.0, 0.0, 1.6483378877915921E9, 0.0, 2022-03-26 18:38:07.791
24.0, 15.569203515537083, 11.619869162328541, -10.86814927123487, 40.16278562415391, -0.03200000151991844, 0.3840000182390213, 0.944000044837594, 0.0, 0.0, 0.0, 0.0, 0.0, 1.6483378877915921E9, 0.0, 2022-03-26 18:38:07.791
25.0, 12.233212755061686, 6.42514812387526, -25.70433239545673, 15.640261614695191, -0.03200000151991844, 0.3840000182390213, 0.944000044837594, 0.0, 0.0, 0.0, 0.0, 0.0, 1.6483378877922647E9, 0.0, 2022-03-26 18:38:07.792
25.0, 12.50996535178274, 2.7600461672991514, -5.21716043818742, 28.860807958059013, -0.03200000151991844, 0.3840000182390213, 0.944000044837594, 0.0, 0.0, 0.0, 0.0, 0.0, 1.6483378877922647E9, 0.0, 2022-03-26 18:38:07.792
26.0, 17.872981888242066, 14.86984222382307, 6.5410850225016475, 58.555613606236875, -0.03200000151991844, 0.3840000182390213, 0.944000044837594, 0.0, 0.0, 0.0, 0.0, 0.0, 1.6483378878058517E9, 0.0, 2022-03-26 18:38:07.805
26.0, 25.132127702236176, 12.820377048105001, 16.08530970942229, 52.60917267668992, -0.03200000151991844, 0.3840000182390213, 0.944000044837594, 0.0, 0.0, 0.0, 0.0, 0.0, 1.6483378878058517E9, 0.0, 2022-03-26 18:38:07.805
27.0, 21.238891848362982, 9.102916492149234, 24.10365521442145, 66.24484791513532, -0.03200000151991844, 0.3840000182390213, 0.944000044837594, 0.0, 0.0, 0.0, 0.0, 0.0, 1.6483378878214889E9, 0.0, 2022-03-26 18:38:07.821
27.0, 16.762231601402164, 3.657622156664729, 21.149134249426425, 68.42894948925823, -0.03200000151991844, 0.3840000182390213, 0.944000044837594, 0.0, 0.0, 0.0, 0.0, 0.0, 1.6483378878214889E9, 0.0, 2022-03-26 18:38:07.821
28.0, 17.6747671905905, 12.47256635222584, 23.613728320226073, 71.72380135022104, -0.03200000151991844, 0.3840000182390213, 0.944000044837594, 0.0, 0.0, 0.0, 0.0, 0.0, 1.6483378878222356E9, 0.0, 2022-03-26 18:38:07.822
28.0, 28.22502496559173, 11.107502868399024, 45.92223155591637, 88.99091944564134, -0.03200000151991844, 0.3840000182390213, 0.944000044837594, 0.0, 0.0, 0.0, 0.0, 0.0, 1.6483378878222356E9, 0.0, 2022-03-26 18:38:07.822
29.0, 29.302116152830422, 5.348056936636567, 65.20141582749784, 90.50183902774006, -0.03200000151991844, 0.3840000182390213, 0.944000044837594, 0.0, 0.0, 0.0, 0.0, 0.0, 1.648337887835839E9, 0.0, 2022-03-26 18:38:07.835
29.0, 27.862254669889808, -2.9246017653495073, 65.65394372213632, 86.39542887639254, -0.03200000151991844, 0.3840000182390213, 0.944000044837594, 0.0, 0.0, 0.0, 0.0, 0.0, 1.648337887835839E9, 0.0, 2022-03-26 18:38:07.835
30.0, 33.38982680439949, 4.757152743637562, 65.47068862430751, 94.62694867886603, -0.03200000151991844, 0.3840000182390213, 0.9600000455975533, 0.0, 0.0, 0.0, 0.0, 0.0, 1.648337887851542E9, 0.0, 2022-03-26 18:38:07.851
30.0, 31.01873023249209, 7.554597910493612, 49.87904570903629, 93.35164279397577, -0.03200000151991844, 0.3840000182390213, 0.9600000455975533, 0.0, 0.0, 0.0, 0.0, 0.0, 1.648337887851542E9, 0.0, 2022-03-26 18:38:07.851
31.0, 19.181946872733533, -3.4369680592790246, 43.47633698489517, 79.9665408525616, -0.03200000151991844, 0.41600001975893974, 0.9600000455975533, 0.0, 0.0, 0.0, 0.0, 0.0, 1.6483378878522964E9, 0.0, 2022-03-26 18:38:07.852
31.0, 14.89228162355721, -12.670781049877405, 43.07242778968066, 68.71318188589066, -0.03200000151991844, 0.41600001975893974, 0.9600000455975533, 0.0, 0.0, 0.0, 0.0, 0.0, 1.6483378878522964E9, 0.0, 2022-03-26 18:38:07.852
32.0, 19.522277768701315, -9.533004987053573, 40.63401301857084, 75.258006808348, -0.01600000075995922, 0.41600001975893974, 0.9600000455975533, 0.0, 0.0, 0.0, 0.0, 0.0, 1.648337887865873E9, 0.0, 2022-03-26 18:38:07.865
32.0, 16.358322406187654, -14.192920331843197, 40.394659421406686, 71.97063474729657, -0.01600000075995922, 0.41600001975893974, 0.9600000455975533, 0.0, 0.0, 0.0, 0.0, 0.0, 1.648337887865873E9, 0.0, 2022-03-26 18:38:07.865
33.0, 12.812897248193622, -27.230211577378213, 34.848387787118554, 36.31068866979331, -0.01600000075995922, 0.41600001975893974, 0.9600000455975533, 0.0, 0.0, 0.0, 0.0, 0.0, 1.6483378878815384E9, 0.0, 2022-03-26 18:38:07.881
33.0, 11.040184669196606, -28.052989567629993, 25.442539398558438, 61.382977972738445, -0.01600000075995922, 0.41600001975893974, 0.9600000455975533, 0.0, 0.0, 0.0, 0.0, 0.0, 1.6483378878815384E9, 0.0, 2022-03-26 18:38:07.881
34.0, 4.7683724435046315, -14.07698343321681, 22.768510930240154, 57.54210071824491, -0.01600000075995922, 0.41600001975893974, 0.9600000455975533, 0.0, 0.0, 0.0, 0.0, 0.0, 1.6483378878822856E9, 0.0, 2022-03-26 18:38:07.882
34.0, 9.888295482844114, -18.14973448496312, 21.605402044020593, 42.25712959934026, -0.01600000075995922, 0.41600001975893974, 0.9600000455975533, 0.0, 0.0, 0.0, 0.0, 0.0, 1.6483378878822856E9, 0.0, 2022-03-26 18:38:07.882
35.0, 4.686094644479454, -24.006417815573514, 6.571004222147167, 47.91933813225478, -0.01600000075995922, 0.41600001975893974, 0.9600000455975533, 0.0, 0.0, 0.0, 0.0, 0.0, 1.6483378878959372E9, 0.0, 2022-03-26 18:38:07.895
35.0, 1.4735205825418234, -27.34988837596029, 15.408387817442417, 49.134805617854, -0.01600000075995922, 0.41600001975893974, 0.9600000455975533, 0.0, 0.0, 0.0, 0.0, 0.0, 1.6483378878959372E9, 0.0, 2022-03-26 18:38:07.895
36.0, 2.2289803735911846, -25.132127702236176, 20.288957259617746, 55.90028463769704, -0.01600000075995922, 0.41600001975893974, 0.9600000455975533, 0.0, 0.0, 0.0, 0.0, 0.0, 1.648337887911548E9, 0.0, 2022-03-26 18:38:07.911
36.0, -3.2911119610071182, -24.91895340476185, 10.135128879919648, 42.877952991984785, -0.01600000075995922, 0.41600001975893974, 0.9600000455975533, 0.0, 0.0, 0.0, 0.0, 0.0, 1.648337887911548E9, 0.0, 2022-03-26 18:38:07.911
37.0, -5.075044239871204, -30.92897263355553, 7.169388215057552, 41.81956130452454, -0.01600000075995922, 0.41600001975893974, 0.9600000455975533, 0.0, 0.0, 0.0, 0.0, 0.0, 1.6483378879122763E9, 0.0, 2022-03-26 18:38:07.912
37.0, -0.8938360894098878, -27.103054978884757, 11.948980358429253, 37.85900725144893, -0.01600000075995922, 0.41600001975893974, 0.9600000455975533, 0.0, 0.0, 0.0, 0.0, 0.0, 1.6483378879122763E9, 0.0, 2022-03-26 18:38:07.912
38.0, 5.262039237655699, -26.003524391911924, 2.9208618653938174, 34.436998791992664, -0.01600000075995922, 0.41600001975893974, 0.9600000455975533, 0.0, 0.0, 0.0, 0.0, 0.0, 1.648337887925849E9, 0.0, 2022-03-26 18:38:07.925
38.0, 1.3837629836052656, -21.7138591427356, 10.587656774558127, 56.4724893309176, -0.01600000075995922, 0.41600001975893974, 0.9600000455975533, 0.0, 0.0, 0.0, 0.0, 0.0, 1.648337887925849E9, 0.0, 2022-03-26 18:38:07.925
39.0, 6.526125422678888, -26.347595187835395, 9.2637321902439, 51.79387448634952, -0.01600000075995922, 0.41600001975893974, 0.9600000455975533, 0.0, 0.0, 0.0, 0.0, 0.0, 1.6483378879415069E9, 0.0, 2022-03-26 18:38:07.941
39.0, 7.367602912709117, -21.440846445970237, 19.574636368080974, 42.34314729832113, -0.01600000075995922, 0.41600001975893974, 0.9600000455975533, 0.0, 0.0, 0.0, 0.0, 0.0, 1.6483378879415069E9, 0.0, 2022-03-26 18:38:07.941
40.0, 1.1406694864854217, -11.466533264145255, 19.608295467682183, 58.82488640304655, -0.01600000075995922, 0.41600001975893974, 0.9760000463575125, 0.0, 0.0, 0.0, 0.0, 0.0, 1.648337887942219E9, 0.0, 2022-03-26 18:38:07.942
40.0, -0.2094343975186348, -23.69974601920694, 0.3291111961007118, 59.97303568944335, -0.01600000075995922, 0.41600001975893974, 0.9760000463575125, 0.0, 0.0, 0.0, 0.0, 0.0, 1.648337887942219E9, 0.0, 2022-03-26 18:38:07.942
41.0, 11.627348962239921, -12.528664851561189, 12.745579048991203, 63.353905249387026, -0.01600000075995922, 0.33600001595914364, 0.9760000463575125, 0.0, 0.0, 0.0, 0.0, 0.0, 1.6483378879560091E9, 0.0, 2022-03-26 18:38:07.956
41.0, 11.533851463347673, -14.86236242391169, 18.92015387583524, 61.58867247030139, -0.01600000075995922, 0.33600001595914364, 0.9760000463575125, 0.0, 0.0, 0.0, 0.0, 0.0, 1.6483378879560091E9, 0.0, 2022-03-26 18:38:07.956
42.0, 12.685740649700165, -11.967679858207703, 7.7864717077463865, 59.015621300786734, 0.01600000075995922, 0.33600001595914364, 0.9760000463575125, 0.0, 0.0, 0.0, 0.0, 0.0, 1.648337887971604E9, 0.0, 2022-03-26 18:38:07.971
42.0, 17.517691392451525, -7.1020700158551335, 10.8943285709247, 70.59809146355838, 0.01600000075995922, 0.33600001595914364, 0.9760000463575125, 0.0, 0.0, 0.0, 0.0, 0.0, 1.648337887971604E9, 0.0, 2022-03-26 18:38:07.971
43.0, 12.543624451383948, -9.877075782977045, 8.07070410437882, 65.89329731930047, 0.01600000075995922, 0.33600001595914364, 0.9760000463575125, 0.0, 0.0, 0.0, 0.0, 0.0, 1.64833788797234E9, 0.0, 2022-03-26 18:38:07.972
43.0, 14.50333202816546, -12.547364351339638, 7.027272016741335, 56.102239235304296, 0.01600000075995922, 0.33600001595914364, 0.9760000463575125, 0.0, 0.0, 0.0, 0.0, 0.0, 1.64833788797234E9, 0.0, 2022-03-26 18:38:07.972
44.0, 10.04537128098309, -9.63772218581289, 14.49585222825408, 57.98340891301632, 0.01600000075995922, 0.33600001595914364, 0.9760000463575125, 0.0, 0.0, 0.0, 0.0, 0.0, 1.6483378879858708E9, 0.0, 2022-03-26 18:38:07.985
44.0, 16.193766808137298, -9.787318184040487, 10.654974973760545, 55.42905724328011, 0.01600000075995922, 0.33600001595914364, 0.9760000463575125, 0.0, 0.0, 0.0, 0.0, 0.0, 1.6483378879858708E9, 0.0, 2022-03-26 18:38:07.985
45.0, 18.755598277784884, -9.764878784306347, 12.199553655460477, 53.20755666960031, 0.01600000075995922, 0.33600001595914364, 0.9760000463575125, 0.0, 0.0, 0.0, 0.0, 0.0, 1.6483378880015988E9, 0.0, 2022-03-26 18:38:08.001
45.0, 12.020038457587361, -16.201246608048677, 12.132235456258059, 37.33916115760803, 0.01600000075995922, 0.33600001595914364, 0.9760000463575125, 0.0, 0.0, 0.0, 0.0, 0.0, 1.6483378880015988E9, 0.0, 2022-03-26 18:38:08.001
46.0, 9.203893790952861, -21.829796041361988, 6.728080020286143, 41.83826080430299, 0.01600000075995922, 0.33600001595914364, 0.9760000463575125, 0.0, 0.0, 0.0, 0.0, 0.0, 1.6483378880023043E9, 0.0, 2022-03-26 18:38:08.002
46.0, 5.587410533800721, -5.763185831718147, -2.6815082682296634, 41.05288181360811, 0.01600000075995922, 0.33600001595914364, 0.9760000463575125, 0.0, 0.0, 0.0, 0.0, 0.0, 1.6483378880023043E9, 0.0, 2022-03-26 18:38:08.002
47.0, 7.9472874058410525, -10.101469780318439, -4.319584448821843, 38.36015384551138, 0.01600000075995922, 0.33600001595914364, 0.9760000463575125, 0.0, 0.0, 0.0, 0.0, 0.0, 1.6483378880158553E9, 0.0, 2022-03-26 18:38:08.015
47.0, 9.551704486832023, -18.96877257525921, -3.2836321610957384, 26.003524391911924, 0.01600000075995922, 0.33600001595914364, 0.9760000463575125, 0.0, 0.0, 0.0, 0.0, 0.0, 1.6483378880158553E9, 0.0, 2022-03-26 18:38:08.015
48.0, 0.3590303957462311, -20.015944562852383, -3.6464024567976594, 30.98507113289088, 0.01600000075995922, 0.33600001595914364, 0.9760000463575125, 0.0, 0.0, 0.0, 0.0, 0.0, 1.648337888031558E9, 0.0, 2022-03-26 18:38:08.031
48.0, 6.757999219931662, -20.311396659351885, -21.919553640298545, 18.340469382703304, 0.01600000075995922, 0.33600001595914364, 0.9760000463575125, 0.0, 0.0, 0.0, 0.0, 0.0, 1.648337888031558E9, 0.0, 2022-03-26 18:38:08.031
49.0, 10.767171972431242, -25.835228893905878, -8.126802603714168, 17.65232779085636, 0.01600000075995922, 0.33600001595914364, 0.9760000463575125, 0.0, 0.0, 0.0, 0.0, 0.0, 1.6483378880322893E9, 0.0, 2022-03-26 18:38:08.032
49.0, 5.295698337256908, -15.29619081877172, -5.276998837478459, 25.996044592000544, 0.01600000075995922, 0.33600001595914364, 0.9760000463575125, 0.0, 0.0, 0.0, 0.0, 0.0, 1.6483378880322893E9, 0.0, 2022-03-26 18:38:08.032
50.0, -11.081323568709195, -20.09074256196618, -14.813743724487722, 19.428780269809067, 0.01600000075995922, 0.33600001595914364, 0.944000044837594, 0.0, 0.0, 0.0, 0.0, 0.0, 1.6483378880458705E9, 0.0, 2022-03-26 18:38:08.045
50.0, 8.46713349968195, -19.024871074594557, -15.617822214961052, 23.875521317124367, 0.01600000075995922, 0.33600001595914364, 0.944000044837594, 0.0, 0.0, 0.0, 0.0, 0.0, 1.6483378880458705E9, 0.0, 2022-03-26 18:38:08.045
51.0, 10.04537128098309, -20.438553257845342, -8.123062703758478, 16.751011901535094, 0.01600000075995922, 0.41600001975893974, 0.944000044837594, 0.0, 0.0, 0.0, 0.0, 0.0, 1.648337888077916E9, 0.0, 2022-03-26 18:38:08.077
51.0, 7.042231616564095, -26.14190069027245, -13.65437473822385, 3.508026158437133, 0.01600000075995922, 0.41600001975893974, 0.944000044837594, 0.0, 0.0, 0.0, 0.0, 0.0, 1.648337888077916E9, 0.0, 2022-03-26 18:38:08.077
52.0, 4.962847241200507, -31.7928895233199, -16.399461305700243, -2.973220464773476, -0.01600000075995922, 0.41600001975893974, 0.944000044837594, 0.0, 0.0, 0.0, 0.0, 0.0, 1.6483378880787098E9, 0.0, 2022-03-26 18:38:08.078
52.0, 3.9343747533857822, -33.31876870524138, -17.77574448939413, 16.279784507118165, -0.01600000075995922, 0.41600001975893974, 0.944000044837594, 0.0, 0.0, 0.0, 0.0, 0.0, 1.6483378880787098E9, 0.0, 2022-03-26 18:38:08.078
53.0, 3.100377063266933, -14.47341282851994, -19.125848373398185, 15.27001151908189, -0.01600000075995922, 0.41600001975893974, 0.944000044837594, 0.0, 0.0, 0.0, 0.0, 0.0, 1.648337888079452E9, 0.0, 2022-03-26 18:38:08.079
53.0, 6.4588072234764695, -13.205586743541062, -25.188226201571524, 17.588749491609633, -0.01600000075995922, 0.41600001975893974, 0.944000044837594, 0.0, 0.0, 0.0, 0.0, 0.0, 1.648337888079452E9, 0.0, 2022-03-26 18:38:08.079
54.0, 3.0704578636214137, -19.885048064403236, -23.38559442292899, 12.375328953377903, -0.01600000075995922, 0.41600001975893974, 0.944000044837594, 0.0, 0.0, 0.0, 0.0, 0.0, 1.648337888080206E9, 0.0, 2022-03-26 18:38:08.080
54.0, 2.614190069027245, -21.620361643843353, -13.100869544781744, 9.357229689136147, -0.01600000075995922, 0.41600001975893974, 0.944000044837594, 0.0, 0.0, 0.0, 0.0, 0.0, 1.648337888080206E9, 0.0, 2022-03-26 18:38:08.080
55.0, 3.5678645577281713, -20.16554056107998, -29.40309345163405, 15.965632910840213, -0.01600000075995922, 0.41600001975893974, 0.944000044837594, 0.0, 0.0, 0.0, 0.0, 0.0, 1.6483378880909877E9, 0.0, 2022-03-26 18:38:08.090
55.0, 7.730373208411038, -22.416960334405303, -23.520230821333826, 7.954767205752432, -0.01600000075995922, 0.41600001975893974, 0.944000044837594, 0.0, 0.0, 0.0, 0.0, 0.0, 1.6483378880909877E9, 0.0, 2022-03-26 18:38:08.090
56.0, 3.1190765630453825, -17.36809539422393, -19.27918427158147, 10.254805678501725, -0.01600000075995922, 0.41600001975893974, 0.944000044837594, 0.0, 0.0, 0.0, 0.0, 0.0, 1.6483378881058795E9, 0.0, 2022-03-26 18:38:08.105
56.0, 6.264332425780594, -12.670781049877405, -25.35278179962188, 12.91387454699725, -0.01600000075995922, 0.41600001975893974, 0.944000044837594, 0.0, 0.0, 0.0, 0.0, 0.0, 1.6483378881058795E9, 0.0, 2022-03-26 18:38:08.105
57.0, -1.1070103868842125, -17.465332793071866, -31.542316226288676, 16.05165060982108, -0.01600000075995922, 0.41600001975893974, 0.944000044837594, 0.0, 0.0, 0.0, 0.0, 0.0, 1.6483378881379309E9, 0.0, 2022-03-26 18:38:08.137
57.0, 4.0428318521007895, -16.418160805478692, -25.678153095766902, 5.104963439516723, -0.01600000075995922, 0.41600001975893974, 0.944000044837594, 0.0, 0.0, 0.0, 0.0, 0.0, 1.6483378881379309E9, 0.0, 2022-03-26 18:38:08.137
58.0, 11.459053464233875, -23.651127319782972, -13.467379740439355, 11.70214696135372, -0.01600000075995922, 0.41600001975893974, 0.944000044837594, 0.0, 0.0, 0.0, 0.0, 0.0, 1.6483378881386676E9, 0.0, 2022-03-26 18:38:08.138
58.0, 8.504532499238849, -17.988918786868453, -20.707826054655015, 21.968172339722514, -0.01600000075995922, 0.41600001975893974, 0.944000044837594, 0.0, 0.0, 0.0, 0.0, 0.0, 1.6483378881386676E9, 0.0, 2022-03-26 18:38:08.138
59.0, 13.433720640838146, -13.190627143718302, -19.223085772246122, 22.10654863808304, -0.01600000075995922, 0.41600001975893974, 0.944000044837594, 0.0, 0.0, 0.0, 0.0, 0.0, 1.648337888139416E9, 0.0, 2022-03-26 18:38:08.139
59.0, 7.158168515190482, -16.50043860450387, -6.85897651873529, 19.189426672644913, -0.01600000075995922, 0.41600001975893974, 0.944000044837594, 0.0, 0.0, 0.0, 0.0, 0.0, 1.648337888139416E9, 0.0, 2022-03-26 18:38:08.139
60.0, 10.606356274336576, -15.516844916157424, -8.654128497466445, 19.941146563738585, -0.01600000075995922, 0.41600001975893974, 0.944000044837594, 0.0, 0.0, 0.0, 0.0, 0.0, 1.6483378881402824E9, 0.0, 2022-03-26 18:38:08.140
60.0, 9.791058083996177, -10.310904177837074, -11.634828762151301, 21.223932248540223, -0.01600000075995922, 0.41600001975893974, 0.944000044837594, 0.0, 0.0, 0.0, 0.0, 0.0, 1.6483378881402824E9, 0.0, 2022-03-26 18:38:08.140
61.0, 10.651235073804855, -11.085063468664885, -17.68972679041326, 9.600323186255991, -0.01600000075995922, 0.35200001671910286, 0.944000044837594, 0.0, 0.0, 0.0, 0.0, 0.0, 1.6483378881510012E9, 0.0, 2022-03-26 18:38:08.151
61.0, 12.408988052979112, -19.64943436719477, -25.74921119492501, 14.810003824532032, -0.01600000075995922, 0.35200001671910286, 0.944000044837594, 0.0, 0.0, 0.0, 0.0, 0.0, 1.6483378881510012E9, 0.0, 2022-03-26 18:38:08.151
62.0, 16.09652940928936, -18.07119658589363, -13.527218139730394, 34.87830698676407, -0.03200000151991844, 0.35200001671910286, 0.944000044837594, 0.0, 0.0, 0.0, 0.0, 0.0, 1.6483378881659665E9, 0.0, 2022-03-26 18:38:08.165
62.0, 18.239492083899677, -10.165048079565167, -8.893482094630599, 38.5359291434288, -0.03200000151991844, 0.35200001671910286, 0.944000044837594, 0.0, 0.0, 0.0, 0.0, 0.0, 1.6483378881659665E9, 0.0, 2022-03-26 18:38:08.165
63.0, 17.102562497369945, -9.443247388117015, -11.515151963569224, 24.97131200414151, -0.03200000151991844, 0.35200001671910286, 0.944000044837594, 0.0, 0.0, 0.0, 0.0, 0.0, 1.6483378881815696E9, 0.0, 2022-03-26 18:38:08.181
63.0, 13.527218139730394, -20.98457865137607, -18.55738358013332, 12.8951750472188, -0.03200000151991844, 0.35200001671910286, 0.944000044837594, 0.0, 0.0, 0.0, 0.0, 0.0, 1.6483378881815696E9, 0.0, 2022-03-26 18:38:08.181
64.0, 20.655467455275357, 0.9686340885236859, -3.2387533616274595, 27.37980757560581, -0.03200000151991844, 0.35200001671910286, 0.944000044837594, 0.0, 0.0, 0.0, 0.0, 0.0, 1.6483378881822248E9, 0.0, 2022-03-26 18:38:08.182
64.0, 10.740992672741413, -2.288818772882223, -2.460854170843959, 22.6039553321898, -0.03200000151991844, 0.35200001671910286, 0.944000044837594, 0.0, 0.0, 0.0, 0.0, 0.0, 1.6483378881822248E9, 0.0, 2022-03-26 18:38:08.182
65.0, 13.530958039686084, -9.585363586433232, 8.972019993700087, 37.271842958405614, -0.03200000151991844, 0.35200001671910286, 0.944000044837594, 0.0, 0.0, 0.0, 0.0, 0.0, 1.6483378881958773E9, 0.0, 2022-03-26 18:38:08.195
65.0, 14.028364733792841, -13.66933433804661, 17.891681388020515, 48.917891420423985, -0.03200000151991844, 0.35200001671910286, 0.944000044837594, 0.0, 0.0, 0.0, 0.0, 0.0, 1.6483378881958773E9, 0.0, 2022-03-26 18:38:08.195
66.0, 16.9342669993639, -11.548811063170433, 18.13103498518467, 51.98460938408971, -0.03200000151991844, 0.35200001671910286, 0.944000044837594, 0.0, 0.0, 0.0, 0.0, 0.0, 1.6483378882115386E9, 0.0, 2022-03-26 18:38:08.211
66.0, 15.943193511106074, -5.306918037123978, 11.945240458473563, 51.12443239428103, -0.03200000151991844, 0.35200001671910286, 0.944000044837594, 0.0, 0.0, 0.0, 0.0, 0.0, 1.6483378882115386E9, 0.0, 2022-03-26 18:38:08.211
67.0, 20.378714858554304, -1.5408387817442417, 10.352043077349663, 53.57406686525792, -0.03200000151991844, 0.35200001671910286, 0.944000044837594, 0.0, 0.0, 0.0, 0.0, 0.0, 1.6483378882122643E9, 0.0, 2022-03-26 18:38:08.212
67.0, 19.25674487184733, -5.164801838807762, 8.953320493921638, 52.05192758329213, -0.03200000151991844, 0.35200001671910286, 0.944000044837594, 0.0, 0.0, 0.0, 0.0, 0.0, 1.6483378882122643E9, 0.0, 2022-03-26 18:38:08.212
68.0, 13.545917639508843, -12.610942650586367, 5.722046932205558, 40.69385141786188, -0.03200000151991844, 0.35200001671910286, 0.944000044837594, 0.0, 0.0, 0.0, 0.0, 0.0, 1.6483378882259347E9, 0.0, 2022-03-26 18:38:08.225
68.0, 23.131281225942075, -8.111843003891408, 11.732066160999238, 52.64657167624682, -0.03200000151991844, 0.35200001671910286, 0.944000044837594, 0.0, 0.0, 0.0, 0.0, 0.0, 1.6483378882259347E9, 0.0, 2022-03-26 18:38:08.225
69.0, 18.669580578804016, -14.89228162355721, 5.983839929103851, 32.395013416185975, -0.03200000151991844, 0.35200001671910286, 0.944000044837594, 0.0, 0.0, 0.0, 0.0, 0.0, 1.6483378882415204E9, 0.0, 2022-03-26 18:38:08.241
69.0, 9.323570589534938, -8.261439002119005, 6.959953817538917, 49.699530511163175, -0.03200000151991844, 0.35200001671910286, 0.944000044837594, 0.0, 0.0, 0.0, 0.0, 0.0, 1.6483378882415204E9, 0.0, 2022-03-26 18:38:08.241
70.0, 15.632781814783812, -9.622762585990131, -4.719753744080663, 52.26884178072214, -0.03200000151991844, 0.35200001671910286, 0.944000044837594, 0.0, 0.0, 0.0, 0.0, 0.0, 1.6483378882422814E9, 0.0, 2022-03-26 18:38:08.242
70.0, 14.301377430558205, -6.933774517849088, 5.2919584373012185, 40.94816461484879, -0.03200000151991844, 0.35200001671910286, 0.944000044837594, 0.0, 0.0, 0.0, 0.0, 0.0, 1.6483378882422814E9, 0.0, 2022-03-26 18:38:08.242
71.0, 10.47545977588743, -12.322970353998244, 5.392935736104846, 32.22297801822424, -0.03200000151991844, 0.3840000182390213, 0.944000044837594, 0.0, 0.0, 0.0, 0.0, 0.0, 1.6483378882559001E9, 0.0, 2022-03-26 18:38:08.255
71.0, 10.019191981293261, -18.310550183057785, 1.690434779971838, 38.25543664675206, -0.03200000151991844, 0.3840000182390213, 0.944000044837594, 0.0, 0.0, 0.0, 0.0, 0.0, 1.6483378882559001E9, 0.0, 2022-03-26 18:38:08.255
72.0, 11.040184669196606, -3.3621700601652265, -1.8288110783323646, 51.22166979312897, -0.03200000151991844, 0.3840000182390213, 0.944000044837594, 0.0, 0.0, 0.0, 0.0, 0.0, 1.64833788827165E9, 0.0, 2022-03-26 18:38:08.271
72.0, 3.7660792553797364, -5.23959983792156, -7.161908415146172, 46.01572905480862, -0.03200000151991844, 0.3840000182390213, 0.944000044837594, 0.0, 0.0, 0.0, 0.0, 0.0, 1.64833788827165E9, 0.0, 2022-03-26 18:38:08.271
73.0, 1.4660407826304436, -11.589949962683022, -5.550011534243822, 29.885540545918047, -0.03200000151991844, 0.3840000182390213, 0.944000044837594, 0.0, 0.0, 0.0, 0.0, 0.0, 1.648337888272376E9, 0.0, 2022-03-26 18:38:08.272
73.0, -5.067564439959824, -14.032104633748531, 0.35155059583485126, 23.482831821776927, -0.03200000151991844, 0.3840000182390213, 0.944000044837594, 0.0, 0.0, 0.0, 0.0, 0.0, 1.648337888272376E9, 0.0, 2022-03-26 18:38:08.272
74.0, 8.06696420442313, -2.2402000734582543, -0.17203539796173573, 48.944070720113814, -0.03200000151991844, 0.3840000182390213, 0.944000044837594, 0.0, 0.0, 0.0, 0.0, 0.0, 1.6483378882858605E9, 0.0, 2022-03-26 18:38:08.285
74.0, 7.094590215943754, 0.39268949534744024, 5.9352212296798825, 52.26510188076645, -0.03200000151991844, 0.3840000182390213, 0.944000044837594, 0.0, 0.0, 0.0, 0.0, 0.0, 1.6483378882858605E9, 0.0, 2022-03-26 18:38:08.285
75.0, 6.698160820640624, -4.83569064270705, -2.539392069913447, 42.032735601998866, -0.03200000151991844, 0.3840000182390213, 0.944000044837594, 0.0, 0.0, 0.0, 0.0, 0.0, 1.6483378883015835E9, 0.0, 2022-03-26 18:38:08.301
75.0, 14.293897630646825, -14.91098112333566, -2.984440164640546, 46.25508265197277, -0.03200000151991844, 0.3840000182390213, 0.944000044837594, 0.0, 0.0, 0.0, 0.0, 0.0, 1.6483378883015835E9, 0.0, 2022-03-26 18:38:08.301
76.0, 7.9061485063284636, -7.674274709075689, -4.629996145144105, 37.256883358582854, -0.03200000151991844, 0.3840000182390213, 0.944000044837594, 0.0, 0.0, 0.0, 0.0, 0.0, 1.6483378883023295E9, 0.0, 2022-03-26 18:38:08.302
76.0, 8.650388597510755, 1.9971065763384104, -17.910380887798965, 33.991950697265565, -0.03200000151991844, 0.3840000182390213, 0.944000044837594, 0.0, 0.0, 0.0, 0.0, 0.0, 1.6483378883023295E9, 0.0, 2022-03-26 18:38:08.302
77.0, 12.005078857764602, -3.2350134616717696, -0.7778991907835007, 39.291388934478164, -0.03200000151991844, 0.3840000182390213, 0.944000044837594, 0.0, 0.0, 0.0, 0.0, 0.0, 1.6483378883159187E9, 0.0, 2022-03-26 18:38:08.315
77.0, 14.357475929893553, -11.66848786175251, 2.086864175274968, 49.60229311231524, -0.03200000151991844, 0.3840000182390213, 0.944000044837594, 0.0, 0.0, 0.0, 0.0, 0.0, 1.6483378883159187E9, 0.0, 2022-03-26 18:38:08.315
78.0, 12.0424778573215, -11.65352826192975, 1.163108886219561, 25.442539398558438, -0.03200000151991844, 0.3840000182390213, 0.944000044837594, 0.0, 0.0, 0.0, 0.0, 0.0, 1.6483378883318672E9, 0.0, 2022-03-26 18:38:08.331
78.0, 7.853789906948805, -22.057929938659072, 4.903008841909468, 31.968664821237326, -0.03200000151991844, 0.3840000182390213, 0.944000044837594, 0.0, 0.0, 0.0, 0.0, 0.0, 1.6483378883318672E9, 0.0, 2022-03-26 18:38:08.331
79.0, 6.2194536263123155, -5.24707963783294, -14.611789126880467, 43.15096568875015, -0.03200000151991844, 0.3840000182390213, 0.944000044837594, 0.0, 0.0, 0.0, 0.0, 0.0, 1.6483378883322978E9, 0.0, 2022-03-26 18:38:08.332
79.0, 0.14211619831621647, 6.088557127863169, -5.778145431540906, 40.51059632003307, -0.03200000151991844, 0.3840000182390213, 0.944000044837594, 0.0, 0.0, 0.0, 0.0, 0.0, 1.6483378883322978E9, 0.0, 2022-03-26 18:38:08.332
80.0, 2.7563062673434615, 2.741346667520702, 4.716013844124973, 39.91221232712269, -0.03200000151991844, 0.3840000182390213, 0.9600000455975533, 0.0, 0.0, 0.0, 0.0, 0.0, 1.6483378883458626E9, 0.0, 2022-03-26 18:38:08.345
80.0, 14.148041532374918, 0.6956213917583227, -1.365063483826816, 49.8753058090806, -0.03200000151991844, 0.3840000182390213, 0.9600000455975533, 0.0, 0.0, 0.0, 0.0, 0.0, 1.6483378883458626E9, 0.0, 2022-03-26 18:38:08.345
81.0, 7.539638310670853, -13.119569044560194, -21.71759904269129, 31.463778327219188, -0.03200000151991844, 0.35200001671910286, 0.9600000455975533, 0.0, 0.0, 0.0, 0.0, 0.0, 1.648337888361558E9, 0.0, 2022-03-26 18:38:08.361
81.0, 12.259392054751515, -18.269411283545196, -11.724586361087859, 30.764417035505176, -0.03200000151991844, 0.35200001671910286, 0.9600000455975533, 0.0, 0.0, 0.0, 0.0, 0.0, 1.648337888361558E9, 0.0, 2022-03-26 18:38:08.361
82.0, 3.695021156221628, -8.523231999017298, -5.037645240314305, 37.260623258538544, 0.0, 0.35200001671910286, 0.9600000455975533, 0.0, 0.0, 0.0, 0.0, 0.0, 1.648337888362278E9, 0.0, 2022-03-26 18:38:08.362
82.0, 11.833043459802866, -6.286771825514734, -0.38520969543606043, 43.296821787022054, 0.0, 0.35200001671910286, 0.9600000455975533, 0.0, 0.0, 0.0, 0.0, 0.0, 1.648337888362278E9, 0.0, 2022-03-26 18:38:08.362
83.0, 12.996152346022427, -1.847510578110814, -1.7988918786868453, 13.587056539021432, 0.0, 0.35200001671910286, 0.9600000455975533, 0.0, 0.0, 0.0, 0.0, 0.0, 1.6483378883758888E9, 0.0, 2022-03-26 18:38:08.375
83.0, 15.457006516866386, 2.0793843753635883, -2.662808768451214, 44.011142678558826, 0.0, 0.35200001671910286, 0.9600000455975533, 0.0, 0.0, 0.0, 0.0, 0.0, 1.6483378883758888E9, 0.0, 2022-03-26 18:38:08.375
84.0, 15.950673311017454, -9.862116183154285, -7.087110416032374, 52.870965673588216, 0.0, 0.35200001671910286, 0.9600000455975533, 0.0, 0.0, 0.0, 0.0, 0.0, 1.648337888391632E9, 0.0, 2022-03-26 18:38:08.391
84.0, 15.763678313232958, -9.226333190687, 2.8872027657926083, 46.18402455281466, 0.0, 0.35200001671910286, 0.9600000455975533, 0.0, 0.0, 0.0, 0.0, 0.0, 1.648337888391632E9, 0.0, 2022-03-26 18:38:08.391
85.0, 15.748718713410199, -1.409942283295095, -1.6418160805478692, 38.49479024391621, 0.0, 0.35200001671910286, 0.9600000455975533, 0.0, 0.0, 0.0, 0.0, 0.0, 1.6483378883923216E9, 0.0, 2022-03-26 18:38:08.392
85.0, 18.04875718615949, 0.6806617919355631, -1.9971065763384104, 43.9101653797552, 0.0, 0.35200001671910286, 0.9600000455975533, 0.0, 0.0, 0.0, 0.0, 0.0, 1.6483378883923216E9, 0.0, 2022-03-26 18:38:08.392
86.0, 15.445786816999316, -4.562677945941687, -11.66100806184113, 44.059761377982795, 0.0, 0.35200001671910286, 0.9600000455975533, 0.0, 0.0, 0.0, 0.0, 0.0, 1.648337888405982E9, 0.0, 2022-03-26 18:38:08.405
86.0, 2.7525663673877716, -19.080969573929906, -20.94343975186348, 24.683339707553387, 0.0, 0.35200001671910286, 0.9600000455975533, 0.0, 0.0, 0.0, 0.0, 0.0, 1.648337888405982E9, 0.0, 2022-03-26 18:38:08.405
87.0, 17.35687569435686, -1.1780684860423207, -5.6135898334905505, 41.96167750284076, 0.0, 0.35200001671910286, 0.9600000455975533, 0.0, 0.0, 0.0, 0.0, 0.0, 1.6483378884215775E9, 0.0, 2022-03-26 18:38:08.421
87.0, 7.816390907391906, -6.83279721904546, -16.006771810352802, 26.384994187392294, 0.0, 0.35200001671910286, 0.9600000455975533, 0.0, 0.0, 0.0, 0.0, 0.0, 1.6483378884215775E9, 0.0, 2022-03-26 18:38:08.421
88.0, 4.338283948600292, -2.371096571907401, -11.724586361087859, 28.894467057660222, 0.0, 0.35200001671910286, 0.9600000455975533, 0.0, 0.0, 0.0, 0.0, 0.0, 1.648337888422295E9, 0.0, 2022-03-26 18:38:08.422
88.0, 11.720846461132169, -2.7151673678308725, -12.218253155238926, 34.93066558614373, 0.0, 0.35200001671910286, 0.9600000455975533, 0.0, 0.0, 0.0, 0.0, 0.0, 1.648337888422295E9, 0.0, 2022-03-26 18:38:08.422
89.0, 12.274351654574275, 6.327910725027323, -2.4047556715086102, 39.08943433687091, 0.0, 0.35200001671910286, 0.9600000455975533, 0.0, 0.0, 0.0, 0.0, 0.0, 1.648337888435879E9, 0.0, 2022-03-26 18:38:08.435
89.0, 8.84860329516232, 1.6006771810352802, 2.453374370932579, 25.954905692487955, 0.0, 0.35200001671910286, 0.9600000455975533, 0.0, 0.0, 0.0, 0.0, 0.0, 1.648337888435879E9, 0.0, 2022-03-26 18:38:08.435
90.0, 8.209080402739346, 1.6642554802820086, -0.5385455936193466, 24.761877606622875, 0.0, 0.35200001671910286, 0.9760000463575125, 0.0, 0.0, 0.0, 0.0, 0.0, 1.648337888451592E9, 0.0, 2022-03-26 18:38:08.451
90.0, 14.89228162355721, 10.015452081337571, -0.1047171987593174, 38.92113883886486, 0.0, 0.35200001671910286, 0.9760000463575125, 0.0, 0.0, 0.0, 0.0, 0.0, 1.648337888451592E9, 0.0, 2022-03-26 18:38:08.451
91.0, 12.539884551428258, 8.807464395649731, -3.21257406193763, 32.67924581281841, 0.0, 0.3680000174790621, 0.9760000463575125, 0.0, 0.0, 0.0, 0.0, 0.0, 1.6483378884523816E9, 0.0, 2022-03-26 18:38:08.452
91.0, 9.791058083996177, 13.751612137071788, 3.055498263798654, 22.349642135202885, 0.0, 0.3680000174790621, 0.9760000463575125, 0.0, 0.0, 0.0, 0.0, 0.0, 1.6483378884523816E9, 0.0, 2022-03-26 18:38:08.452
92.0, 11.331896865740418, 28.703732159920037, 30.741977635771036, 27.40598687529564, 0.0, 0.3680000174790621, 0.9760000463575125, 0.0, 0.0, 0.0, 0.0, 0.0, 1.6483378884658985E9, 0.0, 2022-03-26 18:38:08.465
92.0, 13.26916504278779, 44.96107726730406, 31.942485521547496, 30.483924538828433, 0.0, 0.3680000174790621, 0.9760000463575125, 0.0, 0.0, 0.0, 0.0, 0.0, 1.6483378884658985E9, 0.0, 2022-03-26 18:38:08.465
93.0, 17.218499395996332, 60.171250387094915, 40.72003071755171, 42.93031159136444, 0.0, 0.3680000174790621, 0.9760000463575125, 0.0, 0.0, 0.0, 0.0, 0.0, 1.6483378884815705E9, 0.0, 2022-03-26 18:38:08.481
93.0, 20.56944975629449, 64.98076173011214, 57.287787521258, 49.89026540890336, 0.0, 0.3680000174790621, 0.9760000463575125, 0.0, 0.0, 0.0, 0.0, 0.0, 1.6483378884815705E9, 0.0, 2022-03-26 18:38:08.481
94.0, 21.811096541583538, 72.71113493852317, 65.02564052958041, 52.919584373012185, 0.0, 0.3680000174790621, 0.9760000463575125, 0.0, 0.0, 0.0, 0.0, 0.0, 1.64833788848229E9, 0.0, 2022-03-26 18:38:08.482
94.0, 24.773097306489944, 76.98210068792105, 85.075244192034, 58.37609840836376, 0.0, 0.3680000174790621, 0.9760000463575125, 0.0, 0.0, 0.0, 0.0, 0.0, 1.64833788848229E9, 0.0, 2022-03-26 18:38:08.482
95.0, 28.5316967619583, 95.31135037075728, 102.42464008647949, 51.9883492840454, 0.0, 0.3680000174790621, 0.9760000463575125, 0.0, 0.0, 0.0, 0.0, 0.0, 1.6483378884959056E9, 0.0, 2022-03-26 18:38:08.495
95.0, 26.13816079031676, 113.01977666094899, 95.13557507283986, 64.71148893330246, 0.0, 0.3680000174790621, 0.9760000463575125, 0.0, 0.0, 0.0, 0.0, 0.0, 1.6483378884959056E9, 0.0, 2022-03-26 18:38:08.495
96.0, 36.34808766935021, 120.2789224749431, 107.98587132059038, 57.396244619973004, 0.0, 0.3680000174790621, 0.9760000463575125, 0.0, 0.0, 0.0, 0.0, 0.0, 1.6483378885115814E9, 0.0, 2022-03-26 18:38:08.511
96.0, 26.4934512861073, 114.44841844402254, 100.64818760752678, 56.78664092719555, 0.0, 0.3680000174790621, 0.9760000463575125, 0.0, 0.0, 0.0, 0.0, 0.0, 1.6483378885115814E9, 0.0, 2022-03-26 18:38:08.511
97.0, 22.9368064282462, 109.81842229887843, 102.17780668940395, 63.63439774606377, 0.0, 0.3680000174790621, 0.9760000463575125, 0.0, 0.0, 0.0, 0.0, 0.0, 1.6483378885123E9, 0.0, 2022-03-26 18:38:08.512
97.0, 25.128387802280486, 108.0120506202802, 89.3761291410774, 59.61026539374143, 0.0, 0.3680000174790621, 0.9760000463575125, 0.0, 0.0, 0.0, 0.0, 0.0, 1.6483378885123E9, 0.0, 2022-03-26 18:38:08.512
98.0, 31.714351624250412, 101.06331650260836, 83.74757970776409, 43.00136969052255, 0.0, 0.3680000174790621, 0.9760000463575125, 0.0, 0.0, 0.0, 0.0, 0.0, 1.6483378885259657E9, 0.0, 2022-03-26 18:38:08.525
98.0, 29.302116152830422, 83.98319340497255, 72.146410045214, 52.69893027562648, 0.0, 0.3680000174790621, 0.9760000463575125, 0.0, 0.0, 0.0, 0.0, 0.0, 1.6483378885259657E9, 0.0, 2022-03-26 18:38:08.525
99.0, 22.813389729708433, 73.70594832673669, 63.353905249387026, 53.738622463308275, 0.0, 0.3680000174790621, 0.9760000463575125, 0.0, 0.0, 0.0, 0.0, 0.0, 1.6483378885415244E9, 0.0, 2022-03-26 18:38:08.541
99.0, 23.71844551898539, 57.732835615985096, 44.58708727173507, 38.057221949100494, 0.0, 0.3680000174790621, 0.9760000463575125, 0.0, 0.0, 0.0, 0.0, 0.0, 1.6483378885415244E9, 0.0, 2022-03-26 18:38:08.541
100.0, 9.375929188914597, 53.83585986215621, 26.94597918074578, 37.4251788565889, 0.0, 0.3680000174790621, 0.9600000455975533, 0.0, 0.0, 0.0, 0.0, 0.0, 1.6483378885422535E9, 0.0, 2022-03-26 18:38:08.542
100.0, 15.378468617796898, 48.24096952844411, 27.174113078042865, 38.12080024834722, 0.0, 0.3680000174790621, 0.9600000455975533, 0.0, 0.0, 0.0, 0.0, 0.0, 1.6483378885422535E9, 0.0, 2022-03-26 18:38:08.542
0.0, 526.0187987177633, 103.94677936844528, 806.1728344485164, 370.5567674096674, 0.0, 0.3680000174790621, 0.9600000455975533, 0.0, 0.0, 0.0, 0.0, 0.0, 1.6483378885565546E9, 0.0, 2022-03-26 18:38:08.556
1.0, 516.8523039263673, 93.08984979707748, 794.6015839856118, 363.3312806952745, 0.0, 0.3680000174790621, 0.9600000455975533, 0.0, 0.0, 0.0, 0.0, 0.0, 1.64833788855725E9, 0.0, 2022-03-26 18:38:08.557
1.0, 517.398329319898, 77.80487867817283, 787.1591830737889, 368.7578755309805, 0.0, 0.3680000174790621, 0.9600000455975533, 0.0, 0.0, 0.0, 0.0, 0.0, 1.64833788855725E9, 0.0, 2022-03-26 18:38:08.557
2.0, 514.6345432526432, 70.82996526081115, 788.5915647568181, 366.37181935925037, 0.0, 0.3680000174790621, 0.9600000455975533, 0.0, 0.0, 0.0, 0.0, 0.0, 1.6483378885708666E9, 0.0, 2022-03-26 18:38:08.570
2.0, 510.35983760328963, 66.78713340871036, 787.9071630649269, 358.162738956511, 0.0, 0.3680000174790621, 0.9600000455975533, 0.0, 0.0, 0.0, 0.0, 0.0, 1.6483378885708666E9, 0.0, 2022-03-26 18:38:08.570
3.0, 513.4265555669554, 66.3271257141605, 780.4722419530153, 364.060561186634, 0.0, 0.3680000174790621, 0.9600000455975533, 0.0, 0.0, 0.0, 0.0, 0.0, 1.648337888586522E9, 0.0, 2022-03-26 18:38:08.586
3.0, 509.7352743106894, 60.88557127863169, 786.579498580657, 374.9287104578689, 0.0, 0.3680000174790621, 0.9600000455975533, 0.0, 0.0, 0.0, 0.0, 0.0, 1.648337888586522E9, 0.0, 2022-03-26 18:38:08.586
4.0, 507.68954903492704, 62.190796363167465, 777.8318725842983, 365.55652116890997, 0.0, 0.3680000174790621, 0.9600000455975533, 0.0, 0.0, 0.0, 0.0, 0.0, 1.6483378885872557E9, 0.0, 2022-03-26 18:38:08.587
4.0, 497.31132665788755, 49.89774520881474, 770.4306105719879, 340.832042561844, 0.0, 0.3680000174790621, 0.9600000455975533, 0.0, 0.0, 0.0, 0.0, 0.0, 1.6483378885872557E9, 0.0, 2022-03-26 18:38:08.587
5.0, 510.9357821964659, 40.091727524995804, 764.4467706428841, 359.9204919356853, 0.0, 0.3680000174790621, 0.9600000455975533, 0.0, 0.0, 0.0, 0.0, 0.0, 1.6483378886009214E9, 0.0, 2022-03-26 18:38:08.600
5.0, 513.0974443708546, 44.9835166670382, 768.3250468969345, 367.34793324768543, 0.0, 0.3680000174790621, 0.9600000455975533, 0.0, 0.0, 0.0, 0.0, 0.0, 1.6483378886009214E9, 0.0, 2022-03-26 18:38:08.600
6.0, 503.31012618681416, 43.53243548423052, 772.7306490447372, 369.2889413246885, 0.0, 0.3680000174790621, 0.9600000455975533, 0.0, 0.0, 0.0, 0.0, 0.0, 1.6483378886329577E9, 0.0, 2022-03-26 18:38:08.632
6.0, 506.42920274985954, 37.29802225809544, 767.4125113077462, 363.6828312911093, 0.0, 0.3680000174790621, 0.9600000455975533, 0.0, 0.0, 0.0, 0.0, 0.0, 1.6483378886329577E9, 0.0, 2022-03-26 18:38:08.632
7.0, 501.2270019114949, 35.74970367643982, 755.3363743508235, 370.00700211618096, 0.0, 0.3680000174790621, 0.9600000455975533, 0.0, 0.0, 0.0, 0.0, 0.0, 1.6483378886336632E9, 0.0, 2022-03-26 18:38:08.633
7.0, 505.79715965734795, 45.4285647617653, 764.8843389376998, 364.74870277848095, 0.0, 0.3680000174790621, 0.9600000455975533, 0.0, 0.0, 0.0, 0.0, 0.0, 1.6483378886336632E9, 0.0, 2022-03-26 18:38:08.633
8.0, 502.50604769634083, 47.07786064222455, 769.7162896804512, 359.9167520357296, 0.0, 0.3680000174790621, 0.9600000455975533, 0.0, 0.0, 0.0, 0.0, 0.0, 1.6483378886344516E9, 0.0, 2022-03-26 18:38:08.634
8.0, 511.5266863894649, 45.75393605791032, 776.496728300117, 380.19822949543595, 0.0, 0.3680000174790621, 0.9600000455975533, 0.0, 0.0, 0.0, 0.0, 0.0, 1.6483378886344516E9, 0.0, 2022-03-26 18:38:08.634
9.0, 502.8501184922643, 35.05034238472581, 768.0520342001691, 373.9899955689907, 0.0, 0.3680000174790621, 0.9600000455975533, 0.0, 0.0, 0.0, 0.0, 0.0, 1.6483378886351812E9, 0.0, 2022-03-26 18:38:08.635
9.0, 501.02130741393194, 29.39187375176698, 771.3132269615307, 373.2607150776312, 0.0, 0.3680000174790621, 0.9600000455975533, 0.0, 0.0, 0.0, 0.0, 0.0, 1.6483378886351812E9, 0.0, 2022-03-26 18:38:08.635
10.0, 513.0862246709876, 26.463532086461782, 755.1680788528174, 365.85197326540947, 0.0, 0.3680000174790621, 0.9600000455975533, 0.0, 0.0, 0.0, 0.0, 0.0, 1.6483378886458864E9, 0.0, 2022-03-26 18:38:08.645
10.0, 510.83854479761794, 28.96552515681833, 748.7242312291637, 363.0582679985091, 0.0, 0.3680000174790621, 0.9600000455975533, 0.0, 0.0, 0.0, 0.0, 0.0, 1.6483378886458864E9, 0.0, 2022-03-26 18:38:08.645
11.0, 499.9554359265603, 32.10704111959785, 755.7028845464811, 363.4958362933248, 0.0, 0.3680000174790621, 0.9600000455975533, 0.0, 0.0, 0.0, 0.0, 0.0, 1.64833788866102E9, 0.0, 2022-03-26 18:38:08.661
11.0, 513.4826540662907, 49.269442016258836, 771.7246159566566, 367.5536277452484, 0.0, 0.3680000174790621, 0.9600000455975533, 0.0, 0.0, 0.0, 0.0, 0.0, 1.64833788866102E9, 0.0, 2022-03-26 18:38:08.661
12.0, 510.1952820052393, 38.004863349720836, 758.7396833105013, 363.82494748942554, 0.0, 0.3680000174790621, 0.9600000455975533, 0.0, 0.0, 0.0, 0.0, 0.0, 1.6483378886765735E9, 0.0, 2022-03-26 18:38:08.676
12.0, 509.57071871263906, 28.038029967807233, 762.5132423657924, 361.4688105173409, 0.0, 0.3680000174790621, 0.9600000455975533, 0.0, 0.0, 0.0, 0.0, 0.0, 1.6483378886765735E9, 0.0, 2022-03-26 18:38:08.676
13.0, 509.0733120185323, 31.77419002354145, 751.0317495018244, 360.9227851238102, 0.0, 0.3680000174790621, 0.9600000455975533, 0.0, 0.0, 0.0, 0.0, 0.0, 1.6483378886772969E9, 0.0, 2022-03-26 18:38:08.677
13.0, 501.68326970608905, 31.624594025313854, 748.3577210335061, 356.0197762819007, 0.0, 0.3680000174790621, 0.9600000455975533, 0.0, 0.0, 0.0, 0.0, 0.0, 1.6483378886772969E9, 0.0, 2022-03-26 18:38:08.677
14.0, 495.7405686764978, 29.900500145740807, 755.7702027456835, 351.9806843297556, 0.0, 0.3680000174790621, 0.9600000455975533, 0.0, 0.0, 0.0, 0.0, 0.0, 1.6483378886908815E9, 0.0, 2022-03-26 18:38:08.690
14.0, 493.2236160063185, 20.90978065226227, 747.6546198418364, 337.65686749946326, 0.0, 0.3680000174790621, 0.9600000455975533, 0.0, 0.0, 0.0, 0.0, 0.0, 1.6483378886908815E9, 0.0, 2022-03-26 18:38:08.690
15.0, 503.1567902886309, 31.067348931916058, 748.5559357311577, 362.0522349104285, 0.0, 0.3680000174790621, 0.9600000455975533, 0.0, 0.0, 0.0, 0.0, 0.0, 1.6483378887065952E9, 0.0, 2022-03-26 18:38:08.706
15.0, 503.42606308544055, 38.419992244802415, 751.6937117939815, 347.2758901854977, 0.0, 0.3680000174790621, 0.9600000455975533, 0.0, 0.0, 0.0, 0.0, 0.0, 1.6483378887065952E9, 0.0, 2022-03-26 18:38:08.706
16.0, 505.1052781655453, 38.97723733820021, 754.3976594619453, 354.3592607015744, 0.0, 0.3680000174790621, 0.9600000455975533, 0.0, 0.0, 0.0, 0.0, 0.0, 1.6483378887072947E9, 0.0, 2022-03-26 18:38:08.707
16.0, 502.80149979284033, 22.779730630107224, 747.8191754398867, 349.29543616157025, 0.0, 0.3680000174790621, 0.9600000455975533, 0.0, 0.0, 0.0, 0.0, 0.0, 1.6483378887072947E9, 0.0, 2022-03-26 18:38:08.707
17.0, 495.19828318292275, 34.425779092125595, 761.4623304782435, 354.25454350281507, 0.0, 0.3680000174790621, 0.9600000455975533, 0.0, 0.0, 0.0, 0.0, 0.0, 1.6483378887208793E9, 0.0, 2022-03-26 18:38:08.720
17.0, 501.7730273050256, 29.623747549019754, 765.0189753361046, 354.25454350281507, 0.0, 0.3680000174790621, 0.9600000455975533, 0.0, 0.0, 0.0, 0.0, 0.0, 1.6483378887208793E9, 0.0, 2022-03-26 18:38:08.720
18.0, 504.843485168647, 27.147933778353035, 767.3377133086324, 361.274335719645, 0.0, 0.3680000174790621, 0.9600000455975533, 0.0, 0.0, 0.0, 0.0, 0.0, 1.6483378887366028E9, 0.0, 2022-03-26 18:38:08.736
18.0, 503.7327348818071, 36.22467097081244, 764.603846441023, 367.40777164697647, 0.0, 0.3680000174790621, 0.9600000455975533, 0.0, 0.0, 0.0, 0.0, 0.0, 1.6483378887366028E9, 0.0, 2022-03-26 18:38:08.736
19.0, 503.4335428853519, 46.909565144218504, 762.7301565632224, 359.8830929361284, 0.0, 0.3680000174790621, 0.9600000455975533, 0.0, 0.0, 0.0, 0.0, 0.0, 1.6483378887372923E9, 0.0, 2022-03-26 18:38:08.737
19.0, 512.1213304824196, 50.17449780553579, 776.7847005967051, 359.93545153550804, 0.0, 0.3680000174790621, 0.9600000455975533, 0.0, 0.0, 0.0, 0.0, 0.0, 1.6483378887372923E9, 0.0, 2022-03-26 18:38:08.737
20.0, 514.009979960043, 47.09282024204731, 768.512041894719, 372.53143458627164, 0.0, 0.3680000174790621, 0.9760000463575125, 0.0, 0.0, 0.0, 0.0, 0.0, 1.6483378887508788E9, 0.0, 2022-03-26 18:38:08.750
20.0, 510.8609841973521, 41.288495510816574, 776.2274555033073, 375.93474354594946, 0.0, 0.3680000174790621, 0.9760000463575125, 0.0, 0.0, 0.0, 0.0, 0.0, 1.6483378887508788E9, 0.0, 2022-03-26 18:38:08.750
21.0, 516.7438468276523, 50.64198529999703, 767.3190138088539, 368.38388553541154, 0.0, 0.3840000182390213, 0.9760000463575125, 0.0, 0.0, 0.0, 0.0, 0.0, 1.6483378887666025E9, 0.0, 2022-03-26 18:38:08.766
21.0, 507.304339339491, 36.808095363900065, 757.9804836194962, 355.7542433850467, 0.0, 0.3840000182390213, 0.9760000463575125, 0.0, 0.0, 0.0, 0.0, 0.0, 1.6483378887666025E9, 0.0, 2022-03-26 18:38:08.766
22.0, 503.80005308100954, 28.823408958502114, 761.4099718788639, 362.85257350094616, -0.01600000075995922, 0.3840000182390213, 0.9760000463575125, 0.0, 0.0, 0.0, 0.0, 0.0, 1.6483378887673292E9, 0.0, 2022-03-26 18:38:08.767
22.0, 500.0264940257184, 32.13322041928768, 757.5391754247248, 357.0968674691394, -0.01600000075995922, 0.3840000182390213, 0.9760000463575125, 0.0, 0.0, 0.0, 0.0, 0.0, 1.6483378887673292E9, 0.0, 2022-03-26 18:38:08.767
23.0, 501.9301031031646, 32.769003411754966, 758.3731731148437, 362.74037650227547, -0.01600000075995922, 0.3840000182390213, 0.9760000463575125, 0.0, 0.0, 0.0, 0.0, 0.0, 1.64833788878097E9, 0.0, 2022-03-26 18:38:08.780
23.0, 501.09610541304573, 24.761877606622875, 755.0072631547228, 368.93365082889795, -0.01600000075995922, 0.3840000182390213, 0.9760000463575125, 0.0, 0.0, 0.0, 0.0, 0.0, 1.64833788878097E9, 0.0, 2022-03-26 18:38:08.780
24.0, 503.78883338114247, 23.505271221511066, 758.0291023189202, 360.2533430317417, -0.01600000075995922, 0.3840000182390213, 0.9760000463575125, 0.0, 0.0, 0.0, 0.0, 0.0, 1.6483378887965765E9, 0.0, 2022-03-26 18:38:08.796
24.0, 497.63669795403257, 20.741485154256225, 741.7156587122008, 357.1342664686963, -0.01600000075995922, 0.3840000182390213, 0.9760000463575125, 0.0, 0.0, 0.0, 0.0, 0.0, 1.6483378887965765E9, 0.0, 2022-03-26 18:38:08.796
25.0, 501.1035852129571, 25.850188493728638, 745.9978441614658, 359.63251963909715, -0.01600000075995922, 0.3840000182390213, 0.9760000463575125, 0.0, 0.0, 0.0, 0.0, 0.0, 1.6483378887972999E9, 0.0, 2022-03-26 18:38:08.797
25.0, 490.3251935406588, 22.342162335291505, 749.745223917067, 369.75268891919404, -0.01600000075995922, 0.3840000182390213, 0.9760000463575125, 0.0, 0.0, 0.0, 0.0, 0.0, 1.6483378887972999E9, 0.0, 2022-03-26 18:38:08.797
26.0, 503.05207308987156, 25.75669099483639, 748.7317110290751, 357.70647116191685, -0.01600000075995922, 0.3840000182390213, 0.9760000463575125, 0.0, 0.0, 0.0, 0.0, 0.0, 1.648337888810866E9, 0.0, 2022-03-26 18:38:08.810
26.0, 504.53307347232476, 22.88444782886654, 735.7729576826096, 353.8618540074676, -0.01600000075995922, 0.3840000182390213, 0.9760000463575125, 0.0, 0.0, 0.0, 0.0, 0.0, 1.648337888810866E9, 0.0, 2022-03-26 18:38:08.810
27.0, 505.94675565557554, 8.388595600612462, 740.1486406307667, 367.172157949768, -0.01600000075995922, 0.3840000182390213, 0.9760000463575125, 0.0, 0.0, 0.0, 0.0, 0.0, 1.6483378888266027E9, 0.0, 2022-03-26 18:38:08.826
27.0, 505.1015382655896, 14.398614829406142, 750.7288176054135, 361.5436085164547, -0.01600000075995922, 0.3840000182390213, 0.9760000463575125, 0.0, 0.0, 0.0, 0.0, 0.0, 1.6483378888266027E9, 0.0, 2022-03-26 18:38:08.826
28.0, 507.8503647330217, 7.808911107480526, 745.8819072628394, 358.4731506528333, -0.01600000075995922, 0.3840000182390213, 0.9760000463575125, 0.0, 0.0, 0.0, 0.0, 0.0, 1.648337888827314E9, 0.0, 2022-03-26 18:38:08.827
28.0, 508.703061922919, 34.837168087251484, 748.4773978320882, 373.9525965694338, -0.01600000075995922, 0.3840000182390213, 0.9760000463575125, 0.0, 0.0, 0.0, 0.0, 0.0, 1.648337888827314E9, 0.0, 2022-03-26 18:38:08.827
29.0, 514.4251088551246, 44.22057707607746, 755.534589048475, 362.29532840754837, -0.01600000075995922, 0.3840000182390213, 0.9760000463575125, 0.0, 0.0, 0.0, 0.0, 0.0, 1.6483378888409808E9, 0.0, 2022-03-26 18:38:08.840
29.0, 509.94096880825236, 31.157106530852616, 746.7346044527367, 362.26540920790285, -0.01600000075995922, 0.3840000182390213, 0.9760000463575125, 0.0, 0.0, 0.0, 0.0, 0.0, 1.6483378888409808E9, 0.0, 2022-03-26 18:38:08.840
30.0, 512.2858860804699, 37.69071175344288, 749.4722112203017, 378.5526735149324, -0.01600000075995922, 0.3840000182390213, 0.9600000455975533, 0.0, 0.0, 0.0, 0.0, 0.0, 1.648337888856604E9, 0.0, 2022-03-26 18:38:08.856
30.0, 504.23762137582526, 34.07048859633505, 748.8738272273913, 357.32874126639217, -0.01600000075995922, 0.3840000182390213, 0.9600000455975533, 0.0, 0.0, 0.0, 0.0, 0.0, 1.648337888856604E9, 0.0, 2022-03-26 18:38:08.856
31.0, 501.12976451264694, 36.15735277161002, 757.561614824459, 352.4743511239067, -0.01600000075995922, 0.3840000182390213, 0.9600000455975533, 0.0, 0.0, 0.0, 0.0, 0.0, 1.6483378888573167E9, 0.0, 2022-03-26 18:38:08.857
31.0, 503.35500498628244, 36.24337047059089, 748.1258472362533, 343.25923763308674, -0.01600000075995922, 0.3840000182390213, 0.9600000455975533, 0.0, 0.0, 0.0, 0.0, 0.0, 1.6483378888573167E9, 0.0, 2022-03-26 18:38:08.857
32.0, 501.6683101062663, 25.027410503476858, 742.557136202231, 373.01388168055564, -0.01600000075995922, 0.3840000182390213, 0.9600000455975533, 0.0, 0.0, 0.0, 0.0, 0.0, 1.6483378888708808E9, 0.0, 2022-03-26 18:38:08.870
32.0, 508.1570365293883, 26.295236588455737, 767.4087714077905, 375.74774854816496, -0.01600000075995922, 0.3840000182390213, 0.9600000455975533, 0.0, 0.0, 0.0, 0.0, 0.0, 1.6483378888708808E9, 0.0, 2022-03-26 18:38:08.870
33.0, 513.1086640707217, 28.54665636178106, 761.1145197823644, 374.1096723675728, -0.01600000075995922, 0.3840000182390213, 0.9600000455975533, 0.0, 0.0, 0.0, 0.0, 0.0, 1.648337888886698E9, 0.0, 2022-03-26 18:38:08.886
33.0, 513.0525655713864, 29.930419345386326, 756.4022458381951, 380.1832698956132, -0.01600000075995922, 0.3840000182390213, 0.9600000455975533, 0.0, 0.0, 0.0, 0.0, 0.0, 1.648337888886698E9, 0.0, 2022-03-26 18:38:08.886
34.0, 509.1181908180006, 25.263024200685322, 753.9301719674841, 356.89865277148783, -0.01600000075995922, 0.3840000182390213, 0.9600000455975533, 0.0, 0.0, 0.0, 0.0, 0.0, 1.648337888887421E9, 0.0, 2022-03-26 18:38:08.887
34.0, 506.4853012491949, 19.002431674860418, 763.7062704516575, 366.25962236057967, -0.01600000075995922, 0.3840000182390213, 0.9600000455975533, 0.0, 0.0, 0.0, 0.0, 0.0, 1.648337888887421E9, 0.0, 2022-03-26 18:38:08.887
35.0, 510.9357821964659, 22.865748329088092, 759.5774209005758, 371.839553094469, -0.01600000075995922, 0.3840000182390213, 0.9600000455975533, 0.0, 0.0, 0.0, 0.0, 0.0, 1.648337888900888E9, 0.0, 2022-03-26 18:38:08.900
35.0, 508.6619230234064, 26.235398189164698, 763.6426921524107, 374.1695107668638, -0.01600000075995922, 0.3840000182390213, 0.9600000455975533, 0.0, 0.0, 0.0, 0.0, 0.0, 1.648337888900888E9, 0.0, 2022-03-26 18:38:08.900
36.0, 513.7407071632333, 39.96083102654666, 767.2068168101832, 370.3585527120158, -0.01600000075995922, 0.3840000182390213, 0.9600000455975533, 0.0, 0.0, 0.0, 0.0, 0.0, 1.6483378889165888E9, 0.0, 2022-03-26 18:38:08.916
36.0, 516.5157129303552, 50.948657096363604, 770.1014993758872, 377.34468582924455, -0.01600000075995922, 0.3840000182390213, 0.9600000455975533, 0.0, 0.0, 0.0, 0.0, 0.0, 1.6483378889165888E9, 0.0, 2022-03-26 18:38:08.916
37.0, 508.5871250242926, 43.5773142836988, 768.4185443958268, 376.5780063383281, -0.01600000075995922, 0.3840000182390213, 0.9600000455975533, 0.0, 0.0, 0.0, 0.0, 0.0, 1.6483378889172947E9, 0.0, 2022-03-26 18:38:08.917
37.0, 511.20505499327555, 43.315521286800504, 763.9306644489989, 364.3597531830892, -0.01600000075995922, 0.3840000182390213, 0.9600000455975533, 0.0, 0.0, 0.0, 0.0, 0.0, 1.6483378889172947E9, 0.0, 2022-03-26 18:38:08.917
38.0, 514.0885178591125, 40.37969982158393, 771.3207067614421, 361.5847474159673, -0.01600000075995922, 0.3840000182390213, 0.9600000455975533, 0.0, 0.0, 0.0, 0.0, 0.0, 1.648337888947252E9, 0.0, 2022-03-26 18:38:08.947
38.0, 504.09176527755335, 39.15301263611764, 770.3258933732286, 385.3405919345096, -0.01600000075995922, 0.3840000182390213, 0.9600000455975533, 0.0, 0.0, 0.0, 0.0, 0.0, 1.648337888947252E9, 0.0, 2022-03-26 18:38:08.947
39.0, 510.30747900391, 41.15759901236743, 773.987255429849, 384.7721271412447, -0.01600000075995922, 0.3840000182390213, 0.9600000455975533, 0.0, 0.0, 0.0, 0.0, 0.0, 1.6483378889480057E9, 0.0, 2022-03-26 18:38:08.948
39.0, 511.7510803868063, 39.586841030977666, 781.971941835247, 380.4450628925115, -0.01600000075995922, 0.3840000182390213, 0.9600000455975533, 0.0, 0.0, 0.0, 0.0, 0.0, 1.6483378889480057E9, 0.0, 2022-03-26 18:38:08.948
40.0, 507.05750594241545, 32.787702911533415, 789.5377594456077, 383.38836415763944, -0.01600000075995922, 0.3840000182390213, 0.9600000455975533, 0.0, 0.0, 0.0, 0.0, 0.0, 1.6483378889487362E9, 0.0, 2022-03-26 18:38:08.948
40.0, 513.6247702646069, 41.52784910798073, 808.6336886193603, 379.49138840381056, -0.01600000075995922, 0.3840000182390213, 0.9600000455975533, 0.0, 0.0, 0.0, 0.0, 0.0, 1.6483378889487362E9, 0.0, 2022-03-26 18:38:08.948
41.0, 512.9291488728486, 45.55198146030307, 809.7893177056685, 389.91074968036264, -0.01600000075995922, 0.4000000189989805, 0.9600000455975533, 0.0, 0.0, 0.0, 0.0, 0.0, 1.648337888960914E9, 0.0, 2022-03-26 18:38:08.960
41.0, 521.9123885664158, 41.02670251391828, 802.305777894333, 389.58163848426193, -0.01600000075995922, 0.4000000189989805, 0.9600000455975533, 0.0, 0.0, 0.0, 0.0, 0.0, 1.648337888960914E9, 0.0, 2022-03-26 18:38:08.960
42.0, 514.8252781503834, 40.67141201812774, 795.7871322715655, 386.67947611864656, -0.01600000075995922, 0.4000000189989805, 0.9600000455975533, 0.0, 0.0, 0.0, 0.0, 0.0, 1.648337888976603E9, 0.0, 2022-03-26 18:38:08.976
42.0, 514.769179651048, 43.13974598888308, 783.7633539140224, 382.2252552714199, -0.01600000075995922, 0.4000000189989805, 0.9600000455975533, 0.0, 0.0, 0.0, 0.0, 0.0, 1.648337888976603E9, 0.0, 2022-03-26 18:38:08.976
43.0, 517.8284178148024, 40.892066115513444, 798.928648234345, 388.5157669968903, -0.01600000075995922, 0.4000000189989805, 0.9600000455975533, 0.0, 0.0, 0.0, 0.0, 0.0, 1.6483378889773817E9, 0.0, 2022-03-26 18:38:08.977
43.0, 517.0355590241961, 41.41565210931003, 795.0840310798958, 391.0775984665379, -0.01600000075995922, 0.4000000189989805, 0.9600000455975533, 0.0, 0.0, 0.0, 0.0, 0.0, 1.6483378889773817E9, 0.0, 2022-03-26 18:38:08.977
44.0, 517.712480916176, 32.06964212004095, 795.057851780206, 387.71916830632836, -0.01600000075995922, 0.4000000189989805, 0.9600000455975533, 0.0, 0.0, 0.0, 0.0, 0.0, 1.6483378889908834E9, 0.0, 2022-03-26 18:38:08.990
44.0, 514.4587679547258, 37.47379755601287, 796.1611222671345, 376.2189759425819, -0.01600000075995922, 0.4000000189989805, 0.9600000455975533, 0.0, 0.0, 0.0, 0.0, 0.0, 1.6483378889908834E9, 0.0, 2022-03-26 18:38:08.990
45.0, 513.8080253624357, 38.49479024391621, 787.821145365946, 386.02125372644514, -0.01600000075995922, 0.4000000189989805, 0.9600000455975533, 0.0, 0.0, 0.0, 0.0, 0.0, 1.6483378890066917E9, 0.0, 2022-03-26 18:38:09.006
45.0, 509.83625160949305, 33.225271206349134, 791.9612146168947, 376.00580164510757, -0.01600000075995922, 0.4000000189989805, 0.9600000455975533, 0.0, 0.0, 0.0, 0.0, 0.0, 1.6483378890066917E9, 0.0, 2022-03-26 18:38:09.006
46.0, 508.23557442845777, 35.89181987475604, 788.0455393632874, 372.4341971874237, -0.01600000075995922, 0.4000000189989805, 0.9600000455975533, 0.0, 0.0, 0.0, 0.0, 0.0, 1.648337889007428E9, 0.0, 2022-03-26 18:38:09.007
46.0, 506.50774064892903, 32.350134616717696, 786.0783519865945, 387.06094591412693, -0.01600000075995922, 0.4000000189989805, 0.9600000455975533, 0.0, 0.0, 0.0, 0.0, 0.0, 1.648337889007428E9, 0.0, 2022-03-26 18:38:09.007
47.0, 505.4156898618676, 26.95345898065716, 779.8177594607696, 385.2583141354844, -0.01600000075995922, 0.4000000189989805, 0.9600000455975533, 0.0, 0.0, 0.0, 0.0, 0.0, 1.6483378890208573E9, 0.0, 2022-03-26 18:38:09.020
47.0, 509.91104960860685, 37.982423949986696, 786.3214454837143, 385.1797762364149, -0.01600000075995922, 0.4000000189989805, 0.9600000455975533, 0.0, 0.0, 0.0, 0.0, 0.0, 1.6483378890208573E9, 0.0, 2022-03-26 18:38:09.020
48.0, 514.6719422522001, 35.08026158437133, 793.6030306974426, 382.730141765438, -0.01600000075995922, 0.4000000189989805, 0.9600000455975533, 0.0, 0.0, 0.0, 0.0, 0.0, 1.648337889036581E9, 0.0, 2022-03-26 18:38:09.036
48.0, 507.98126123147085, 28.59153516124934, 784.7132885027677, 382.72266196552664, -0.01600000075995922, 0.4000000189989805, 0.9600000455975533, 0.0, 0.0, 0.0, 0.0, 0.0, 1.648337889036581E9, 0.0, 2022-03-26 18:38:09.036
49.0, 506.2160284523852, 33.01957670878619, 777.5102411881089, 376.56678663846105, -0.01600000075995922, 0.4000000189989805, 0.9600000455975533, 0.0, 0.0, 0.0, 0.0, 0.0, 1.6483378890373535E9, 0.0, 2022-03-26 18:38:09.037
49.0, 507.1884024408646, 32.5707887141034, 778.5574131757021, 374.78659425955266, -0.01600000075995922, 0.4000000189989805, 0.9600000455975533, 0.0, 0.0, 0.0, 0.0, 0.0, 1.6483378890373535E9, 0.0, 2022-03-26 18:38:09.037
50.0, 513.5574520654045, 27.480784874409437, 778.546193475835, 382.05695977341384, -0.01600000075995922, 0.4000000189989805, 0.9600000455975533, 0.0, 0.0, 0.0, 0.0, 0.0, 1.648337889050893E9, 0.0, 2022-03-26 18:38:09.050
50.0, 512.3232850800268, 35.630026877857745, 791.1272169267759, 379.6297647021711, -0.01600000075995922, 0.4000000189989805, 0.9600000455975533, 0.0, 0.0, 0.0, 0.0, 0.0, 1.648337889050893E9, 0.0, 2022-03-26 18:38:09.050
51.0, 506.35440475074574, 29.78082334715873, 784.7469476023689, 365.5827004685998, -0.01600000075995922, 0.4000000189989805, 0.9600000455975533, 0.0, 0.0, 0.0, 0.0, 0.0, 1.6483378890665393E9, 0.0, 2022-03-26 18:38:09.066
51.0, 502.7828002930619, 23.235998424701393, 779.6943427622318, 364.5804072804749, -0.01600000075995922, 0.4000000189989805, 0.9600000455975533, 0.0, 0.0, 0.0, 0.0, 0.0, 1.6483378890665393E9, 0.0, 2022-03-26 18:38:09.066
52.0, 512.0764516829513, 34.88204688671976, 786.0035539874807, 389.64895668346435, -0.03200000151991844, 0.4000000189989805, 0.9600000455975533, 0.0, 0.0, 0.0, 0.0, 0.0, 1.6483378890672429E9, 0.0, 2022-03-26 18:38:09.067
52.0, 513.4377752668224, 46.69265094678849, 788.6476632561535, 376.7051629368216, -0.03200000151991844, 0.4000000189989805, 0.9600000455975533, 0.0, 0.0, 0.0, 0.0, 0.0, 1.6483378890672429E9, 0.0, 2022-03-26 18:38:09.067
53.0, 508.3664709269069, 45.00969596672803, 793.1131038032472, 366.42417795863, -0.03200000151991844, 0.4000000189989805, 0.9600000455975533, 0.0, 0.0, 0.0, 0.0, 0.0, 1.6483378890808842E9, 0.0, 2022-03-26 18:38:09.080
53.0, 510.4795144018717, 38.2030780473724, 785.2331345966086, 389.05805249046534, -0.03200000151991844, 0.4000000189989805, 0.9600000455975533, 0.0, 0.0, 0.0, 0.0, 0.0, 1.6483378890808842E9, 0.0, 2022-03-26 18:38:09.080
54.0, 507.76060713408515, 36.29572906997055, 779.8439387604594, 384.4317962452769, -0.03200000151991844, 0.4000000189989805, 0.9600000455975533, 0.0, 0.0, 0.0, 0.0, 0.0, 1.6483378890965316E9, 0.0, 2022-03-26 18:38:09.096
54.0, 507.5960515360348, 40.461977620609105, 786.7029152791947, 368.90373162925243, -0.03200000151991844, 0.4000000189989805, 0.9600000455975533, 0.0, 0.0, 0.0, 0.0, 0.0, 1.6483378890965316E9, 0.0, 2022-03-26 18:38:09.096
55.0, 516.2800992331468, 33.79747589956969, 786.0147736873478, 377.363385329023, -0.03200000151991844, 0.4000000189989805, 0.9600000455975533, 0.0, 0.0, 0.0, 0.0, 0.0, 1.648337889097312E9, 0.0, 2022-03-26 18:38:09.097
55.0, 523.2250934508629, 42.470303896814585, 782.719921826385, 381.57451267912984, -0.03200000151991844, 0.4000000189989805, 0.9600000455975533, 0.0, 0.0, 0.0, 0.0, 0.0, 1.648337889097312E9, 0.0, 2022-03-26 18:38:09.097
56.0, 518.617536705453, 32.836321610957384, 781.0481865461916, 372.0639470918104, -0.03200000151991844, 0.4000000189989805, 0.9600000455975533, 0.0, 0.0, 0.0, 0.0, 0.0, 1.6483378891108432E9, 0.0, 2022-03-26 18:38:09.110
56.0, 517.9069557138719, 42.077614401467144, 795.876889870502, 380.26554769463837, -0.03200000151991844, 0.4000000189989805, 0.9600000455975533, 0.0, 0.0, 0.0, 0.0, 0.0, 1.6483378891108432E9, 0.0, 2022-03-26 18:38:09.110
57.0, 521.0559514765628, 53.48804916627705, 789.219867949374, 372.6211921852082, -0.03200000151991844, 0.4000000189989805, 0.9600000455975533, 0.0, 0.0, 0.0, 0.0, 0.0, 1.6483378891265943E9, 0.0, 2022-03-26 18:38:09.126
57.0, 516.7737660272978, 46.928264643996954, 784.7319880025461, 370.6278255088255, -0.03200000151991844, 0.4000000189989805, 0.9600000455975533, 0.0, 0.0, 0.0, 0.0, 0.0, 1.6483378891265943E9, 0.0, 2022-03-26 18:38:09.126
58.0, 522.6154897580855, 46.64403224736452, 790.3754970356822, 369.5432545216754, -0.03200000151991844, 0.4000000189989805, 0.9600000455975533, 0.0, 0.0, 0.0, 0.0, 0.0, 1.6483378891273105E9, 0.0, 2022-03-26 18:38:09.127
58.0, 521.8749895668589, 54.60627925302833, 786.3513646833599, 370.8372599063441, -0.03200000151991844, 0.4000000189989805, 0.9600000455975533, 0.0, 0.0, 0.0, 0.0, 0.0, 1.6483378891273105E9, 0.0, 2022-03-26 18:38:09.127
59.0, 514.5111265541054, 41.13889951258898, 784.4290561061352, 372.90168468188494, -0.03200000151991844, 0.4000000189989805, 0.9600000455975533, 0.0, 0.0, 0.0, 0.0, 0.0, 1.648337889140998E9, 0.0, 2022-03-26 18:38:09.140
59.0, 511.24245399283245, 46.82354744523764, 792.8587906062603, 379.0687797088176, -0.03200000151991844, 0.4000000189989805, 0.9600000455975533, 0.0, 0.0, 0.0, 0.0, 0.0, 1.648337889140998E9, 0.0, 2022-03-26 18:38:09.140
60.0, 515.0197529480793, 46.2812619516626, 787.5930114686489, 354.9127658950165, -0.03200000151991844, 0.4000000189989805, 0.9600000455975533, 0.0, 0.0, 0.0, 0.0, 0.0, 1.6483378891566575E9, 0.0, 2022-03-26 18:38:09.156
60.0, 513.3779368675314, 45.727756758220494, 778.8566051721573, 373.3280332768336, -0.03200000151991844, 0.4000000189989805, 0.9600000455975533, 0.0, 0.0, 0.0, 0.0, 0.0, 1.6483378891566575E9, 0.0, 2022-03-26 18:38:09.156
61.0, 510.7787063983269, 46.909565144218504, 779.9636155590415, 374.0199147686362, -0.03200000151991844, 0.3840000182390213, 0.9600000455975533, 0.0, 0.0, 0.0, 0.0, 0.0, 1.6483378891572616E9, 0.0, 2022-03-26 18:38:09.157
61.0, 519.5637313942425, 45.641739059239626, 786.5495793810114, 382.2289951713756, -0.03200000151991844, 0.3840000182390213, 0.9600000455975533, 0.0, 0.0, 0.0, 0.0, 0.0, 1.6483378891572616E9, 0.0, 2022-03-26 18:38:09.157
62.0, 516.0669249356724, 39.04829543735832, 784.0550661105663, 365.4667635699734, -0.03200000151991844, 0.3840000182390213, 0.9600000455975533, 0.0, 0.0, 0.0, 0.0, 0.0, 1.6483378891872375E9, 0.0, 2022-03-26 18:38:09.187
62.0, 505.2548741637729, 46.21394375246018, 768.8561126906425, 365.45554387010634, -0.03200000151991844, 0.3840000182390213, 0.9600000455975533, 0.0, 0.0, 0.0, 0.0, 0.0, 1.6483378891872375E9, 0.0, 2022-03-26 18:38:09.187
63.0, 509.402423214633, 55.57491334155202, 786.6430768799037, 374.9623695574701, -0.03200000151991844, 0.3840000182390213, 0.9600000455975533, 0.0, 0.0, 0.0, 0.0, 0.0, 1.6483378891879988E9, 0.0, 2022-03-26 18:38:09.187
63.0, 511.10033779451624, 50.03612150717527, 796.5500718625262, 381.0696261851117, -0.03200000151991844, 0.3840000182390213, 0.9600000455975533, 0.0, 0.0, 0.0, 0.0, 0.0, 1.6483378891879988E9, 0.0, 2022-03-26 18:38:09.187
64.0, 513.7070480636321, 50.30165440402925, 793.4758740989491, 367.9575369404629, -0.03200000151991844, 0.3840000182390213, 0.9600000455975533, 0.0, 0.0, 0.0, 0.0, 0.0, 1.6483378891887589E9, 0.0, 2022-03-26 18:38:09.188
64.0, 510.20276180515066, 49.57237391266972, 799.9833000218496, 364.9057785766199, -0.03200000151991844, 0.3840000182390213, 0.9600000455975533, 0.0, 0.0, 0.0, 0.0, 0.0, 1.6483378891887589E9, 0.0, 2022-03-26 18:38:09.188
65.0, 523.3111111498438, 49.11236621811986, 802.5264319917187, 384.5178139442578, -0.03200000151991844, 0.3840000182390213, 0.9600000455975533, 0.0, 0.0, 0.0, 0.0, 0.0, 1.6483378892010005E9, 0.0, 2022-03-26 18:38:09.201
65.0, 516.5456321300007, 47.90063863247633, 794.3323111888021, 372.19484359025955, -0.03200000151991844, 0.3840000182390213, 0.9600000455975533, 0.0, 0.0, 0.0, 0.0, 0.0, 1.6483378892010005E9, 0.0, 2022-03-26 18:38:09.201
66.0, 513.2881792685948, 45.74645625799894, 792.2155278138816, 373.11859887931496, -0.03200000151991844, 0.3840000182390213, 0.9600000455975533, 0.0, 0.0, 0.0, 0.0, 0.0, 1.6483378892165956E9, 0.0, 2022-03-26 18:38:09.216
66.0, 516.5867710295133, 38.95105803851038, 787.9483019644395, 377.15395093150437, -0.03200000151991844, 0.3840000182390213, 0.9600000455975533, 0.0, 0.0, 0.0, 0.0, 0.0, 1.6483378892165956E9, 0.0, 2022-03-26 18:38:09.216
67.0, 510.20276180515066, 35.47669097967446, 785.4463088940829, 380.2543279947713, -0.03200000151991844, 0.3840000182390213, 0.9600000455975533, 0.0, 0.0, 0.0, 0.0, 0.0, 1.6483378892173536E9, 0.0, 2022-03-26 18:38:09.217
67.0, 510.2289411048405, 44.833920668810606, 787.4658548701555, 367.2058170493692, -0.03200000151991844, 0.3840000182390213, 0.9600000455975533, 0.0, 0.0, 0.0, 0.0, 0.0, 1.6483378892173536E9, 0.0, 2022-03-26 18:38:09.217
68.0, 511.9006763850339, 44.31033467501402, 783.26220731996, 360.48147692903876, -0.03200000151991844, 0.3840000182390213, 0.9600000455975533, 0.0, 0.0, 0.0, 0.0, 0.0, 1.648337889230936E9, 0.0, 2022-03-26 18:38:09.230
68.0, 505.7784601575695, 35.15505958348513, 783.9914878113195, 366.04270816314965, -0.03200000151991844, 0.3840000182390213, 0.9600000455975533, 0.0, 0.0, 0.0, 0.0, 0.0, 1.648337889230936E9, 0.0, 2022-03-26 18:38:09.230
69.0, 514.9374751490541, 55.26824154518545, 800.858436611481, 386.72061501815915, -0.03200000151991844, 0.3840000182390213, 0.9600000455975533, 0.0, 0.0, 0.0, 0.0, 0.0, 1.6483378892466004E9, 0.0, 2022-03-26 18:38:09.246
69.0, 516.2240007338114, 54.03781445976347, 803.6783211780712, 376.94077663403004, -0.03200000151991844, 0.3840000182390213, 0.9600000455975533, 0.0, 0.0, 0.0, 0.0, 0.0, 1.6483378892466004E9, 0.0, 2022-03-26 18:38:09.246
70.0, 516.6279099290259, 63.52968054730445, 807.033011438325, 371.4431236991659, -0.03200000151991844, 0.3840000182390213, 0.944000044837594, 0.0, 0.0, 0.0, 0.0, 0.0, 1.6483378892472956E9, 0.0, 2022-03-26 18:38:09.247
70.0, 527.4100415012799, 72.254867143929, 822.4451391557232, 396.7398069994524, -0.03200000151991844, 0.3840000182390213, 0.944000044837594, 0.0, 0.0, 0.0, 0.0, 0.0, 1.6483378892472956E9, 0.0, 2022-03-26 18:38:09.247
71.0, 522.0021461653523, 69.18440928030759, 807.0105720385909, 384.5140740443021, -0.03200000151991844, 0.4000000189989805, 0.944000044837594, 0.0, 0.0, 0.0, 0.0, 0.0, 1.6483378892609408E9, 0.0, 2022-03-26 18:38:09.260
71.0, 526.1272558164783, 71.70510185044259, 805.62306915503, 377.2474484303966, -0.03200000151991844, 0.4000000189989805, 0.944000044837594, 0.0, 0.0, 0.0, 0.0, 0.0, 1.6483378892609408E9, 0.0, 2022-03-26 18:38:09.260
72.0, 523.7748587443493, 68.48130808863789, 808.8057240173221, 380.79287358839065, -0.03200000151991844, 0.4000000189989805, 0.944000044837594, 0.0, 0.0, 0.0, 0.0, 0.0, 1.6483378892765927E9, 0.0, 2022-03-26 18:38:09.276
72.0, 521.6356359696947, 67.93154279515147, 800.4059087168425, 384.117644648999, -0.03200000151991844, 0.4000000189989805, 0.944000044837594, 0.0, 0.0, 0.0, 0.0, 0.0, 1.6483378892765927E9, 0.0, 2022-03-26 18:38:09.276
73.0, 520.8165978793986, 63.439922948367894, 776.1638772040606, 373.66088437289, -0.03200000151991844, 0.4000000189989805, 0.944000044837594, 0.0, 0.0, 0.0, 0.0, 0.0, 1.6483378892772553E9, 0.0, 2022-03-26 18:38:09.277
73.0, 523.1241161520593, 64.45717573631555, 775.8123266082257, 374.842692758888, -0.03200000151991844, 0.4000000189989805, 0.944000044837594, 0.0, 0.0, 0.0, 0.0, 0.0, 1.6483378892772553E9, 0.0, 2022-03-26 18:38:09.277
74.0, 521.7029541688971, 84.6713349968195, 785.0461395988241, 368.29786783643067, -0.03200000151991844, 0.4000000189989805, 0.944000044837594, 0.0, 0.0, 0.0, 0.0, 0.0, 1.648337889290903E9, 0.0, 2022-03-26 18:38:09.290
74.0, 521.7627925681882, 78.84831076581031, 779.0323804700747, 370.5044088102877, -0.03200000151991844, 0.4000000189989805, 0.944000044837594, 0.0, 0.0, 0.0, 0.0, 0.0, 1.648337889290903E9, 0.0, 2022-03-26 18:38:09.290
75.0, 526.1571750161238, 76.05834539886564, 772.9213839424774, 373.6982833724469, -0.03200000151991844, 0.4000000189989805, 0.944000044837594, 0.0, 0.0, 0.0, 0.0, 0.0, 1.6483378893065767E9, 0.0, 2022-03-26 18:38:09.306
75.0, 514.9038160494529, 63.58951894659549, 754.8651469564065, 353.0914346165955, -0.03200000151991844, 0.4000000189989805, 0.944000044837594, 0.0, 0.0, 0.0, 0.0, 0.0, 1.6483378893065767E9, 0.0, 2022-03-26 18:38:09.306
76.0, 502.8127194927074, 51.84249318577349, 730.4361204458401, 332.1143357651308, -0.03200000151991844, 0.4000000189989805, 0.944000044837594, 0.0, 0.0, 0.0, 0.0, 0.0, 1.6483378893072965E9, 0.0, 2022-03-26 18:38:09.307
76.0, 514.6831619520672, 64.96954203024507, 736.3788214754313, 354.03762930538505, -0.03200000151991844, 0.4000000189989805, 0.944000044837594, 0.0, 0.0, 0.0, 0.0, 0.0, 1.6483378893072965E9, 0.0, 2022-03-26 18:38:09.307
77.0, 516.8672635261901, 65.11539812851697, 748.2193447351456, 357.70647116191685, -0.03200000151991844, 0.4000000189989805, 0.944000044837594, 0.0, 0.0, 0.0, 0.0, 0.0, 1.6483378893210423E9, 0.0, 2022-03-26 18:38:09.321
77.0, 516.3174982327037, 58.35365900862962, 748.6045544305816, 345.62659430503845, -0.03200000151991844, 0.4000000189989805, 0.944000044837594, 0.0, 0.0, 0.0, 0.0, 0.0, 1.6483378893210423E9, 0.0, 2022-03-26 18:38:09.321
78.0, 512.4205224788748, 60.23482868634164, 743.4247929919511, 326.28383173421025, -0.03200000151991844, 0.4000000189989805, 0.944000044837594, 0.0, 0.0, 0.0, 0.0, 0.0, 1.6483378893366158E9, 0.0, 2022-03-26 18:38:09.336
78.0, 513.261999968905, 59.759861391969025, 750.2201912114397, 356.2142510795966, -0.03200000151991844, 0.4000000189989805, 0.944000044837594, 0.0, 0.0, 0.0, 0.0, 0.0, 1.6483378893366158E9, 0.0, 2022-03-26 18:38:09.336
79.0, 513.310618668329, 65.52678712364286, 761.9559972723946, 358.2749359551817, -0.03200000151991844, 0.4000000189989805, 0.944000044837594, 0.0, 0.0, 0.0, 0.0, 0.0, 1.648337889337381E9, 0.0, 2022-03-26 18:38:09.337
79.0, 522.9146817545407, 72.35210454277694, 757.0081096310169, 359.60260043945163, -0.03200000151991844, 0.4000000189989805, 0.944000044837594, 0.0, 0.0, 0.0, 0.0, 0.0, 1.648337889337381E9, 0.0, 2022-03-26 18:38:09.337
80.0, 516.2913189330138, 63.98220844194293, 749.5432693194598, 362.51972240488976, -0.03200000151991844, 0.4000000189989805, 0.9600000455975533, 0.0, 0.0, 0.0, 0.0, 0.0, 1.6483378893509283E9, 0.0, 2022-03-26 18:38:09.350
80.0, 518.5726579059847, 69.49482097662985, 762.0420149713755, 364.3634930830449, -0.03200000151991844, 0.4000000189989805, 0.9600000455975533, 0.0, 0.0, 0.0, 0.0, 0.0, 1.6483378893509283E9, 0.0, 2022-03-26 18:38:09.350
81.0, 510.8460245975293, 61.730788668617606, 752.7633231813088, 357.0258093699813, -0.03200000151991844, 0.3840000182390213, 0.9600000455975533, 0.0, 0.0, 0.0, 0.0, 0.0, 1.648337889366566E9, 0.0, 2022-03-26 18:38:09.366
81.0, 508.5983447241597, 61.92152356635779, 744.8571746749803, 354.351780901663, -0.03200000151991844, 0.3840000182390213, 0.9600000455975533, 0.0, 0.0, 0.0, 0.0, 0.0, 1.648337889366566E9, 0.0, 2022-03-26 18:38:09.366
82.0, 514.492427054327, 62.25811456236988, 759.5437618009746, 351.11302754003555, -0.03200000151991844, 0.3840000182390213, 0.9600000455975533, 0.0, 0.0, 0.0, 0.0, 0.0, 1.6483378893672473E9, 0.0, 2022-03-26 18:38:09.367
82.0, 517.6264632171951, 68.33545199036598, 758.3432539151981, 361.3117347192019, -0.03200000151991844, 0.3840000182390213, 0.9600000455975533, 0.0, 0.0, 0.0, 0.0, 0.0, 1.6483378893672473E9, 0.0, 2022-03-26 18:38:09.367
83.0, 507.0350665426813, 57.68047701660544, 736.8313493700698, 355.7205842854455, -0.03200000151991844, 0.3840000182390213, 0.9600000455975533, 0.0, 0.0, 0.0, 0.0, 0.0, 1.648337889380958E9, 0.0, 2022-03-26 18:38:09.380
83.0, 514.8851165496744, 72.99162743519992, 760.201984193176, 366.7009305553511, -0.03200000151991844, 0.3840000182390213, 0.9600000455975533, 0.0, 0.0, 0.0, 0.0, 0.0, 1.648337889380958E9, 0.0, 2022-03-26 18:38:09.380
84.0, 523.0904570524581, 71.3647709544748, 774.4397833244875, 355.07358159311116, -0.03200000151991844, 0.3840000182390213, 0.9600000455975533, 0.0, 0.0, 0.0, 0.0, 0.0, 1.648337889396515E9, 0.0, 2022-03-26 18:38:09.396
84.0, 519.8292642910965, 69.94360897131264, 779.6457240628079, 360.78814872540534, -0.03200000151991844, 0.3840000182390213, 0.9600000455975533, 0.0, 0.0, 0.0, 0.0, 0.0, 1.648337889396515E9, 0.0, 2022-03-26 18:38:09.396
85.0, 521.1232696757652, 72.78219303768128, 778.5536732757464, 366.4353976584971, -0.03200000151991844, 0.3840000182390213, 0.9600000455975533, 0.0, 0.0, 0.0, 0.0, 0.0, 1.6483378893972824E9, 0.0, 2022-03-26 18:38:09.397
85.0, 515.9734274367802, 70.33629846666008, 779.1819764683023, 363.08070739824325, -0.03200000151991844, 0.3840000182390213, 0.9600000455975533, 0.0, 0.0, 0.0, 0.0, 0.0, 1.6483378893972824E9, 0.0, 2022-03-26 18:38:09.397
86.0, 514.2530734571628, 61.51387447118759, 765.714596727863, 357.60175396315753, -0.03200000151991844, 0.3840000182390213, 0.9600000455975533, 0.0, 0.0, 0.0, 0.0, 0.0, 1.6483378894108553E9, 0.0, 2022-03-26 18:38:09.410
86.0, 512.6449164762162, 60.163770587183535, 757.5429153246805, 368.20063043758273, -0.03200000151991844, 0.3840000182390213, 0.9600000455975533, 0.0, 0.0, 0.0, 0.0, 0.0, 1.6483378894108553E9, 0.0, 2022-03-26 18:38:09.410
87.0, 500.65105731831864, 46.01572905480862, 752.0452623898163, 349.4899109592661, -0.03200000151991844, 0.3840000182390213, 0.9600000455975533, 0.0, 0.0, 0.0, 0.0, 0.0, 1.6483378894265432E9, 0.0, 2022-03-26 18:38:09.426
87.0, 515.3675636439584, 54.187410457991064, 773.493588635698, 357.70647116191685, -0.03200000151991844, 0.3840000182390213, 0.9600000455975533, 0.0, 0.0, 0.0, 0.0, 0.0, 1.6483378894265432E9, 0.0, 2022-03-26 18:38:09.426
88.0, 518.0715113119222, 64.01586754154414, 772.0051084533334, 368.34648653585464, -0.03200000151991844, 0.3840000182390213, 0.9600000455975533, 0.0, 0.0, 0.0, 0.0, 0.0, 1.6483378894272764E9, 0.0, 2022-03-26 18:38:09.427
88.0, 514.986093848478, 63.98968824185431, 771.298267361708, 360.3543203305453, -0.03200000151991844, 0.3840000182390213, 0.9600000455975533, 0.0, 0.0, 0.0, 0.0, 0.0, 1.6483378894272764E9, 0.0, 2022-03-26 18:38:09.427
89.0, 515.8051319387741, 64.53197373542935, 771.1636309633031, 357.11556696891785, -0.03200000151991844, 0.3840000182390213, 0.9600000455975533, 0.0, 0.0, 0.0, 0.0, 0.0, 1.6483378894408653E9, 0.0, 2022-03-26 18:38:09.440
89.0, 516.807425126899, 64.8461253317073, 773.0597602408379, 367.3965519471094, -0.03200000151991844, 0.3840000182390213, 0.9600000455975533, 0.0, 0.0, 0.0, 0.0, 0.0, 1.6483378894408653E9, 0.0, 2022-03-26 18:38:09.440
90.0, 518.1724886107258, 64.89848393108696, 774.8698718193918, 382.3374522700906, -0.03200000151991844, 0.3840000182390213, 0.9600000455975533, 0.0, 0.0, 0.0, 0.0, 0.0, 1.6483378894564934E9, 0.0, 2022-03-26 18:38:09.456
90.0, 511.3060322920792, 66.49916111212224, 771.3768052607775, 370.7026235079393, -0.03200000151991844, 0.3840000182390213, 0.9600000455975533, 0.0, 0.0, 0.0, 0.0, 0.0, 1.6483378894564934E9, 0.0, 2022-03-26 18:38:09.456
91.0, 506.9640084435232, 56.20695643406361, 774.5968591226265, 352.7623234204948, -0.03200000151991844, 0.3680000174790621, 0.9600000455975533, 0.0, 0.0, 0.0, 0.0, 0.0, 1.6483378894572368E9, 0.0, 2022-03-26 18:38:09.457
91.0, 522.8062246558256, 76.37997679505497, 783.9877479113638, 371.6675176965073, -0.03200000151991844, 0.3680000174790621, 0.9600000455975533, 0.0, 0.0, 0.0, 0.0, 0.0, 1.6483378894572368E9, 0.0, 2022-03-26 18:38:09.457
92.0, 515.625616740901, 64.64791063405573, 780.1767898565158, 371.63759849686176, -0.03200000151991844, 0.3680000174790621, 0.9600000455975533, 0.0, 0.0, 0.0, 0.0, 0.0, 1.6483378894708292E9, 0.0, 2022-03-26 18:38:09.470
92.0, 516.3623770321719, 63.59325884655118, 781.9682019352913, 373.6646242728457, -0.03200000151991844, 0.3680000174790621, 0.9600000455975533, 0.0, 0.0, 0.0, 0.0, 0.0, 1.6483378894708292E9, 0.0, 2022-03-26 18:38:09.470
93.0, 518.3108649090864, 70.90476325992495, 775.9469630066305, 378.97902210988104, -0.03200000151991844, 0.3680000174790621, 0.9600000455975533, 0.0, 0.0, 0.0, 0.0, 0.0, 1.648337889486596E9, 0.0, 2022-03-26 18:38:09.486
93.0, 517.8059784150682, 77.01949968747795, 790.1885020378977, 387.30777931120247, -0.03200000151991844, 0.3680000174790621, 0.9600000455975533, 0.0, 0.0, 0.0, 0.0, 0.0, 1.648337889486596E9, 0.0, 2022-03-26 18:38:09.486
94.0, 519.4403146957047, 69.98100797086954, 793.4384750993922, 373.4813691750169, -0.03200000151991844, 0.3680000174790621, 0.9600000455975533, 0.0, 0.0, 0.0, 0.0, 0.0, 1.6483378894873211E9, 0.0, 2022-03-26 18:38:09.487
94.0, 517.5965440175496, 67.34063860215247, 788.5055470578372, 379.27821410633624, -0.03200000151991844, 0.3680000174790621, 0.9600000455975533, 0.0, 0.0, 0.0, 0.0, 0.0, 1.6483378894873211E9, 0.0, 2022-03-26 18:38:09.487
95.0, 514.974874148611, 62.48998835962266, 785.67444279138, 382.9919347623363, -0.03200000151991844, 0.3680000174790621, 0.9600000455975533, 0.0, 0.0, 0.0, 0.0, 0.0, 1.6483378895008342E9, 0.0, 2022-03-26 18:38:09.500
95.0, 513.8603839618154, 58.29382060933858, 786.5346197811887, 378.79576701205224, -0.03200000151991844, 0.3680000174790621, 0.9600000455975533, 0.0, 0.0, 0.0, 0.0, 0.0, 1.6483378895008342E9, 0.0, 2022-03-26 18:38:09.500
96.0, 507.35669793887064, 62.8078798558563, 788.8795370534062, 361.14717912115157, -0.03200000151991844, 0.3680000174790621, 0.9600000455975533, 0.0, 0.0, 0.0, 0.0, 0.0, 1.6483378895166087E9, 0.0, 2022-03-26 18:38:09.516
96.0, 513.1161438706331, 66.96664860658348, 786.639336979948, 384.5926119433716, -0.03200000151991844, 0.3680000174790621, 0.9600000455975533, 0.0, 0.0, 0.0, 0.0, 0.0, 1.6483378895166087E9, 0.0, 2022-03-26 18:38:09.516
97.0, 519.1224231994711, 66.14761051628739, 795.659975673072, 392.5286796493456, -0.03200000151991844, 0.3680000174790621, 0.9600000455975533, 0.0, 0.0, 0.0, 0.0, 0.0, 1.648337889517239E9, 0.0, 2022-03-26 18:38:09.517
97.0, 513.5312727657147, 58.29756050929427, 779.9710953589529, 375.2840009536594, -0.03200000151991844, 0.3680000174790621, 0.9600000455975533, 0.0, 0.0, 0.0, 0.0, 0.0, 1.648337889517239E9, 0.0, 2022-03-26 18:38:09.517
98.0, 517.6451627169736, 70.08198526967317, 784.5225536050275, 379.6970829013735, -0.03200000151991844, 0.3680000174790621, 0.9600000455975533, 0.0, 0.0, 0.0, 0.0, 0.0, 1.648337889531001E9, 0.0, 2022-03-26 18:38:09.531
98.0, 520.5024462831207, 80.57614454533905, 789.7322342433035, 383.72121525369585, -0.03200000151991844, 0.3680000174790621, 0.9600000455975533, 0.0, 0.0, 0.0, 0.0, 0.0, 1.648337889531001E9, 0.0, 2022-03-26 18:38:09.531
99.0, 509.12567061791196, 77.79739887826145, 779.5297871641815, 362.2018309086561, -0.03200000151991844, 0.3680000174790621, 0.9600000455975533, 0.0, 0.0, 0.0, 0.0, 0.0, 1.648337889546556E9, 0.0, 2022-03-26 18:38:09.546
99.0, 517.7012612163089, 92.25959200691432, 789.1263704504818, 378.8481256114319, -0.03200000151991844, 0.3680000174790621, 0.9600000455975533, 0.0, 0.0, 0.0, 0.0, 0.0, 1.648337889546556E9, 0.0, 2022-03-26 18:38:09.546
100.0, 524.3395836376585, 89.10311644431204, 786.7253546789289, 385.86791782826185, -0.03200000151991844, 0.3680000174790621, 0.944000044837594, 0.0, 0.0, 0.0, 0.0, 0.0, 1.6483378895472953E9, 0.0, 2022-03-26 18:38:09.547
100.0, 517.989233512897, 84.7461329959333, 782.6937425266951, 377.78599402401596, -0.03200000151991844, 0.3680000174790621, 0.944000044837594, 0.0, 0.0, 0.0, 0.0, 0.0, 1.6483378895472953E9, 0.0, 2022-03-26 18:38:09.547
0.0, 503.53078028419986, 76.64924959186465, 784.0157971610315, 368.3146973862313, -0.03200000151991844, 0.3680000174790621, 0.944000044837594, 0.0, 0.0, 0.0, 0.0, 0.0, 1.648337889561532E9, 0.0, 2022-03-26 18:38:09.561
1.0, 506.98270794330165, 81.25680633727461, 778.1291946307756, 366.5232853074558, -0.03200000151991844, 0.3840000182390213, 0.944000044837594, 0.0, 0.0, 0.0, 0.0, 0.0, 1.6483378895622997E9, 0.0, 2022-03-26 18:38:09.562
1.0, 510.98814079584554, 71.46948815323412, 784.1317340596579, 367.19646729948, -0.03200000151991844, 0.3840000182390213, 0.944000044837594, 0.0, 0.0, 0.0, 0.0, 0.0, 1.6483378895622997E9, 0.0, 2022-03-26 18:38:09.562
2.0, 505.6700030588545, 70.78508646134287, 783.0658625722863, 362.3046781574376, -0.04800000227987766, 0.3840000182390213, 0.944000044837594, 0.0, 0.0, 0.0, 0.0, 0.0, 1.6483378895759141E9, 0.0, 2022-03-26 18:38:09.575
2.0, 511.49676718981937, 73.94156202394515, 786.9815378258936, 361.75865276390687, -0.04800000227987766, 0.3840000182390213, 0.944000044837594, 0.0, 0.0, 0.0, 0.0, 0.0, 1.6483378895759141E9, 0.0, 2022-03-26 18:38:09.575
3.0, 504.09176527755335, 78.19756817352027, 783.1630999711342, 359.3464172924869, -0.04800000227987766, 0.3840000182390213, 0.944000044837594, 0.0, 0.0, 0.0, 0.0, 0.0, 1.6483378895915313E9, 0.0, 2022-03-26 18:38:09.591
3.0, 503.0333735900931, 76.2976989960298, 773.7647313824855, 356.75840652314946, -0.04800000227987766, 0.3840000182390213, 0.944000044837594, 0.0, 0.0, 0.0, 0.0, 0.0, 1.6483378895915313E9, 0.0, 2022-03-26 18:38:09.591
4.0, 499.5178676317446, 76.22664089687169, 768.8318033409305, 354.9295954448171, -0.04800000227987766, 0.3840000182390213, 0.944000044837594, 0.0, 0.0, 0.0, 0.0, 0.0, 1.6483378895922313E9, 0.0, 2022-03-26 18:38:09.592
4.0, 509.3650242150761, 72.13145044539124, 782.5946351778693, 361.7137739644386, -0.04800000227987766, 0.3840000182390213, 0.944000044837594, 0.0, 0.0, 0.0, 0.0, 0.0, 1.6483378895922313E9, 0.0, 2022-03-26 18:38:09.592
5.0, 514.6981215518899, 66.96664860658348, 791.1103873769753, 367.1179294004105, -0.04800000227987766, 0.3840000182390213, 0.944000044837594, 0.0, 0.0, 0.0, 0.0, 0.0, 1.6483378896059113E9, 0.0, 2022-03-26 18:38:09.605
5.0, 511.79221928631887, 73.27959973178804, 791.9855239666067, 356.6686489242129, -0.04800000227987766, 0.3840000182390213, 0.944000044837594, 0.0, 0.0, 0.0, 0.0, 0.0, 1.6483378896059113E9, 0.0, 2022-03-26 18:38:09.605
6.0, 512.5850780769251, 83.74009990785271, 789.0945813008584, 365.4087951206602, -0.04800000227987766, 0.3840000182390213, 0.944000044837594, 0.0, 0.0, 0.0, 0.0, 0.0, 1.6483378896214693E9, 0.0, 2022-03-26 18:38:09.621
6.0, 512.1923885815777, 86.09249697998166, 794.4875170369633, 381.96159232454374, -0.04800000227987766, 0.3840000182390213, 0.944000044837594, 0.0, 0.0, 0.0, 0.0, 0.0, 1.6483378896214693E9, 0.0, 2022-03-26 18:38:09.621
7.0, 512.2784062805586, 79.73092715535313, 794.8315878328867, 375.5401841006242, -0.04800000227987766, 0.3840000182390213, 0.944000044837594, 0.0, 0.0, 0.0, 0.0, 0.0, 1.6483378896222043E9, 0.0, 2022-03-26 18:38:09.622
7.0, 514.7654397510923, 81.17826843820512, 793.8928729440086, 374.1900802166201, -0.04800000227987766, 0.3840000182390213, 0.944000044837594, 0.0, 0.0, 0.0, 0.0, 0.0, 1.6483378896222043E9, 0.0, 2022-03-26 18:38:09.622
8.0, 517.0505186240189, 77.53934578131884, 787.1610530237667, 380.33099594386294, -0.04800000227987766, 0.3840000182390213, 0.944000044837594, 0.0, 0.0, 0.0, 0.0, 0.0, 1.6483378896358545E9, 0.0, 2022-03-26 18:38:09.635
8.0, 515.8799299378879, 78.13398987427354, 788.0960280126892, 373.06063043000177, -0.04800000227987766, 0.3840000182390213, 0.944000044837594, 0.0, 0.0, 0.0, 0.0, 0.0, 1.6483378896358545E9, 0.0, 2022-03-26 18:38:09.635
9.0, 515.3713035439141, 77.46454778220505, 793.1299333530478, 373.3037239271216, -0.04800000227987766, 0.3840000182390213, 0.944000044837594, 0.0, 0.0, 0.0, 0.0, 0.0, 1.648337889651569E9, 0.0, 2022-03-26 18:38:09.651
9.0, 521.198067674879, 81.48868013452739, 783.6979056647979, 382.91900671320036, -0.04800000227987766, 0.3840000182390213, 0.944000044837594, 0.0, 0.0, 0.0, 0.0, 0.0, 1.648337889651569E9, 0.0, 2022-03-26 18:38:09.651
10.0, 526.8004378085025, 69.50230077654123, 792.2660164632834, 376.25450499216095, -0.04800000227987766, 0.3840000182390213, 0.9600000455975533, 0.0, 0.0, 0.0, 0.0, 0.0, 1.6483378896522896E9, 0.0, 2022-03-26 18:38:09.652
10.0, 523.1989141511731, 81.98234692867845, 799.3493869793601, 371.43377394927666, -0.04800000227987766, 0.3840000182390213, 0.9600000455975533, 0.0, 0.0, 0.0, 0.0, 0.0, 1.6483378896522896E9, 0.0, 2022-03-26 18:38:09.652
11.0, 523.778598644305, 80.74817994330078, 792.3595139621757, 375.77579779783264, -0.04800000227987766, 0.3840000182390213, 0.9600000455975533, 0.0, 0.0, 0.0, 0.0, 0.0, 1.6483378896657944E9, 0.0, 2022-03-26 18:38:09.665
11.0, 522.8099645557813, 88.87498254701495, 791.7947890688665, 376.77061118604615, -0.04800000227987766, 0.3840000182390213, 0.9600000455975533, 0.0, 0.0, 0.0, 0.0, 0.0, 1.6483378896657944E9, 0.0, 2022-03-26 18:38:09.665
12.0, 520.3528502848931, 81.92250852938741, 798.5490483888425, 364.7393530285917, -0.06400000303983688, 0.3840000182390213, 0.9600000455975533, 0.0, 0.0, 0.0, 0.0, 0.0, 1.6483378896815927E9, 0.0, 2022-03-26 18:38:09.681
12.0, 527.9485870948993, 86.7432395722717, 804.2673554210924, 363.20225414680317, -0.06400000303983688, 0.3840000182390213, 0.9600000455975533, 0.0, 0.0, 0.0, 0.0, 0.0, 1.6483378896815927E9, 0.0, 2022-03-26 18:38:09.681
13.0, 528.8835620838217, 80.95387444086373, 797.0568283065222, 377.0473637827672, -0.06400000303983688, 0.3840000182390213, 0.9600000455975533, 0.0, 0.0, 0.0, 0.0, 0.0, 1.6483378896823092E9, 0.0, 2022-03-26 18:38:09.682
13.0, 520.4239083840512, 79.98524035234004, 791.6900718701072, 368.90934147918597, -0.06400000303983688, 0.3840000182390213, 0.9600000455975533, 0.0, 0.0, 0.0, 0.0, 0.0, 1.6483378896823092E9, 0.0, 2022-03-26 18:38:09.682
14.0, 526.5087256119587, 84.51799909863621, 805.2023304100148, 375.8730351966806, -0.06400000303983688, 0.3840000182390213, 0.9600000455975533, 0.0, 0.0, 0.0, 0.0, 0.0, 1.6483378896958396E9, 0.0, 2022-03-26 18:38:09.695
14.0, 532.0587371462025, 91.77340501267463, 821.5382134164684, 358.1982680060901, -0.06400000303983688, 0.3840000182390213, 0.9600000455975533, 0.0, 0.0, 0.0, 0.0, 0.0, 1.6483378896958396E9, 0.0, 2022-03-26 18:38:09.695
15.0, 532.2120730443858, 102.0095111913979, 818.8941041477956, 368.36705598561093, -0.06400000303983688, 0.3840000182390213, 0.9600000455975533, 0.0, 0.0, 0.0, 0.0, 0.0, 1.6483378897115512E9, 0.0, 2022-03-26 18:38:09.711
15.0, 530.0952896694653, 90.91696792282164, 817.7534346613102, 364.61219643009827, -0.06400000303983688, 0.3840000182390213, 0.9600000455975533, 0.0, 0.0, 0.0, 0.0, 0.0, 1.6483378897115512E9, 0.0, 2022-03-26 18:38:09.711
16.0, 525.599929922726, 94.7466254774481, 819.0511799459346, 370.1659478642978, -0.06400000303983688, 0.3840000182390213, 0.9600000455975533, 0.0, 0.0, 0.0, 0.0, 0.0, 1.648337889712334E9, 0.0, 2022-03-26 18:38:09.712
16.0, 528.868602483999, 93.18708719592541, 828.3747505354695, 371.4449936491437, -0.06400000303983688, 0.3840000182390213, 0.9600000455975533, 0.0, 0.0, 0.0, 0.0, 0.0, 1.648337889712334E9, 0.0, 2022-03-26 18:38:09.712
17.0, 526.1347356163897, 93.75929188914597, 825.1808759733103, 362.54777165455744, -0.06400000303983688, 0.3840000182390213, 0.9600000455975533, 0.0, 0.0, 0.0, 0.0, 0.0, 1.6483378897422647E9, 0.0, 2022-03-26 18:38:09.742
17.0, 535.7799376021139, 105.26696405280381, 828.4420687346719, 367.21516679925844, -0.06400000303983688, 0.3840000182390213, 0.9600000455975533, 0.0, 0.0, 0.0, 0.0, 0.0, 1.6483378897422647E9, 0.0, 2022-03-26 18:38:09.742
18.0, 530.3234235667624, 96.80357045307755, 815.9021841832437, 371.5272714481689, -0.06400000303983688, 0.3840000182390213, 0.9600000455975533, 0.0, 0.0, 0.0, 0.0, 0.0, 1.6483378897430184E9, 0.0, 2022-03-26 18:38:09.743
18.0, 521.9161284663714, 89.10311644431204, 810.8645389429294, 367.4956592959352, -0.06400000303983688, 0.3840000182390213, 0.9600000455975533, 0.0, 0.0, 0.0, 0.0, 0.0, 1.6483378897430184E9, 0.0, 2022-03-26 18:38:09.743
19.0, 528.1281022927724, 97.2710579475388, 831.35919070011, 363.43412794405594, -0.06400000303983688, 0.3840000182390213, 0.9600000455975533, 0.0, 0.0, 0.0, 0.0, 0.0, 1.6483378897438517E9, 0.0, 2022-03-26 18:38:09.743
19.0, 527.9373673950322, 115.54046923108399, 842.2348197712563, 376.4975984892808, -0.06400000303983688, 0.3840000182390213, 0.9600000455975533, 0.0, 0.0, 0.0, 0.0, 0.0, 1.6483378897438517E9, 0.0, 2022-03-26 18:38:09.743
20.0, 530.5029387646355, 118.2406769990921, 841.8944888752885, 373.9694261192344, -0.06400000303983688, 0.3840000182390213, 0.9600000455975533, 0.0, 0.0, 0.0, 0.0, 0.0, 1.648337889755962E9, 0.0, 2022-03-26 18:38:09.755
20.0, 534.6317883157171, 118.04246230144054, 841.7149736774154, 366.8149975039996, -0.06400000303983688, 0.3840000182390213, 0.9600000455975533, 0.0, 0.0, 0.0, 0.0, 0.0, 1.648337889755962E9, 0.0, 2022-03-26 18:38:09.755
21.0, 538.6521807680838, 122.38448614999652, 848.8694022926502, 374.0554438182153, -0.06400000303983688, 0.3840000182390213, 0.9600000455975533, 0.0, 0.0, 0.0, 0.0, 0.0, 1.6483378897715824E9, 0.0, 2022-03-26 18:38:09.771
21.0, 532.6421615392901, 116.80081551615149, 846.1542349248193, 369.343169874046, -0.06400000303983688, 0.3840000182390213, 0.9600000455975533, 0.0, 0.0, 0.0, 0.0, 0.0, 1.6483378897715824E9, 0.0, 2022-03-26 18:38:09.771
22.0, 528.277698291, 112.97115796152502, 845.5595908318646, 378.1992529691197, -0.06400000303983688, 0.3840000182390213, 0.9600000455975533, 0.0, 0.0, 0.0, 0.0, 0.0, 1.6483378897722876E9, 0.0, 2022-03-26 18:38:09.772
22.0, 529.3323500785045, 110.4616850912571, 854.6924265236594, 371.7890644450672, -0.06400000303983688, 0.3840000182390213, 0.9600000455975533, 0.0, 0.0, 0.0, 0.0, 0.0, 1.6483378897722876E9, 0.0, 2022-03-26 18:38:09.772
23.0, 537.3319960837252, 120.26396287512034, 854.1688405298628, 384.29528989689425, -0.06400000303983688, 0.3840000182390213, 0.9600000455975533, 0.0, 0.0, 0.0, 0.0, 0.0, 1.6483378897860205E9, 0.0, 2022-03-26 18:38:09.786
23.0, 545.7617305838503, 131.71179663948715, 859.2625842695124, 385.37612098408863, -0.06400000303983688, 0.3840000182390213, 0.9600000455975533, 0.0, 0.0, 0.0, 0.0, 0.0, 1.6483378897860205E9, 0.0, 2022-03-26 18:38:09.786
24.0, 547.8186755594797, 121.80480165686458, 849.1349351895042, 389.40025333641097, -0.06400000303983688, 0.3840000182390213, 0.9600000455975533, 0.0, 0.0, 0.0, 0.0, 0.0, 1.6483378898014493E9, 0.0, 2022-03-26 18:38:09.801
24.0, 534.9384601120837, 106.85268163401634, 853.0543503430672, 379.8298493498005, -0.06400000303983688, 0.3840000182390213, 0.9600000455975533, 0.0, 0.0, 0.0, 0.0, 0.0, 1.6483378898014493E9, 0.0, 2022-03-26 18:38:09.801
25.0, 532.9376136357896, 101.2353519005701, 846.4347274214961, 395.10734066879377, -0.06400000303983688, 0.3840000182390213, 0.9600000455975533, 0.0, 0.0, 0.0, 0.0, 0.0, 1.648337889816592E9, 0.0, 2022-03-26 18:38:09.816
25.0, 525.6298491223715, 87.3752826647833, 825.8054392659105, 386.18393937451765, -0.06400000303983688, 0.3840000182390213, 0.9600000455975533, 0.0, 0.0, 0.0, 0.0, 0.0, 1.648337889816592E9, 0.0, 2022-03-26 18:38:09.816
26.0, 523.6402223459445, 98.4528663335368, 835.5216993507929, 401.48760999320075, -0.06400000303983688, 0.3840000182390213, 0.9600000455975533, 0.0, 0.0, 0.0, 0.0, 0.0, 1.648337889817269E9, 0.0, 2022-03-26 18:38:09.817
26.0, 527.2791450028308, 92.55878400336951, 849.5126650850289, 401.1659785970114, -0.06400000303983688, 0.3840000182390213, 0.9600000455975533, 0.0, 0.0, 0.0, 0.0, 0.0, 1.648337889817269E9, 0.0, 2022-03-26 18:38:09.817
27.0, 518.363223508466, 97.21869934815913, 850.4177208743058, 402.8377138772048, -0.06400000303983688, 0.3840000182390213, 0.9600000455975533, 0.0, 0.0, 0.0, 0.0, 0.0, 1.6483378898316047E9, 0.0, 2022-03-26 18:38:09.831
27.0, 528.1991603919305, 98.12375513743609, 851.6444080597721, 403.14812557352707, -0.06400000303983688, 0.3840000182390213, 0.9600000455975533, 0.0, 0.0, 0.0, 0.0, 0.0, 1.6483378898316047E9, 0.0, 2022-03-26 18:38:09.831
28.0, 525.3605763255619, 88.93856084626168, 848.3084172992967, 406.97030332824215, -0.06400000303983688, 0.3840000182390213, 0.9600000455975533, 0.0, 0.0, 0.0, 0.0, 0.0, 1.6483378898323262E9, 0.0, 2022-03-26 18:38:09.832
28.0, 526.3740892135538, 89.42474784050137, 842.937920962926, 411.33850647648796, -0.06400000303983688, 0.3840000182390213, 0.9600000455975533, 0.0, 0.0, 0.0, 0.0, 0.0, 1.6483378898323262E9, 0.0, 2022-03-26 18:38:09.832
29.0, 523.5429849470966, 86.77315877191722, 836.0078863450326, 401.7681024898775, -0.06400000303983688, 0.3840000182390213, 0.9600000455975533, 0.0, 0.0, 0.0, 0.0, 0.0, 1.6483378898459823E9, 0.0, 2022-03-26 18:38:09.845
29.0, 520.9549741777591, 87.42016146425158, 823.4343426940031, 406.7234699311666, -0.06400000303983688, 0.3840000182390213, 0.9600000455975533, 0.0, 0.0, 0.0, 0.0, 0.0, 1.6483378898459823E9, 0.0, 2022-03-26 18:38:09.845
30.0, 522.4808533596806, 96.40714105777442, 835.7273938483559, 409.7415691954084, -0.06400000303983688, 0.3840000182390213, 0.9600000455975533, 0.0, 0.0, 0.0, 0.0, 0.0, 1.6483378898615603E9, 0.0, 2022-03-26 18:38:09.861
30.0, 518.9728272012435, 93.27684479486197, 840.2900717942975, 405.41824484663084, -0.06400000303983688, 0.3840000182390213, 0.9600000455975533, 0.0, 0.0, 0.0, 0.0, 0.0, 1.6483378898615603E9, 0.0, 2022-03-26 18:38:09.861
31.0, 518.2323270100169, 91.12266242038459, 837.5300256269984, 409.6592913963832, -0.06400000303983688, 0.4000000189989805, 0.9600000455975533, 0.0, 0.0, 0.0, 0.0, 0.0, 1.6483378898622868E9, 0.0, 2022-03-26 18:38:09.862
31.0, 520.1621153871529, 97.05414375010878, 836.1649621431716, 393.4917038879357, -0.06400000303983688, 0.4000000189989805, 0.9600000455975533, 0.0, 0.0, 0.0, 0.0, 0.0, 1.6483378898622868E9, 0.0, 2022-03-26 18:38:09.862
32.0, 519.1224231994711, 99.31304332334548, 832.3427843884565, 394.95774467056617, -0.04800000227987766, 0.4000000189989805, 0.9600000455975533, 0.0, 0.0, 0.0, 0.0, 0.0, 1.64833788987598E9, 0.0, 2022-03-26 18:38:09.875
32.0, 529.1640545804985, 90.13906873203814, 833.4310952755623, 396.7229774496518, -0.04800000227987766, 0.4000000189989805, 0.9600000455975533, 0.0, 0.0, 0.0, 0.0, 0.0, 1.64833788987598E9, 0.0, 2022-03-26 18:38:09.875
33.0, 521.2953050737269, 88.21302025485784, 819.8739579361863, 410.49702898645774, -0.04800000227987766, 0.4000000189989805, 0.9600000455975533, 0.0, 0.0, 0.0, 0.0, 0.0, 1.6483378898916745E9, 0.0, 2022-03-26 18:38:09.891
33.0, 521.0447317766957, 96.09672936145216, 834.1790752667002, 409.0721271033399, -0.04800000227987766, 0.4000000189989805, 0.9600000455975533, 0.0, 0.0, 0.0, 0.0, 0.0, 1.6483378898916745E9, 0.0, 2022-03-26 18:38:09.891
34.0, 525.4989526239224, 90.0418313331902, 843.7681787530892, 409.11700590280816, -0.04800000227987766, 0.4000000189989805, 0.9600000455975533, 0.0, 0.0, 0.0, 0.0, 0.0, 1.648337889892412E9, 0.0, 2022-03-26 18:38:09.892
34.0, 531.2957975552417, 100.24801831226796, 844.4077016455121, 417.83097279956564, -0.04800000227987766, 0.4000000189989805, 0.9600000455975533, 0.0, 0.0, 0.0, 0.0, 0.0, 1.648337889892412E9, 0.0, 2022-03-26 18:38:09.892
35.0, 531.546370852273, 101.33632919937372, 837.9152353224345, 426.9338892917149, -0.04800000227987766, 0.4000000189989805, 0.9600000455975533, 0.0, 0.0, 0.0, 0.0, 0.0, 1.6483378899059324E9, 0.0, 2022-03-26 18:38:09.905
35.0, 526.5124655119143, 90.82721032388508, 839.5383519032039, 424.3683179221116, -0.04800000227987766, 0.4000000189989805, 0.9600000455975533, 0.0, 0.0, 0.0, 0.0, 0.0, 1.6483378899059324E9, 0.0, 2022-03-26 18:38:09.905
36.0, 529.14535508072, 92.57374360319227, 839.3289175056852, 434.8475175979547, -0.04800000227987766, 0.4000000189989805, 0.9600000455975533, 0.0, 0.0, 0.0, 0.0, 0.0, 1.6483378899215648E9, 0.0, 2022-03-26 18:38:09.921
36.0, 525.3381369258277, 83.56432460993528, 816.8259394722991, 419.8392990757711, -0.04800000227987766, 0.4000000189989805, 0.9600000455975533, 0.0, 0.0, 0.0, 0.0, 0.0, 1.6483378899215648E9, 0.0, 2022-03-26 18:38:09.921
37.0, 531.5800299518742, 95.8611156642437, 832.9486481812783, 419.53636717936024, -0.04800000227987766, 0.4000000189989805, 0.9600000455975533, 0.0, 0.0, 0.0, 0.0, 0.0, 1.648337889922282E9, 0.0, 2022-03-26 18:38:09.922
37.0, 537.5451703811996, 96.93820685148239, 837.0513184326701, 411.26370847737417, -0.04800000227987766, 0.4000000189989805, 0.9600000455975533, 0.0, 0.0, 0.0, 0.0, 0.0, 1.648337889922282E9, 0.0, 2022-03-26 18:38:09.922
38.0, 525.3979753251188, 76.40989599470049, 825.2481941725127, 422.78634024085477, -0.04800000227987766, 0.4000000189989805, 0.9600000455975533, 0.0, 0.0, 0.0, 0.0, 0.0, 1.6483378899359353E9, 0.0, 2022-03-26 18:38:09.935
38.0, 533.427540529985, 83.08561741560698, 830.3194985124283, 421.3689181576483, -0.04800000227987766, 0.4000000189989805, 0.9600000455975533, 0.0, 0.0, 0.0, 0.0, 0.0, 1.6483378899359353E9, 0.0, 2022-03-26 18:38:09.935
39.0, 528.6703877863474, 87.65203526150435, 805.1611915105022, 411.52924137422815, -0.04800000227987766, 0.4000000189989805, 0.9600000455975533, 0.0, 0.0, 0.0, 0.0, 0.0, 1.6483378899515727E9, 0.0, 2022-03-26 18:38:09.951
39.0, 537.0627232869156, 89.32003064174205, 803.511895630043, 422.0308804498054, -0.04800000227987766, 0.4000000189989805, 0.9600000455975533, 0.0, 0.0, 0.0, 0.0, 0.0, 1.6483378899515727E9, 0.0, 2022-03-26 18:38:09.951
40.0, 538.7194989672862, 93.66205449029803, 812.4016378247179, 411.57412017369643, -0.04800000227987766, 0.4000000189989805, 0.9760000463575125, 0.0, 0.0, 0.0, 0.0, 0.0, 1.6483378899523451E9, 0.0, 2022-03-26 18:38:09.952
40.0, 533.0909495339729, 89.79125803615898, 816.7735808729194, 411.12159227905795, -0.04800000227987766, 0.4000000189989805, 0.9760000463575125, 0.0, 0.0, 0.0, 0.0, 0.0, 1.6483378899523451E9, 0.0, 2022-03-26 18:38:09.952
41.0, 538.8877944652922, 89.91093483474106, 829.7285943194292, 399.8794530122541, -0.04800000227987766, 0.41600001975893974, 0.9760000463575125, 0.0, 0.0, 0.0, 0.0, 0.0, 1.6483378899658666E9, 0.0, 2022-03-26 18:38:09.965
41.0, 531.0040853586979, 81.16330883838236, 826.9087097528391, 407.9800763162784, -0.04800000227987766, 0.41600001975893974, 0.9760000463575125, 0.0, 0.0, 0.0, 0.0, 0.0, 1.6483378899658666E9, 0.0, 2022-03-26 18:38:09.965
42.0, 515.0197529480793, 58.22650241013616, 809.4358971598558, 384.6730197924189, -0.04800000227987766, 0.41600001975893974, 0.9760000463575125, 0.0, 0.0, 0.0, 0.0, 0.0, 1.6483378899815485E9, 0.0, 2022-03-26 18:38:09.981
42.0, 519.4702338953502, 82.87244311813265, 823.1426304974593, 401.74566309014335, -0.04800000227987766, 0.41600001975893974, 0.9760000463575125, 0.0, 0.0, 0.0, 0.0, 0.0, 1.6483378899815485E9, 0.0, 2022-03-26 18:38:09.981
43.0, 520.2518729860894, 86.32437077723444, 814.8213530960493, 403.2865018718876, -0.04800000227987766, 0.41600001975893974, 0.9760000463575125, 0.0, 0.0, 0.0, 0.0, 0.0, 1.6483378899822562E9, 0.0, 2022-03-26 18:38:09.982
43.0, 524.9080484309234, 82.00852622836828, 811.3918648366816, 398.11048033321276, -0.04800000227987766, 0.41600001975893974, 0.9760000463575125, 0.0, 0.0, 0.0, 0.0, 0.0, 1.6483378899822562E9, 0.0, 2022-03-26 18:38:09.982
44.0, 522.0171057651751, 76.46225459408015, 821.3811376183294, 395.99743685824797, -0.04800000227987766, 0.41600001975893974, 0.9760000463575125, 0.0, 0.0, 0.0, 0.0, 0.0, 1.6483378899959445E9, 0.0, 2022-03-26 18:38:09.995
44.0, 521.3514035730623, 75.31036540772766, 823.2623072960414, 394.0863479808904, -0.04800000227987766, 0.41600001975893974, 0.9760000463575125, 0.0, 0.0, 0.0, 0.0, 0.0, 1.6483378899959445E9, 0.0, 2022-03-26 18:38:09.995
45.0, 523.4008687487803, 82.24040002562106, 826.1756893615238, 403.93724446417764, -0.04800000227987766, 0.41600001975893974, 0.9760000463575125, 0.0, 0.0, 0.0, 0.0, 0.0, 1.6483378900115705E9, 0.0, 2022-03-26 18:38:10.011
45.0, 516.0557052358054, 72.76723343785852, 817.2709875670262, 391.9022464067675, -0.04800000227987766, 0.41600001975893974, 0.9760000463575125, 0.0, 0.0, 0.0, 0.0, 0.0, 1.6483378900115705E9, 0.0, 2022-03-26 18:38:10.011
46.0, 513.912742561195, 58.918383901938796, 805.0901334113441, 388.5325965466909, -0.04800000227987766, 0.41600001975893974, 0.9760000463575125, 0.0, 0.0, 0.0, 0.0, 0.0, 1.6483378900122936E9, 0.0, 2022-03-26 18:38:10.012
46.0, 515.2104878458194, 71.65648315101862, 807.8613992785104, 391.4609382119961, -0.04800000227987766, 0.41600001975893974, 0.9760000463575125, 0.0, 0.0, 0.0, 0.0, 0.0, 1.6483378900122936E9, 0.0, 2022-03-26 18:38:10.012
47.0, 506.94904884370044, 57.695436616428196, 801.9673169483431, 376.69955308688805, -0.04800000227987766, 0.41600001975893974, 0.9760000463575125, 0.0, 0.0, 0.0, 0.0, 0.0, 1.6483378900259125E9, 0.0, 2022-03-26 18:38:10.025
47.0, 504.8584447684698, 49.650911811739206, 808.6991368685849, 382.26078432099894, -0.04800000227987766, 0.41600001975893974, 0.9760000463575125, 0.0, 0.0, 0.0, 0.0, 0.0, 1.6483378900259125E9, 0.0, 2022-03-26 18:38:10.025
48.0, 502.7678406932391, 45.75019615795463, 805.6623381045647, 379.799930150155, -0.04800000227987766, 0.41600001975893974, 0.9760000463575125, 0.0, 0.0, 0.0, 0.0, 0.0, 1.6483378900415387E9, 0.0, 2022-03-26 18:38:10.041
48.0, 499.2261554352008, 61.349318873137236, 815.1429844922386, 373.1129890293814, -0.04800000227987766, 0.41600001975893974, 0.9760000463575125, 0.0, 0.0, 0.0, 0.0, 0.0, 1.6483378900415387E9, 0.0, 2022-03-26 18:38:10.041
49.0, 496.78774066409096, 52.29876098036766, 812.2744812262245, 375.3531891028397, -0.04800000227987766, 0.41600001975893974, 0.9760000463575125, 0.0, 0.0, 0.0, 0.0, 0.0, 1.6483378900422473E9, 0.0, 2022-03-26 18:38:10.042
49.0, 493.4330504038371, 51.285248092375696, 803.5642542294227, 374.99041880713776, -0.04800000227987766, 0.41600001975893974, 0.9760000463575125, 0.0, 0.0, 0.0, 0.0, 0.0, 1.6483378900422473E9, 0.0, 2022-03-26 18:38:10.042
50.0, 491.15171143086627, 45.45848396141082, 793.6236001471989, 355.19886824162677, -0.04800000227987766, 0.41600001975893974, 0.9600000455975533, 0.0, 0.0, 0.0, 0.0, 0.0, 1.6483378900559428E9, 0.0, 2022-03-26 18:38:10.055
50.0, 482.1722116372548, 45.53328196052462, 795.3028152273037, 366.03335841326043, -0.04800000227987766, 0.41600001975893974, 0.9600000455975533, 0.0, 0.0, 0.0, 0.0, 0.0, 1.6483378900559428E9, 0.0, 2022-03-26 18:38:10.055
51.0, 486.75732898293063, 57.11201222334057, 797.2026844047941, 370.7605919572525, -0.04800000227987766, 0.3840000182390213, 0.9600000455975533, 0.0, 0.0, 0.0, 0.0, 0.0, 1.6483378900715678E9, 0.0, 2022-03-26 18:38:10.071
51.0, 488.23458946542814, 41.628826406784356, 796.2527498160489, 371.28791785100475, -0.04800000227987766, 0.3840000182390213, 0.9600000455975533, 0.0, 0.0, 0.0, 0.0, 0.0, 1.6483378900715678E9, 0.0, 2022-03-26 18:38:10.071
52.0, 478.45475108129904, 31.553535926155746, 784.094335060101, 350.6399301956408, -0.03200000151991844, 0.3840000182390213, 0.9600000455975533, 0.0, 0.0, 0.0, 0.0, 0.0, 1.6483378900722544E9, 0.0, 2022-03-26 18:38:10.072
52.0, 489.04614775581285, 46.479476649314165, 804.41695141932, 364.1484488355927, -0.03200000151991844, 0.3840000182390213, 0.9600000455975533, 0.0, 0.0, 0.0, 0.0, 0.0, 1.6483378900722544E9, 0.0, 2022-03-26 18:38:10.072
53.0, 482.86409312905744, 45.682877958752215, 790.149233088363, 355.09789094282314, -0.03200000151991844, 0.3840000182390213, 0.9600000455975533, 0.0, 0.0, 0.0, 0.0, 0.0, 1.6483378900860088E9, 0.0, 2022-03-26 18:38:10.086
53.0, 484.184277813416, 47.94551743194461, 796.0320957186632, 364.9300879263319, -0.03200000151991844, 0.3840000182390213, 0.9600000455975533, 0.0, 0.0, 0.0, 0.0, 0.0, 1.6483378900860088E9, 0.0, 2022-03-26 18:38:10.086
54.0, 486.3160207881592, 54.284647856839, 800.7107105632313, 343.485501580406, -0.03200000151991844, 0.3840000182390213, 0.9600000455975533, 0.0, 0.0, 0.0, 0.0, 0.0, 1.6483378901016054E9, 0.0, 2022-03-26 18:38:10.101
54.0, 493.9304570979439, 60.163770587183535, 812.098705928307, 367.95940689044073, -0.03200000151991844, 0.3840000182390213, 0.9600000455975533, 0.0, 0.0, 0.0, 0.0, 0.0, 1.6483378901016054E9, 0.0, 2022-03-26 18:38:10.101
55.0, 490.6318653370254, 55.06628694757819, 816.7436616732739, 363.6323426417075, -0.03200000151991844, 0.3840000182390213, 0.9600000455975533, 0.0, 0.0, 0.0, 0.0, 0.0, 1.6483378901023307E9, 0.0, 2022-03-26 18:38:10.102
55.0, 487.5090488740243, 51.84249318577349, 809.6303719575517, 354.39852965110913, -0.03200000151991844, 0.3840000182390213, 0.9600000455975533, 0.0, 0.0, 0.0, 0.0, 0.0, 1.6483378901023307E9, 0.0, 2022-03-26 18:38:10.102
56.0, 488.9264709572308, 51.333866791799664, 802.7302565393038, 355.38586323941126, -0.03200000151991844, 0.3840000182390213, 0.9600000455975533, 0.0, 0.0, 0.0, 0.0, 0.0, 1.6483378901159012E9, 0.0, 2022-03-26 18:38:10.115
56.0, 475.6535660144873, 39.97205072641373, 786.1624997355975, 344.4055169695057, -0.03200000151991844, 0.3840000182390213, 0.9600000455975533, 0.0, 0.0, 0.0, 0.0, 0.0, 1.6483378901159012E9, 0.0, 2022-03-26 18:38:10.115
57.0, 474.0603686333634, 27.01703727990389, 782.1720264828764, 342.5430467915721, -0.03200000151991844, 0.3840000182390213, 0.9600000455975533, 0.0, 0.0, 0.0, 0.0, 0.0, 1.6483378901316164E9, 0.0, 2022-03-26 18:38:10.131
57.0, 488.1710111661814, 48.56260092463344, 787.7220380171202, 357.1510960184969, -0.03200000151991844, 0.3840000182390213, 0.9600000455975533, 0.0, 0.0, 0.0, 0.0, 0.0, 1.6483378901316164E9, 0.0, 2022-03-26 18:38:10.131
58.0, 499.04664023732767, 54.34074635617435, 790.0145966899581, 355.68131533591077, -0.03200000151991844, 0.3840000182390213, 0.9600000455975533, 0.0, 0.0, 0.0, 0.0, 0.0, 1.6483378901323297E9, 0.0, 2022-03-26 18:38:10.132
58.0, 493.08149980800226, 44.478630173020065, 794.4127190378495, 335.75886827195063, -0.03200000151991844, 0.3840000182390213, 0.9600000455975533, 0.0, 0.0, 0.0, 0.0, 0.0, 1.6483378901323297E9, 0.0, 2022-03-26 18:38:10.132
59.0, 487.8119807704352, 36.770696364343166, 789.8986597913317, 329.86104604182765, -0.03200000151991844, 0.3840000182390213, 0.9600000455975533, 0.0, 0.0, 0.0, 0.0, 0.0, 1.6483378901459048E9, 0.0, 2022-03-26 18:38:10.145
59.0, 486.55911428527907, 40.828487816266716, 792.198698264081, 327.5460479692556, -0.03200000151991844, 0.3840000182390213, 0.9600000455975533, 0.0, 0.0, 0.0, 0.0, 0.0, 1.6483378901459048E9, 0.0, 2022-03-26 18:38:10.145
60.0, 492.6252320134081, 45.42482486180961, 793.4627844491042, 332.0227082162164, -0.03200000151991844, 0.3840000182390213, 0.9920000471174717, 0.0, 0.0, 0.0, 0.0, 0.0, 1.6483378901779425E9, 0.0, 2022-03-26 18:38:10.177
60.0, 493.5041085029952, 55.25328194536269, 798.8669398850761, 329.8423465420492, -0.03200000151991844, 0.3840000182390213, 0.9920000471174717, 0.0, 0.0, 0.0, 0.0, 0.0, 1.6483378901779425E9, 0.0, 2022-03-26 18:38:10.177
61.0, 492.01188842067495, 56.73802222777158, 791.2899025748484, 327.38149237120524, -0.03200000151991844, 0.35200001671910286, 0.9920000471174717, 0.0, 0.0, 0.0, 0.0, 0.0, 1.6483378901786747E9, 0.0, 2022-03-26 18:38:10.178
61.0, 491.86229242244735, 52.070627083070576, 798.036682094913, 315.47739081224427, -0.03200000151991844, 0.35200001671910286, 0.9920000471174717, 0.0, 0.0, 0.0, 0.0, 0.0, 1.6483378901786747E9, 0.0, 2022-03-26 18:38:10.178
62.0, 487.78206157078966, 42.459084196947515, 792.7933423570357, 304.81867593852803, 0.0, 0.35200001671910286, 0.9920000471174717, 0.0, 0.0, 0.0, 0.0, 0.0, 1.6483378901794229E9, 0.0, 2022-03-26 18:38:10.179
62.0, 484.45729051018134, 40.13286642450839, 779.6064551132731, 297.4585528257303, 0.0, 0.35200001671910286, 0.9920000471174717, 0.0, 0.0, 0.0, 0.0, 0.0, 1.6483378901794229E9, 0.0, 2022-03-26 18:38:10.179
63.0, 489.2780215530656, 52.84852627385408, 791.6227536709048, 294.21231966419145, 0.0, 0.35200001671910286, 0.9920000471174717, 0.0, 0.0, 0.0, 0.0, 0.0, 1.6483378901801577E9, 0.0, 2022-03-26 18:38:10.180
63.0, 488.45898346276954, 45.02839546650648, 808.0035154768266, 294.28337776334956, 0.0, 0.35200001671910286, 0.9920000471174717, 0.0, 0.0, 0.0, 0.0, 0.0, 1.6483378901801577E9, 0.0, 2022-03-26 18:38:10.180
64.0, 474.70363142574206, 50.885078797116876, 784.0419764607213, 274.824678293895, 0.0, 0.35200001671910286, 0.9920000471174717, 0.0, 0.0, 0.0, 0.0, 0.0, 1.648337890190974E9, 0.0, 2022-03-26 18:38:10.190
64.0, 489.94372374517843, 51.94347048457712, 794.5847544358112, 275.7147744833492, 0.0, 0.35200001671910286, 0.9920000471174717, 0.0, 0.0, 0.0, 0.0, 0.0, 1.648337890190974E9, 0.0, 2022-03-26 18:38:10.190
65.0, 506.8181523452513, 62.68446315731853, 797.3186213034205, 167.12490931991488, 0.0, 0.35200001671910286, 0.9920000471174717, 0.0, 0.0, 0.0, 0.0, 0.0, 1.6483378902059178E9, 0.0, 2022-03-26 18:38:10.205
65.0, 518.6474559050985, 52.889665173366666, 781.6895793885924, 231.5222466569394, 0.0, 0.35200001671910286, 0.9920000471174717, 0.0, 0.0, 0.0, 0.0, 0.0, 1.6483378902059178E9, 0.0, 2022-03-26 18:38:10.205
66.0, 571.6642776769586, 44.97229696717113, 776.8052700464614, 463.560599507764, 0.0, 0.35200001671910286, 0.9920000471174717, 0.0, 0.0, 0.0, 0.0, 0.0, 1.6483378902216036E9, 0.0, 2022-03-26 18:38:10.221
66.0, 649.7646084516309, 26.474751786328852, 743.7408145382069, 268.0031007747166, 0.0, 0.35200001671910286, 0.9920000471174717, 0.0, 0.0, 0.0, 0.0, 0.0, 1.6483378902216036E9, 0.0, 2022-03-26 18:38:10.221
67.0, 643.0926269306801, 14.858622523956, 735.1951431394555, 265.65631355252117, 0.0, 0.35200001671910286, 0.9920000471174717, 0.0, 0.0, 0.0, 0.0, 0.0, 1.6483378902223024E9, 0.0, 2022-03-26 18:38:10.222
67.0, 679.1564822033979, 10.85318967141211, 727.9023382258601, 492.84401616081595, 0.0, 0.35200001671910286, 0.9920000471174717, 0.0, 0.0, 0.0, 0.0, 0.0, 1.6483378902223024E9, 0.0, 2022-03-26 18:38:10.222
68.0, 693.2409454365261, 7.842570207081735, 721.9521573963575, 400.96402399940416, 0.0, 0.35200001671910286, 0.9920000471174717, 0.0, 0.0, 0.0, 0.0, 0.0, 1.6483378902360513E9, 0.0, 2022-03-26 18:38:10.236
68.0, 666.8709108489566, 12.700700249522924, 716.0019765668549, 497.9115806007758, 0.0, 0.35200001671910286, 0.9920000471174717, 0.0, 0.0, 0.0, 0.0, 0.0, 1.6483378902360513E9, 0.0, 2022-03-26 18:38:10.236
69.0, 653.755081704352, 10.527818375267088, 734.8809915431775, 660.3485253262334, 0.0, 0.35200001671910286, 0.9920000471174717, 0.0, 0.0, 0.0, 0.0, 0.0, 1.648337890251613E9, 0.0, 2022-03-26 18:38:10.251
69.0, 655.5502336830832, 16.88564829993993, 756.2246005902998, 901.5365434186533, 0.0, 0.35200001671910286, 0.9920000471174717, 0.0, 0.0, 0.0, 0.0, 0.0, 1.648337890251613E9, 0.0, 2022-03-26 18:38:10.251
70.0, 638.0662013902329, 25.865148093551397, 744.4102566302754, 692.5210146950558, 0.0, 0.35200001671910286, 0.9600000455975533, 0.0, 0.0, 0.0, 0.0, 0.0, 1.6483378902523484E9, 0.0, 2022-03-26 18:38:10.252
70.0, 625.7731502358802, 20.449772957712412, 752.9671477288939, 489.29485110286623, 0.0, 0.35200001671910286, 0.9600000455975533, 0.0, 0.0, 0.0, 0.0, 0.0, 1.6483378902523484E9, 0.0, 2022-03-26 18:38:10.252
71.0, 631.3343814699911, 36.52386296726763, 759.201560955029, 396.50419330224395, 0.0, 0.3040000144392252, 0.9600000455975533, 0.0, 0.0, 0.0, 0.0, 0.0, 1.6483378902658708E9, 0.0, 2022-03-26 18:38:10.265
71.0, 644.0388216194697, 46.31118115130812, 765.701507078018, 409.8219770444557, 0.0, 0.3040000144392252, 0.9600000455975533, 0.0, 0.0, 0.0, 0.0, 0.0, 1.6483378902658708E9, 0.0, 2022-03-26 18:38:10.265
72.0, 676.5871709338389, 30.457745239138603, 751.2131346496753, 535.6920499531552, 0.01600000075995922, 0.3040000144392252, 0.9600000455975533, 0.0, 0.0, 0.0, 0.0, 0.0, 1.6483378902983255E9, 0.0, 2022-03-26 18:38:10.298
72.0, 696.558236697223, 27.477044974453747, 746.7850931021385, 479.20834092237055, 0.01600000075995922, 0.3040000144392252, 0.9600000455975533, 0.0, 0.0, 0.0, 0.0, 0.0, 1.6483378902983255E9, 0.0, 2022-03-26 18:38:10.298
73.0, 735.550433635246, 49.42277791444212, 759.6391292498447, 476.3061785567552, 0.01600000075995922, 0.3040000144392252, 0.9600000455975533, 0.0, 0.0, 0.0, 0.0, 0.0, 1.64833789029907E9, 0.0, 2022-03-26 18:38:10.299
73.0, 783.4099333682097, 37.93380525056273, 752.4173824354075, 439.0567749980837, 0.01600000075995922, 0.3040000144392252, 0.9600000455975533, 0.0, 0.0, 0.0, 0.0, 0.0, 1.64833789029907E9, 0.0, 2022-03-26 18:38:10.299
74.0, 861.016597348731, 27.43216617498547, 758.453580963891, 675.332434498705, 0.01600000075995922, 0.3040000144392252, 0.9600000455975533, 0.0, 0.0, 0.0, 0.0, 0.0, 1.6483378902998579E9, 0.0, 2022-03-26 18:38:10.299
74.0, 944.5023840595968, 22.779730630107224, 745.4836079175584, 824.1056547360495, 0.01600000075995922, 0.3040000144392252, 0.9600000455975533, 0.0, 0.0, 0.0, 0.0, 0.0, 1.6483378902998579E9, 0.0, 2022-03-26 18:38:10.299
