%OpenBCI Raw EEG Data
%Number of channels = 4
%Sample Rate = 200 Hz
%Board = OpenBCI_GUI$BoardGanglionBLE
Sample Index, EXG Channel 0, EXG Channel 1, EXG Channel 2, EXG Channel 3, Accel Channel 0, Accel Channel 1, Accel Channel 2, Other, Other, Other, Other, Other, Timestamp, Other, Timestamp (Formatted)
2.0, -5.407895335927606, -0.643262792378664, -8.762585596181452, 2.0719045754522085, 0.01600000075995922, 0.0, 0.0, 0.0, 0.0, 0.0, 0.0, 0.0, 1.6506669802549207E9, 0.0, 2022-04-22 17:36:20.254
2.0, -5.998799528926611, -3.8820161540061235, -6.03619852848351, -1.6754751801490784, 0.01600000075995922, 0.0, 0.0, 0.0, 0.0, 0.0, 0.0, 0.0, 1.6506669802549207E9, 0.0, 2022-04-22 17:36:20.254
3.0, -16.95296649914235, -19.432520169764757, -17.809403588995337, -4.476660246960819, 0.01600000075995922, 0.0, 0.0, 0.0, 0.0, 0.0, 0.0, 0.0, 1.65066698026883E9, 0.0, 2022-04-22 17:36:20.268
3.0, 3.829657554626465, -2.539392069913447, -10.284724878147244, 2.086864175274968, 0.01600000075995922, 0.0, 0.0, 0.0, 0.0, 0.0, 0.0, 0.0, 1.65066698026883E9, 0.0, 2022-04-22 17:36:20.268
4.0, -7.24792611412704, -15.068056921474636, -14.252758731134236, -4.0465717520564795, 0.01600000075995922, 0.0, 0.0, 0.0, 0.0, 0.0, 0.0, 0.0, 1.6506669802696283E9, 0.0, 2022-04-22 17:36:20.269
4.0, -6.320430925115943, 10.06407078076154, -14.51829162798822, 5.583670633845031, 0.01600000075995922, 0.0, 0.0, 0.0, 0.0, 0.0, 0.0, 0.0, 1.6506669802696283E9, 0.0, 2022-04-22 17:36:20.269
5.0, -3.61648325715214, 5.766925731673837, -13.25794534292072, 7.120769515633583, 0.01600000075995922, 0.0, 0.0, 0.0, 0.0, 0.0, 0.0, 0.0, 1.6506669802831726E9, 0.0, 2022-04-22 17:36:20.283
5.0, -3.709980756044388, 7.25166601408273, -7.65931510925293, -12.824116948060691, 0.01600000075995922, 0.0, 0.0, 0.0, 0.0, 0.0, 0.0, 0.0, 1.6506669802831726E9, 0.0, 2022-04-22 17:36:20.283
6.0, 0.6507425922900438, -2.9545209649950266, 3.8109580548480153, 9.574143886566162, 0.01600000075995922, 0.0, 0.0, 0.0, 0.0, 0.0, 0.0, 0.0, 1.6506669802988915E9, 0.0, 2022-04-22 17:36:20.298
6.0, 7.876229306682944, -4.057791451923549, 1.484740282408893, 12.816637148149312, 0.01600000075995922, 0.0, 0.0, 0.0, 0.0, 0.0, 0.0, 0.0, 1.6506669802988915E9, 0.0, 2022-04-22 17:36:20.298
7.0, 2.905902265571058, 4.81325124297291, -8.770065396092832, 13.931127334944904, 0.01600000075995922, 0.0, 0.0, 0.0, 0.0, 0.0, 0.0, 0.0, 1.6506669802996168E9, 0.0, 2022-04-22 17:36:20.299
7.0, -6.163355126976967, -2.0008464762941003, -14.308857230469584, 7.408741812221706, 0.01600000075995922, 0.0, 0.0, 0.0, 0.0, 0.0, 0.0, 0.0, 1.6506669802996168E9, 0.0, 2022-04-22 17:36:20.299
8.0, -8.586810298264027, -6.133435927331448, -10.168787979520857, 5.882862630300224, 0.01600000075995922, 0.0, 0.0, 0.0, 0.0, 0.0, 0.0, 0.0, 1.6506669803132277E9, 0.0, 2022-04-22 17:36:20.313
8.0, 1.4623008826747537, -5.284478637389839, -1.368803383782506, 5.609849933534861, 0.01600000075995922, 0.0, 0.0, 0.0, 0.0, 0.0, 0.0, 0.0, 1.6506669803132277E9, 0.0, 2022-04-22 17:36:20.313
9.0, -8.325017301365733, -8.508272399194539, -5.688387832604349, 2.1167833749204874, 0.01600000075995922, 0.0, 0.0, 0.0, 0.0, 0.0, 0.0, 0.0, 1.650666980328895E9, 0.0, 2022-04-22 17:36:20.328
9.0, 0.40390919521450996, 4.615036545321345, -4.974066941067576, 2.2701192731037736, 0.01600000075995922, 0.0, 0.0, 0.0, 0.0, 0.0, 0.0, 0.0, 1.650666980328895E9, 0.0, 2022-04-22 17:36:20.328
10.0, -13.078430145047605, -13.2654251428321, -5.538791834376752, -8.799984595738351, 0.01600000075995922, 0.0, 1.008000047877431, 0.0, 0.0, 0.0, 0.0, 0.0, 1.6506669803295984E9, 0.0, 2022-04-22 17:36:20.329
10.0, -9.779838384129107, -2.221500573679805, -12.10231625661254, -10.202447079122066, 0.01600000075995922, 0.0, 1.008000047877431, 0.0, 0.0, 0.0, 0.0, 0.0, 1.6506669803295984E9, 0.0, 2022-04-22 17:36:20.329
11.0, -0.9424547888338566, -0.8489572899416089, -5.718307032249868, 10.243585978634655, 0.01600000075995922, 0.06400000303983688, 1.008000047877431, 0.0, 0.0, 0.0, 0.0, 0.0, 1.6506669803431523E9, 0.0, 2022-04-22 17:36:20.343
11.0, 1.8774297777563334, 6.02871872857213, -2.853543666191399, 6.971173517405987, 0.01600000075995922, 0.06400000303983688, 1.008000047877431, 0.0, 0.0, 0.0, 0.0, 0.0, 1.6506669803431523E9, 0.0, 2022-04-22 17:36:20.343
12.0, -8.44469409994781, -1.0359522877261043, -7.857529806904495, 29.870580946095288, 0.01600000075995922, 0.06400000303983688, 1.008000047877431, 0.0, 0.0, 0.0, 0.0, 0.0, 1.6506669803588898E9, 0.0, 2022-04-22 17:36:20.358
12.0, -5.965140429325402, -9.536744887009263, -6.907595218159258, 8.43347440008074, 0.01600000075995922, 0.06400000303983688, 1.008000047877431, 0.0, 0.0, 0.0, 0.0, 0.0, 1.6506669803588898E9, 0.0, 2022-04-22 17:36:20.358
13.0, -13.373882241547108, -17.125001897104084, -16.242385507561266, -2.7226471677422523, 0.01600000075995922, 0.06400000303983688, 1.008000047877431, 0.0, 0.0, 0.0, 0.0, 0.0, 1.6506669803596392E9, 0.0, 2022-04-22 17:36:20.359
13.0, -10.972866469994187, -11.25709886662662, -14.89976142346859, 1.0135128879919648, 0.01600000075995922, 0.06400000303983688, 1.008000047877431, 0.0, 0.0, 0.0, 0.0, 0.0, 1.6506669803596392E9, 0.0, 2022-04-22 17:36:20.359
14.0, -13.355182741768658, -10.677414373494685, -11.855482859537005, 3.8820161540061235, 0.01600000075995922, 0.06400000303983688, 1.008000047877431, 0.0, 0.0, 0.0, 0.0, 0.0, 1.6506669803732033E9, 0.0, 2022-04-22 17:36:20.373
14.0, 0.2692727968096733, -4.543978446163237, -0.18699499778449535, -6.369049624539912, 0.01600000075995922, 0.06400000303983688, 1.008000047877431, 0.0, 0.0, 0.0, 0.0, 0.0, 1.6506669803732033E9, 0.0, 2022-04-22 17:36:20.373
15.0, -8.743886096403003, -8.699007296934724, -2.176621774211526, -1.9896267764270306, 0.01600000075995922, 0.06400000303983688, 1.008000047877431, 0.0, 0.0, 0.0, 0.0, 0.0, 1.6506669803889077E9, 0.0, 2022-04-22 17:36:20.388
15.0, 4.289665249176323, 10.88684877101332, -1.084570987150073, 15.135375120677054, 0.01600000075995922, 0.06400000303983688, 1.008000047877431, 0.0, 0.0, 0.0, 0.0, 0.0, 1.6506669803889077E9, 0.0, 2022-04-22 17:36:20.388
16.0, 5.24333973787725, 18.55364368017763, -2.01206617616117, -5.329357436858118, 0.01600000075995922, 0.06400000303983688, 1.008000047877431, 0.0, 0.0, 0.0, 0.0, 0.0, 1.650666980389809E9, 0.0, 2022-04-22 17:36:20.389
16.0, 15.404647917486727, 12.214513255283237, -0.39268949534744024, 34.93066558614373, 0.01600000075995922, 0.06400000303983688, 1.008000047877431, 0.0, 0.0, 0.0, 0.0, 0.0, 1.650666980389809E9, 0.0, 2022-04-22 17:36:20.389
17.0, -14.91098112333566, -19.039830674417317, -9.66764138545841, -12.595983050763607, 0.01600000075995922, 0.06400000303983688, 1.008000047877431, 0.0, 0.0, 0.0, 0.0, 0.0, 1.6506669804031837E9, 0.0, 2022-04-22 17:36:20.403
17.0, -10.999045769684017, -8.770065396092832, -10.43806077633053, 7.468580211512744, 0.01600000075995922, 0.06400000303983688, 1.008000047877431, 0.0, 0.0, 0.0, 0.0, 0.0, 1.6506669804031837E9, 0.0, 2022-04-22 17:36:20.403
18.0, -6.664501721039414, 6.84775681886822, -6.223193526268005, -3.3509503602981567, 0.01600000075995922, 0.06400000303983688, 1.008000047877431, 0.0, 0.0, 0.0, 0.0, 0.0, 1.6506669804188893E9, 0.0, 2022-04-22 17:36:20.418
18.0, -3.6725817564874887, 0.2505732970312238, -16.87068870011717, 5.755706031806767, 0.01600000075995922, 0.06400000303983688, 1.008000047877431, 0.0, 0.0, 0.0, 0.0, 0.0, 1.6506669804188893E9, 0.0, 2022-04-22 17:36:20.418
19.0, -8.03330510482192, -6.42514812387526, -10.793351272121072, 10.87936897110194, 0.01600000075995922, 0.06400000303983688, 1.008000047877431, 0.0, 0.0, 0.0, 0.0, 0.0, 1.6506669804196055E9, 0.0, 2022-04-22 17:36:20.419
19.0, -7.210527114570141, -5.2919584373012185, -6.907595218159258, 9.028118493035436, 0.01600000075995922, 0.06400000303983688, 1.008000047877431, 0.0, 0.0, 0.0, 0.0, 0.0, 1.6506669804196055E9, 0.0, 2022-04-22 17:36:20.419
20.0, -4.274705649353564, -2.8011850668117404, -7.539638310670853, 17.102562497369945, 0.01600000075995922, 0.06400000303983688, 1.008000047877431, 0.0, 0.0, 0.0, 0.0, 0.0, 1.6506669804331985E9, 0.0, 2022-04-22 17:36:20.433
20.0, -5.21716043818742, -7.274105413816869, -10.419361276552081, -2.662808768451214, 0.01600000075995922, 0.06400000303983688, 1.008000047877431, 0.0, 0.0, 0.0, 0.0, 0.0, 1.6506669804331985E9, 0.0, 2022-04-22 17:36:20.433
21.0, -14.204140031710267, -5.093743739649653, -9.24129279050976, -1.5894574811682105, 0.01600000075995922, 0.06400000303983688, 1.008000047877431, 0.0, 0.0, 0.0, 0.0, 0.0, 1.650666980448893E9, 0.0, 2022-04-22 17:36:20.448
21.0, -7.984686405397952, 6.42888802383095, -7.4274413120001554, -10.815790671855211, 0.01600000075995922, 0.06400000303983688, 1.008000047877431, 0.0, 0.0, 0.0, 0.0, 0.0, 1.650666980448893E9, 0.0, 2022-04-22 17:36:20.448
22.0, -22.701192731037736, -10.628795674070716, -15.382208517752588, -14.795044224709272, 0.01600000075995922, 0.06400000303983688, 1.008000047877431, 0.0, 0.0, 0.0, 0.0, 0.0, 1.6506669804496143E9, 0.0, 2022-04-22 17:36:20.449
22.0, -4.9291881415992975, -3.2911119610071182, -7.936067705973983, 2.3187379725277424, 0.01600000075995922, 0.06400000303983688, 1.008000047877431, 0.0, 0.0, 0.0, 0.0, 0.0, 1.6506669804496143E9, 0.0, 2022-04-22 17:36:20.449
23.0, -0.6582223922014236, 5.146102339029312, -3.2798922611400485, 8.007125805132091, 0.01600000075995922, 0.06400000303983688, 1.008000047877431, 0.0, 0.0, 0.0, 0.0, 0.0, 1.65066698046315E9, 0.0, 2022-04-22 17:36:20.463
23.0, -3.9156752536073327, -2.6254097688943148, -12.988672546111047, 24.16349361371249, 0.01600000075995922, 0.06400000303983688, 1.008000047877431, 0.0, 0.0, 0.0, 0.0, 0.0, 1.65066698046315E9, 0.0, 2022-04-22 17:36:20.463
24.0, -3.739899955689907, 0.4375682948157191, -13.220546343363822, 3.5229857582598925, 0.01600000075995922, 0.06400000303983688, 1.008000047877431, 0.0, 0.0, 0.0, 0.0, 0.0, 1.650666980478856E9, 0.0, 2022-04-22 17:36:20.478
24.0, -12.689480549655855, -5.62854943331331, -9.188934191130102, -19.600815667770803, 0.01600000075995922, 0.06400000303983688, 1.008000047877431, 0.0, 0.0, 0.0, 0.0, 0.0, 1.650666980478856E9, 0.0, 2022-04-22 17:36:20.478
25.0, -3.8109580548480153, -7.704193908721209, -7.476060011424124, 15.217652919702232, 0.01600000075995922, 0.06400000303983688, 1.008000047877431, 0.0, 0.0, 0.0, 0.0, 0.0, 1.6506669804795752E9, 0.0, 2022-04-22 17:36:20.479
25.0, -12.554844151251018, -8.02582530491054, -14.974559422582388, -7.191827614791691, 0.01600000075995922, 0.06400000303983688, 1.008000047877431, 0.0, 0.0, 0.0, 0.0, 0.0, 1.6506669804795752E9, 0.0, 2022-04-22 17:36:20.479
26.0, -8.182901103049517, -0.8003385905176401, -15.423347417265177, 5.4939130349084735, 0.01600000075995922, 0.06400000303983688, 1.008000047877431, 0.0, 0.0, 0.0, 0.0, 0.0, 1.6506669804932241E9, 0.0, 2022-04-22 17:36:20.493
26.0, -4.947887641377747, 1.6156367808580399, -10.288464778102934, 4.465440547093749, 0.01600000075995922, 0.06400000303983688, 1.008000047877431, 0.0, 0.0, 0.0, 0.0, 0.0, 1.6506669804932241E9, 0.0, 2022-04-22 17:36:20.493
27.0, -16.87816850002855, -14.746425525285304, -20.99579835124314, 9.918214682489634, 0.01600000075995922, 0.06400000303983688, 1.008000047877431, 0.0, 0.0, 0.0, 0.0, 0.0, 1.65066698050885E9, 0.0, 2022-04-22 17:36:20.508
27.0, -0.5759445931762457, -8.253959202207625, -13.70673333760351, -1.1406694864854217, 0.01600000075995922, 0.06400000303983688, 1.008000047877431, 0.0, 0.0, 0.0, 0.0, 0.0, 1.65066698050885E9, 0.0, 2022-04-22 17:36:20.508
28.0, 1.7465332793071866, 12.782978048548102, -2.4271950712427497, 11.485232763923705, 0.01600000075995922, 0.06400000303983688, 1.008000047877431, 0.0, 0.0, 0.0, 0.0, 0.0, 1.6506669805096169E9, 0.0, 2022-04-22 17:36:20.509
28.0, -10.05659098085016, 3.6426625568419695, 1.1444093864411116, 17.34565599448979, 0.01600000075995922, 0.06400000303983688, 1.008000047877431, 0.0, 0.0, 0.0, 0.0, 0.0, 1.6506669805096169E9, 0.0, 2022-04-22 17:36:20.509
29.0, -9.043078092858195, -1.5557983815670013, -4.615036545321345, -8.986979593522847, 0.01600000075995922, 0.06400000303983688, 1.008000047877431, 0.0, 0.0, 0.0, 0.0, 0.0, 1.6506669805231895E9, 0.0, 2022-04-22 17:36:20.523
29.0, -4.278445549309254, 1.1892881859093904, 1.929788377135992, -8.612989597953856, 0.01600000075995922, 0.06400000303983688, 1.008000047877431, 0.0, 0.0, 0.0, 0.0, 0.0, 1.6506669805231895E9, 0.0, 2022-04-22 17:36:20.523
30.0, 0.4899268941953778, 2.494513270445168, 3.2462331615388393, 15.66644091438502, 0.01600000075995922, 0.06400000303983688, 1.0240000486373901, 0.0, 0.0, 0.0, 0.0, 0.0, 1.650666980538834E9, 0.0, 2022-04-22 17:36:20.538
30.0, 1.8213312784209847, 11.27953826636076, 3.0480184638872743, 24.645940707996488, 0.01600000075995922, 0.06400000303983688, 1.0240000486373901, 0.0, 0.0, 0.0, 0.0, 0.0, 1.650666980538834E9, 0.0, 2022-04-22 17:36:20.538
31.0, -5.7744055315852165, 8.02582530491054, 0.6993612917140126, 7.577037310227752, 0.01600000075995922, 0.04800000227987766, 1.0240000486373901, 0.0, 0.0, 0.0, 0.0, 0.0, 1.6506669805395637E9, 0.0, 2022-04-22 17:36:20.539
31.0, -13.403801441192627, 1.0583916874602437, 1.9447479769587517, -3.302331660874188, 0.01600000075995922, 0.04800000227987766, 1.0240000486373901, 0.0, 0.0, 0.0, 0.0, 0.0, 1.6506669805395637E9, 0.0, 2022-04-22 17:36:20.539
32.0, -4.734713343903422, 0.9798537883907557, -10.165048079565167, -0.964894188567996, 0.01600000075995922, 0.04800000227987766, 1.0240000486373901, 0.0, 0.0, 0.0, 0.0, 0.0, 1.6506669805531695E9, 0.0, 2022-04-22 17:36:20.553
32.0, -10.782131572254002, -3.743639855645597, -9.746179284527898, 16.994105398654938, 0.01600000075995922, 0.04800000227987766, 1.0240000486373901, 0.0, 0.0, 0.0, 0.0, 0.0, 1.6506669805531695E9, 0.0, 2022-04-22 17:36:20.553
33.0, -2.8423239663243294, 4.061531351879239, 5.359276636503637, 6.608403221704066, 0.01600000075995922, 0.04800000227987766, 1.0240000486373901, 0.0, 0.0, 0.0, 0.0, 0.0, 1.6506669805688868E9, 0.0, 2022-04-22 17:36:20.568
33.0, -2.333697572350502, -6.413928424008191, -6.238153126090765, 8.751365896314383, 0.01600000075995922, 0.04800000227987766, 1.0240000486373901, 0.0, 0.0, 0.0, 0.0, 0.0, 1.6506669805688868E9, 0.0, 2022-04-22 17:36:20.568
34.0, -1.0621315874159336, -1.0209926879033446, -6.492466323077679, 13.385101941414177, 0.01600000075995922, 0.04800000227987766, 1.0240000486373901, 0.0, 0.0, 0.0, 0.0, 0.0, 1.650666980569542E9, 0.0, 2022-04-22 17:36:20.569
34.0, -6.675721420906484, -5.299438237212598, 0.725540591403842, -15.28497111890465, 0.01600000075995922, 0.04800000227987766, 1.0240000486373901, 0.0, 0.0, 0.0, 0.0, 0.0, 1.650666980569542E9, 0.0, 2022-04-22 17:36:20.569
35.0, -12.207033455371857, -8.209080402739346, -11.870442459359765, -7.203047314658761, 0.01600000075995922, 0.04800000227987766, 1.0240000486373901, 0.0, 0.0, 0.0, 0.0, 0.0, 1.650666980583243E9, 0.0, 2022-04-22 17:36:20.583
35.0, 4.4467410473152995, 5.389195836149156, -5.6135898334905505, 22.660053831525147, 0.01600000075995922, 0.04800000227987766, 1.0240000486373901, 0.0, 0.0, 0.0, 0.0, 0.0, 1.650666980583243E9, 0.0, 2022-04-22 17:36:20.583
36.0, 2.7675259672105312, 6.993612917140126, -1.5595382815226912, 10.972866469994187, 0.01600000075995922, 0.04800000227987766, 1.0240000486373901, 0.0, 0.0, 0.0, 0.0, 0.0, 1.650666980598918E9, 0.0, 2022-04-22 17:36:20.598
36.0, -10.89806847088039, -1.5744978813454509, -6.937514417804778, 7.737853008322418, 0.01600000075995922, 0.04800000227987766, 1.0240000486373901, 0.0, 0.0, 0.0, 0.0, 0.0, 1.650666980598918E9, 0.0, 2022-04-22 17:36:20.598
37.0, -12.09857635665685, -6.45506732352078, -11.967679858207703, -15.030657921917737, 0.01600000075995922, 0.04800000227987766, 1.0240000486373901, 0.0, 0.0, 0.0, 0.0, 0.0, 1.6506669805995672E9, 0.0, 2022-04-22 17:36:20.599
37.0, 5.0488649401813745, 8.231519802473485, 3.0405386639758945, 14.645448226481676, 0.01600000075995922, 0.04800000227987766, 1.0240000486373901, 0.0, 0.0, 0.0, 0.0, 0.0, 1.6506669805995672E9, 0.0, 2022-04-22 17:36:20.599
38.0, 0.5834243930876255, 7.161908415146172, -5.265779137611389, 21.624101543799043, 0.01600000075995922, 0.04800000227987766, 1.0240000486373901, 0.0, 0.0, 0.0, 0.0, 0.0, 1.650666980613199E9, 0.0, 2022-04-22 17:36:20.613
38.0, -7.131989215500653, -6.930034617893398, -10.05659098085016, 2.6665486684069037, 0.01600000075995922, 0.04800000227987766, 1.0240000486373901, 0.0, 0.0, 0.0, 0.0, 0.0, 1.650666980613199E9, 0.0, 2022-04-22 17:36:20.613
39.0, -7.992166205309331, -4.076490951701999, -9.372189288958907, -14.854882624000311, 0.01600000075995922, 0.04800000227987766, 1.0240000486373901, 0.0, 0.0, 0.0, 0.0, 0.0, 1.6506669806287837E9, 0.0, 2022-04-22 17:36:20.628
39.0, -9.68634088523686, -7.449880711734295, -15.31115041859448, -1.290265484713018, 0.01600000075995922, 0.04800000227987766, 1.0240000486373901, 0.0, 0.0, 0.0, 0.0, 0.0, 1.6506669806287837E9, 0.0, 2022-04-22 17:36:20.628
40.0, -10.752212372608483, -11.848003059625626, -21.35108884703368, 9.125355891883373, 0.01600000075995922, 0.04800000227987766, 1.0240000486373901, 0.0, 0.0, 0.0, 0.0, 0.0, 1.6506669806296108E9, 0.0, 2022-04-22 17:36:20.629
40.0, -8.766325496137142, -8.530711798928678, -22.435659834183753, 1.0583916874602437, 0.01600000075995922, 0.04800000227987766, 1.0240000486373901, 0.0, 0.0, 0.0, 0.0, 0.0, 1.6506669806296108E9, 0.0, 2022-04-22 17:36:20.629
41.0, -5.568711034022272, 1.1219699867069721, -14.035844533704221, -0.8302577901631594, 0.01600000075995922, 0.04800000227987766, 1.0240000486373901, 0.0, 0.0, 0.0, 0.0, 0.0, 1.6506669806431327E9, 0.0, 2022-04-22 17:36:20.643
41.0, -0.6096036927774549, 4.0839707516133785, 1.5894574811682105, 7.3040246134623885, 0.01600000075995922, 0.04800000227987766, 1.0240000486373901, 0.0, 0.0, 0.0, 0.0, 0.0, 1.6506669806431327E9, 0.0, 2022-04-22 17:36:20.643
42.0, -0.07479799911379814, 4.802031543105841, -1.129449786618352, 19.27544437162578, 0.01600000075995922, 0.04800000227987766, 1.0240000486373901, 0.0, 0.0, 0.0, 0.0, 0.0, 1.650666980658801E9, 0.0, 2022-04-22 17:36:20.658
42.0, 1.002293188124895, 3.904455553740263, -7.042231616564095, 20.303916859440506, 0.01600000075995922, 0.04800000227987766, 1.0240000486373901, 0.0, 0.0, 0.0, 0.0, 0.0, 1.650666980658801E9, 0.0, 2022-04-22 17:36:20.658
43.0, 3.702500956133008, 6.42514812387526, -2.864763366058469, 4.577637545764446, 0.01600000075995922, 0.04800000227987766, 1.0240000486373901, 0.0, 0.0, 0.0, 0.0, 0.0, 1.65066698065959E9, 0.0, 2022-04-22 17:36:20.659
43.0, -1.4398614829406142, 0.5609849933534861, -1.170588686130941, -5.295698337256908, 0.01600000075995922, 0.04800000227987766, 1.0240000486373901, 0.0, 0.0, 0.0, 0.0, 0.0, 1.65066698065959E9, 0.0, 2022-04-22 17:36:20.659
44.0, -4.02413235232234, -0.11967679858207703, -8.8560830950737, 6.02123892866075, 0.01600000075995922, 0.04800000227987766, 1.0240000486373901, 0.0, 0.0, 0.0, 0.0, 0.0, 1.650666980673179E9, 0.0, 2022-04-22 17:36:20.673
44.0, -11.70588686130941, -5.093743739649653, -9.435767588205636, -3.4070488596335053, 0.01600000075995922, 0.04800000227987766, 1.0240000486373901, 0.0, 0.0, 0.0, 0.0, 0.0, 1.650666980673179E9, 0.0, 2022-04-22 17:36:20.673
45.0, -11.021485169418156, -13.29534434247762, -21.631581343710423, -9.428287788294256, 0.01600000075995922, 0.04800000227987766, 1.0240000486373901, 0.0, 0.0, 0.0, 0.0, 0.0, 1.650666980688843E9, 0.0, 2022-04-22 17:36:20.688
45.0, -5.931481329724193, -6.84401691891253, -22.09158903826028, -2.045725275762379, 0.01600000075995922, 0.04800000227987766, 1.0240000486373901, 0.0, 0.0, 0.0, 0.0, 0.0, 1.650666980688843E9, 0.0, 2022-04-22 17:36:20.688
46.0, -9.353489789180458, -13.28786454256624, -8.388595600612462, -7.513459010981023, 0.01600000075995922, 0.04800000227987766, 1.0240000486373901, 0.0, 0.0, 0.0, 0.0, 0.0, 1.6506669806895955E9, 0.0, 2022-04-22 17:36:20.689
46.0, -5.845463630743325, -13.990965734235942, -18.16095418483019, -5.879122730344534, 0.01600000075995922, 0.04800000227987766, 1.0240000486373901, 0.0, 0.0, 0.0, 0.0, 0.0, 1.6506669806895955E9, 0.0, 2022-04-22 17:36:20.689
47.0, -13.560877239331603, -30.95141203328967, -19.062270074151456, 10.198707179166377, 0.01600000075995922, 0.04800000227987766, 1.0240000486373901, 0.0, 0.0, 0.0, 0.0, 0.0, 1.6506669807031908E9, 0.0, 2022-04-22 17:36:20.703
47.0, -23.019084227271378, -44.79278176929802, -19.881308164447546, 0.34781069587916136, 0.01600000075995922, 0.04800000227987766, 1.0240000486373901, 0.0, 0.0, 0.0, 0.0, 0.0, 1.6506669807031908E9, 0.0, 2022-04-22 17:36:20.703
48.0, -17.906640987843275, -29.679846048355103, -10.07529048062861, -3.7585994554683566, 0.01600000075995922, 0.04800000227987766, 1.0240000486373901, 0.0, 0.0, 0.0, 0.0, 0.0, 1.650666980718872E9, 0.0, 2022-04-22 17:36:20.718
48.0, -16.623855303041637, -37.40647935681045, -14.125602132640779, -3.867056554183364, 0.01600000075995922, 0.04800000227987766, 1.0240000486373901, 0.0, 0.0, 0.0, 0.0, 0.0, 1.650666980718872E9, 0.0, 2022-04-22 17:36:20.718
49.0, -23.531450521200895, -36.052635572850704, -22.364601735025644, 2.82362446654588, 0.01600000075995922, 0.04800000227987766, 1.0240000486373901, 0.0, 0.0, 0.0, 0.0, 0.0, 1.6506669807195868E9, 0.0, 2022-04-22 17:36:20.719
49.0, -26.10450169071555, -38.92487873882055, -26.882400881499052, -9.944393982179463, 0.01600000075995922, 0.04800000227987766, 1.0240000486373901, 0.0, 0.0, 0.0, 0.0, 0.0, 1.6506669807195868E9, 0.0, 2022-04-22 17:36:20.719
50.0, -27.31996917631477, -42.52266249619424, -25.999784491956234, -32.361354316584766, 0.01600000075995922, 0.04800000227987766, 1.0240000486373901, 0.0, 0.0, 0.0, 0.0, 0.0, 1.6506669807331777E9, 0.0, 2022-04-22 17:36:20.733
50.0, -31.02621003240347, -54.65115805249661, -30.506363938562572, -7.7079338086768985, 0.01600000075995922, 0.04800000227987766, 1.0240000486373901, 0.0, 0.0, 0.0, 0.0, 0.0, 1.6506669807331777E9, 0.0, 2022-04-22 17:36:20.733
51.0, -16.698653302155435, -41.10898031294346, -25.28920350037515, -0.7479799911379814, 0.01600000075995922, 0.06400000303983688, 1.0240000486373901, 0.0, 0.0, 0.0, 0.0, 0.0, 1.65066698074889E9, 0.0, 2022-04-22 17:36:20.748
51.0, -22.9368064282462, -43.92886487953365, -29.249757553450763, -0.523585993796587, 0.01600000075995922, 0.06400000303983688, 1.0240000486373901, 0.0, 0.0, 0.0, 0.0, 0.0, 1.65066698074889E9, 0.0, 2022-04-22 17:36:20.748
52.0, -12.955013446509838, -41.56524810753763, -26.605648284778, 20.52457095682621, 0.01600000075995922, 0.06400000303983688, 1.0240000486373901, 0.0, 0.0, 0.0, 0.0, 0.0, 1.650666980749724E9, 0.0, 2022-04-22 17:36:20.749
52.0, -21.463285845704377, -28.63641396071762, -23.35193532332778, -3.911935353651643, 0.01600000075995922, 0.06400000303983688, 1.0240000486373901, 0.0, 0.0, 0.0, 0.0, 0.0, 1.650666980749724E9, 0.0, 2022-04-22 17:36:20.749
53.0, -20.419853758066893, -32.09956131968647, -27.263870676979423, -5.419115035794675, 0.01600000075995922, 0.06400000303983688, 1.0240000486373901, 0.0, 0.0, 0.0, 0.0, 0.0, 1.6506669807631364E9, 0.0, 2022-04-22 17:36:20.763
53.0, -16.335883006453514, -24.025117315351963, -19.70553286653012, -16.9716659989208, 0.01600000075995922, 0.06400000303983688, 1.0240000486373901, 0.0, 0.0, 0.0, 0.0, 0.0, 1.6506669807631364E9, 0.0, 2022-04-22 17:36:20.763
54.0, -33.91341279819608, -41.3520738100633, -28.98048475664109, -18.8977144761011, 0.01600000075995922, 0.06400000303983688, 1.0240000486373901, 0.0, 0.0, 0.0, 0.0, 0.0, 1.6506669807789657E9, 0.0, 2022-04-22 17:36:20.778
54.0, -22.18882643710822, -45.06953436601907, -31.310442429035902, -8.220300102606416, 0.01600000075995922, 0.06400000303983688, 1.0240000486373901, 0.0, 0.0, 0.0, 0.0, 0.0, 1.6506669807789657E9, 0.0, 2022-04-22 17:36:20.778
55.0, -15.576683315448463, -23.34071562346071, -17.222239295952022, -3.21257406193763, 0.01600000075995922, 0.06400000303983688, 1.0240000486373901, 0.0, 0.0, 0.0, 0.0, 0.0, 1.650666980779631E9, 0.0, 2022-04-22 17:36:20.779
55.0, -12.192073855549097, -30.723278135992587, -9.910734882578254, 6.668241620995104, 0.01600000075995922, 0.06400000303983688, 1.0240000486373901, 0.0, 0.0, 0.0, 0.0, 0.0, 1.650666980779631E9, 0.0, 2022-04-22 17:36:20.779
56.0, -17.431673693470657, -38.52096954360604, -14.10690263286233, -4.42804154753685, 0.01600000075995922, 0.06400000303983688, 1.0240000486373901, 0.0, 0.0, 0.0, 0.0, 0.0, 1.6506669807931345E9, 0.0, 2022-04-22 17:36:20.793
56.0, -30.96637163311243, -48.83561362139881, -20.97709885146469, -12.809157348237932, 0.01600000075995922, 0.06400000303983688, 1.0240000486373901, 0.0, 0.0, 0.0, 0.0, 0.0, 1.6506669807931345E9, 0.0, 2022-04-22 17:36:20.793
57.0, -12.162154655903578, -29.462931850925088, -19.009911474771798, -2.535652169957757, 0.01600000075995922, 0.06400000303983688, 1.0240000486373901, 0.0, 0.0, 0.0, 0.0, 0.0, 1.6506669808089063E9, 0.0, 2022-04-22 17:36:20.808
57.0, -17.28581759519875, -26.55702958535403, -11.814343960024416, -5.890342430211604, 0.01600000075995922, 0.06400000303983688, 1.0240000486373901, 0.0, 0.0, 0.0, 0.0, 0.0, 1.6506669808089063E9, 0.0, 2022-04-22 17:36:20.808
58.0, -14.450973428785801, -26.788903382606804, -10.759692172519863, 5.62854943331331, 0.01600000075995922, 0.06400000303983688, 1.0240000486373901, 0.0, 0.0, 0.0, 0.0, 0.0, 1.6506669808096E9, 0.0, 2022-04-22 17:36:20.809
58.0, -15.890834911726415, -31.661993024870753, -11.791904560290277, 5.692127732560039, 0.01600000075995922, 0.06400000303983688, 1.0240000486373901, 0.0, 0.0, 0.0, 0.0, 0.0, 1.6506669808096E9, 0.0, 2022-04-22 17:36:20.809
59.0, -13.70299343764782, -20.849942252971232, -12.240692554973066, -14.948380122892559, 0.01600000075995922, 0.06400000303983688, 1.0240000486373901, 0.0, 0.0, 0.0, 0.0, 0.0, 1.650666980823105E9, 0.0, 2022-04-22 17:36:20.823
59.0, -11.773205060511827, -19.544717168435454, -24.93391300458461, -1.9821469765156507, 0.01600000075995922, 0.06400000303983688, 1.0240000486373901, 0.0, 0.0, 0.0, 0.0, 0.0, 1.650666980823105E9, 0.0, 2022-04-22 17:36:20.823
60.0, -9.510565587319434, -22.08784913830459, -21.560523244552314, -2.2289803735911846, 0.01600000075995922, 0.06400000303983688, 1.0240000486373901, 0.0, 0.0, 0.0, 0.0, 0.0, 1.650666980855234E9, 0.0, 2022-04-22 17:36:20.855
60.0, -2.3860561717301607, -13.736652537249029, -10.07155058067292, 0.9835936883464456, 0.01600000075995922, 0.06400000303983688, 1.0240000486373901, 0.0, 0.0, 0.0, 0.0, 0.0, 1.650666980855234E9, 0.0, 2022-04-22 17:36:20.855
61.0, -3.938114653341472, -7.068410916253924, -10.610096174292266, 7.22922661434859, 0.01600000075995922, 0.06400000303983688, 1.0240000486373901, 0.0, 0.0, 0.0, 0.0, 0.0, 1.6506669808558798E9, 0.0, 2022-04-22 17:36:20.855
61.0, -10.984086169861257, -22.323462835513055, -16.56775680370629, -3.145255862735212, 0.01600000075995922, 0.06400000303983688, 1.0240000486373901, 0.0, 0.0, 0.0, 0.0, 0.0, 1.6506669808558798E9, 0.0, 2022-04-22 17:36:20.855
62.0, -11.717106561176479, -11.952720258384943, -14.376175429672003, -1.7203539796173573, 0.01600000075995922, 0.06400000303983688, 1.0240000486373901, 0.0, 0.0, 0.0, 0.0, 0.0, 1.6506669808566687E9, 0.0, 2022-04-22 17:36:20.856
62.0, -4.42430164758116, -8.339976901188493, -1.7465332793071866, 3.7959984550252557, 0.01600000075995922, 0.06400000303983688, 1.0240000486373901, 0.0, 0.0, 0.0, 0.0, 0.0, 1.6506669808566687E9, 0.0, 2022-04-22 17:36:20.856
63.0, -3.2387533616274595, -14.51455172803253, -4.2036475501954556, -2.6029703691601753, 0.01600000075995922, 0.06400000303983688, 1.0240000486373901, 0.0, 0.0, 0.0, 0.0, 0.0, 1.6506669808574133E9, 0.0, 2022-04-22 17:36:20.857
63.0, -4.4878799468278885, -17.487772192806005, -16.425640605390072, 3.2873720610514283, 0.01600000075995922, 0.06400000303983688, 1.0240000486373901, 0.0, 0.0, 0.0, 0.0, 0.0, 1.6506669808574133E9, 0.0, 2022-04-22 17:36:20.857
64.0, -23.520230821333826, -33.67031930107623, -26.736544783227146, -3.2499730614945292, 0.01600000075995922, 0.06400000303983688, 1.0240000486373901, 0.0, 0.0, 0.0, 0.0, 0.0, 1.6506669808681872E9, 0.0, 2022-04-22 17:36:20.868
64.0, -17.573789891786873, -23.632427820004523, -16.799630600959063, -0.8526971898972988, 0.01600000075995922, 0.06400000303983688, 1.0240000486373901, 0.0, 0.0, 0.0, 0.0, 0.0, 1.6506669808681872E9, 0.0, 2022-04-22 17:36:20.868
65.0, -15.610342415049672, -26.95345898065716, -14.200400131754577, 5.21716043818742, 0.01600000075995922, 0.06400000303983688, 1.0240000486373901, 0.0, 0.0, 0.0, 0.0, 0.0, 1.650666980883096E9, 0.0, 2022-04-22 17:36:20.883
65.0, -10.640015373937786, -28.266163865104318, -15.614082315005362, 5.0114659406244755, 0.01600000075995922, 0.06400000303983688, 1.0240000486373901, 0.0, 0.0, 0.0, 0.0, 0.0, 1.650666980883096E9, 0.0, 2022-04-22 17:36:20.883
66.0, -13.115829144604504, -22.446879534050822, -19.114628673531115, -6.204494026489556, 0.01600000075995922, 0.06400000303983688, 1.0240000486373901, 0.0, 0.0, 0.0, 0.0, 0.0, 1.6506669808987951E9, 0.0, 2022-04-22 17:36:20.898
66.0, -8.512012299150229, -8.571850698441267, -11.631088862195611, 8.138022303581238, 0.01600000075995922, 0.06400000303983688, 1.0240000486373901, 0.0, 0.0, 0.0, 0.0, 0.0, 1.6506669808987951E9, 0.0, 2022-04-22 17:36:20.898
67.0, -10.165048079565167, -16.687433602288365, -16.384501705877483, -1.5408387817442417, 0.01600000075995922, 0.06400000303983688, 1.0240000486373901, 0.0, 0.0, 0.0, 0.0, 0.0, 1.6506669808994637E9, 0.0, 2022-04-22 17:36:20.899
67.0, -10.927987670525908, -26.706625583581626, -11.623609062284231, 9.110396292060614, 0.01600000075995922, 0.06400000303983688, 1.0240000486373901, 0.0, 0.0, 0.0, 0.0, 0.0, 1.6506669808994637E9, 0.0, 2022-04-22 17:36:20.899
68.0, -22.686233131214976, -41.55776830762625, -21.34734894707799, -17.71590609010309, 0.01600000075995922, 0.06400000303983688, 1.0240000486373901, 0.0, 0.0, 0.0, 0.0, 0.0, 1.6506669809131012E9, 0.0, 2022-04-22 17:36:20.913
68.0, -14.529511327855289, -29.952858745120466, -16.784671001136303, 3.7137206560000777, 0.01600000075995922, 0.06400000303983688, 1.0240000486373901, 0.0, 0.0, 0.0, 0.0, 0.0, 1.6506669809131012E9, 0.0, 2022-04-22 17:36:20.913
69.0, -6.907595218159258, -20.745225054211915, -14.249018831178546, 15.973112710751593, 0.01600000075995922, 0.06400000303983688, 1.0240000486373901, 0.0, 0.0, 0.0, 0.0, 0.0, 1.6506669809451163E9, 0.0, 2022-04-22 17:36:20.945
69.0, -25.39018079917878, -25.592135396786034, -14.0807233331725, 6.197014226578176, 0.01600000075995922, 0.06400000303983688, 1.0240000486373901, 0.0, 0.0, 0.0, 0.0, 0.0, 1.6506669809451163E9, 0.0, 2022-04-22 17:36:20.945
70.0, -19.32032317109406, -37.81786835193634, -21.32864944729954, -9.596583286300302, 0.01600000075995922, 0.06400000303983688, 1.008000047877431, 0.0, 0.0, 0.0, 0.0, 0.0, 1.6506669809458597E9, 0.0, 2022-04-22 17:36:20.945
70.0, -26.680446283891797, -49.265702116303146, -27.536883373744786, -10.740992672741413, 0.01600000075995922, 0.06400000303983688, 1.008000047877431, 0.0, 0.0, 0.0, 0.0, 0.0, 1.6506669809458597E9, 0.0, 2022-04-22 17:36:20.945
71.0, -16.575236603617668, -43.88772598002106, -26.848741781897843, 3.2050942620262504, 0.01600000075995922, 0.04800000227987766, 1.008000047877431, 0.0, 0.0, 0.0, 0.0, 0.0, 1.6506669809466343E9, 0.0, 2022-04-22 17:36:20.946
71.0, -19.574636368080974, -34.025609796866775, -24.260731012560427, -3.8932358538731933, 0.01600000075995922, 0.04800000227987766, 1.008000047877431, 0.0, 0.0, 0.0, 0.0, 0.0, 1.6506669809466343E9, 0.0, 2022-04-22 17:36:20.946
72.0, -27.548103073611856, -39.37740663345903, -29.567649049684405, -11.784424760378897, 0.01600000075995922, 0.04800000227987766, 1.008000047877431, 0.0, 0.0, 0.0, 0.0, 0.0, 1.6506669809473739E9, 0.0, 2022-04-22 17:36:20.947
72.0, -9.203893790952861, -33.39730660431087, -24.724478607065976, -4.854390142485499, 0.01600000075995922, 0.04800000227987766, 1.008000047877431, 0.0, 0.0, 0.0, 0.0, 0.0, 1.6506669809473739E9, 0.0, 2022-04-22 17:36:20.947
73.0, -15.28497111890465, -30.790596335195005, -20.307656759396195, 2.01580607611686, 0.01600000075995922, 0.04800000227987766, 1.008000047877431, 0.0, 0.0, 0.0, 0.0, 0.0, 1.6506669809580514E9, 0.0, 2022-04-22 17:36:20.958
73.0, -18.55364368017763, -34.72497108858079, -31.718091524206102, -3.2873720610514283, 0.01600000075995922, 0.04800000227987766, 1.008000047877431, 0.0, 0.0, 0.0, 0.0, 0.0, 1.6506669809580514E9, 0.0, 2022-04-22 17:36:20.958
74.0, -14.06202383339405, -28.96926505677402, -33.225271206349134, -4.667395144701004, 0.01600000075995922, 0.04800000227987766, 1.008000047877431, 0.0, 0.0, 0.0, 0.0, 0.0, 1.6506669809894853E9, 0.0, 2022-04-22 17:36:20.989
74.0, -22.06914963852614, -35.32709498144686, -19.499838368967175, 3.0293189641088247, 0.01600000075995922, 0.04800000227987766, 1.008000047877431, 0.0, 0.0, 0.0, 0.0, 0.0, 1.6506669809894853E9, 0.0, 2022-04-22 17:36:20.989
75.0, -14.664147726260126, -39.31756823416799, -19.230565572157502, 5.9763601291924715, 0.01600000075995922, 0.04800000227987766, 1.008000047877431, 0.0, 0.0, 0.0, 0.0, 0.0, 1.6506669809902484E9, 0.0, 2022-04-22 17:36:20.990
75.0, -11.346856465563178, -29.77334354724735, -17.35313579440117, 9.375929188914597, 0.01600000075995922, 0.04800000227987766, 1.008000047877431, 0.0, 0.0, 0.0, 0.0, 0.0, 1.6506669809902484E9, 0.0, 2022-04-22 17:36:20.990
76.0, -20.621808355674148, -40.29742202255875, -16.425640605390072, -23.479091921821237, 0.01600000075995922, 0.04800000227987766, 1.008000047877431, 0.0, 0.0, 0.0, 0.0, 0.0, 1.650666980990991E9, 0.0, 2022-04-22 17:36:20.990
76.0, -16.54157750401646, -35.10644088406116, -15.857175812125206, 6.226933426223695, 0.01600000075995922, 0.04800000227987766, 1.008000047877431, 0.0, 0.0, 0.0, 0.0, 0.0, 1.650666980990991E9, 0.0, 2022-04-22 17:36:20.990
77.0, -16.84450940042734, -34.16024619527161, -22.675013431347907, 13.355182741768658, 0.01600000075995922, 0.04800000227987766, 1.008000047877431, 0.0, 0.0, 0.0, 0.0, 0.0, 1.6506669810031154E9, 0.0, 2022-04-22 17:36:21.003
77.0, -16.47799920476973, -41.37825310975313, -20.07578296214342, -0.684401691891253, 0.01600000075995922, 0.04800000227987766, 1.008000047877431, 0.0, 0.0, 0.0, 0.0, 0.0, 1.6506669810031154E9, 0.0, 2022-04-22 17:36:21.003
78.0, -9.738699484616518, -20.13188146147877, -11.582470162771642, -4.199907650239766, 0.01600000075995922, 0.04800000227987766, 1.008000047877431, 0.0, 0.0, 0.0, 0.0, 0.0, 1.650666981018788E9, 0.0, 2022-04-22 17:36:21.018
78.0, -19.73171216621995, -40.046848725527525, -17.76826468948275, 2.9096421655267477, 0.01600000075995922, 0.04800000227987766, 1.008000047877431, 0.0, 0.0, 0.0, 0.0, 0.0, 1.650666981018788E9, 0.0, 2022-04-22 17:36:21.018
79.0, -18.729418978095055, -31.314182328991592, -12.999892245978117, 5.920261629857123, 0.01600000075995922, 0.04800000227987766, 1.008000047877431, 0.0, 0.0, 0.0, 0.0, 0.0, 1.6506669810195413E9, 0.0, 2022-04-22 17:36:21.019
79.0, -18.650881079025567, -39.684078429825604, -17.562570191919804, 8.717706796713173, 0.01600000075995922, 0.04800000227987766, 1.008000047877431, 0.0, 0.0, 0.0, 0.0, 0.0, 1.6506669810195413E9, 0.0, 2022-04-22 17:36:21.019
80.0, -10.359522877261043, -38.37511344533414, -13.407541341148317, 6.83653711900115, 0.01600000075995922, 0.04800000227987766, 1.0240000486373901, 0.0, 0.0, 0.0, 0.0, 0.0, 1.6506669810331652E9, 0.0, 2022-04-22 17:36:21.033
80.0, -9.22259329073131, -40.454497820697725, -12.89143514726311, -2.7076875679194927, 0.01600000075995922, 0.04800000227987766, 1.0240000486373901, 0.0, 0.0, 0.0, 0.0, 0.0, 1.6506669810331652E9, 0.0, 2022-04-22 17:36:21.033
81.0, -10.935467470437288, -37.249403558671474, -11.806864160113037, -3.5678645577281713, 0.01600000075995922, 0.04800000227987766, 1.0240000486373901, 0.0, 0.0, 0.0, 0.0, 0.0, 1.6506669810488217E9, 0.0, 2022-04-22 17:36:21.048
81.0, -7.9061485063284636, -35.7197844767943, -11.889141959138215, -2.326217772439122, 0.01600000075995922, 0.04800000227987766, 1.0240000486373901, 0.0, 0.0, 0.0, 0.0, 0.0, 1.6506669810488217E9, 0.0, 2022-04-22 17:36:21.048
82.0, -17.053943797945976, -28.419499763287604, -10.43806077633053, 7.520938810892403, 0.01600000075995922, 0.04800000227987766, 1.0240000486373901, 0.0, 0.0, 0.0, 0.0, 0.0, 1.6506669810495343E9, 0.0, 2022-04-22 17:36:21.049
82.0, -16.16758750844747, -45.267749063670635, -20.427333557978272, 10.550257775001228, 0.01600000075995922, 0.04800000227987766, 1.0240000486373901, 0.0, 0.0, 0.0, 0.0, 0.0, 1.6506669810495343E9, 0.0, 2022-04-22 17:36:21.049
83.0, -25.199445901438594, -45.78759515751153, -18.50876488070935, 19.3427625708282, 0.01600000075995922, 0.04800000227987766, 1.0240000486373901, 0.0, 0.0, 0.0, 0.0, 0.0, 1.6506669810632796E9, 0.0, 2022-04-22 17:36:21.063
83.0, -7.820130807347596, -22.55159673281014, -2.2775990730151534, -3.1527356626465917, 0.01600000075995922, 0.04800000227987766, 1.0240000486373901, 0.0, 0.0, 0.0, 0.0, 0.0, 1.6506669810632796E9, 0.0, 2022-04-22 17:36:21.063
84.0, -13.759091936983168, -28.853328158147633, -1.006033088080585, -7.146948815323412, 0.01600000075995922, 0.04800000227987766, 1.0240000486373901, 0.0, 0.0, 0.0, 0.0, 0.0, 1.6506669810789464E9, 0.0, 2022-04-22 17:36:21.078
84.0, -4.4093420477584, -21.586702544242144, -2.128003074787557, 15.105455921031535, 0.01600000075995922, 0.04800000227987766, 1.0240000486373901, 0.0, 0.0, 0.0, 0.0, 0.0, 1.6506669810789464E9, 0.0, 2022-04-22 17:36:21.078
85.0, -3.788518655113876, -24.421546710655093, -4.7309734439477324, -1.7353135794401169, 0.01600000075995922, 0.04800000227987766, 1.0240000486373901, 0.0, 0.0, 0.0, 0.0, 0.0, 1.6506669810796096E9, 0.0, 2022-04-22 17:36:21.079
85.0, -9.824717183597386, -16.990365498699248, -5.6958676325157285, -7.734113108366728, 0.01600000075995922, 0.04800000227987766, 1.0240000486373901, 0.0, 0.0, 0.0, 0.0, 0.0, 1.6506669810796096E9, 0.0, 2022-04-22 17:36:21.079
86.0, -12.367849153466523, -23.662347019650042, -8.250219302251935, 10.748472472652793, 0.01600000075995922, 0.04800000227987766, 1.0240000486373901, 0.0, 0.0, 0.0, 0.0, 0.0, 1.650666981093222E9, 0.0, 2022-04-22 17:36:21.093
86.0, -6.608403221704066, -28.6064947610721, -6.081077327951789, 14.757645225152373, 0.01600000075995922, 0.04800000227987766, 1.0240000486373901, 0.0, 0.0, 0.0, 0.0, 0.0, 1.650666981093222E9, 0.0, 2022-04-22 17:36:21.093
87.0, -3.979253552854061, -20.704086154699326, -8.46713349968195, 7.831350507214665, 0.01600000075995922, 0.04800000227987766, 1.0240000486373901, 0.0, 0.0, 0.0, 0.0, 0.0, 1.6506669811088793E9, 0.0, 2022-04-22 17:36:21.108
87.0, -16.006771810352802, -22.727372030727565, -10.172527879476547, 1.5894574811682105, 0.01600000075995922, 0.04800000227987766, 1.0240000486373901, 0.0, 0.0, 0.0, 0.0, 0.0, 1.6506669811088793E9, 0.0, 2022-04-22 17:36:21.108
88.0, -2.5132127702236176, -20.419853758066893, 4.155028850771487, 8.45591379981488, 0.01600000075995922, 0.04800000227987766, 1.0240000486373901, 0.0, 0.0, 0.0, 0.0, 0.0, 1.650666981109735E9, 0.0, 2022-04-22 17:36:21.109
88.0, -8.0407849047333, -14.46967292856425, -2.778745667077601, -3.5977837573736906, 0.01600000075995922, 0.04800000227987766, 1.0240000486373901, 0.0, 0.0, 0.0, 0.0, 0.0, 1.650666981109735E9, 0.0, 2022-04-22 17:36:21.109
89.0, -5.108703339472413, -10.236106178723276, -12.109796056523919, -7.782731807790697, 0.01600000075995922, 0.04800000227987766, 1.0240000486373901, 0.0, 0.0, 0.0, 0.0, 0.0, 1.6506669811232324E9, 0.0, 2022-04-22 17:36:21.123
89.0, -1.6605155803263187, -15.187733720056713, -11.406694864854217, 4.499099646694958, 0.01600000075995922, 0.04800000227987766, 1.0240000486373901, 0.0, 0.0, 0.0, 0.0, 0.0, 1.6506669811232324E9, 0.0, 2022-04-22 17:36:21.123
90.0, -0.3665101956576109, -8.100623304024339, -4.674874944612384, 6.077337427996099, 0.01600000075995922, 0.04800000227987766, 1.008000047877431, 0.0, 0.0, 0.0, 0.0, 0.0, 1.6506669811389687E9, 0.0, 2022-04-22 17:36:21.138
90.0, 3.8820161540061235, -2.80866486672312, 12.001338957808912, 11.474013064056635, 0.01600000075995922, 0.04800000227987766, 1.008000047877431, 0.0, 0.0, 0.0, 0.0, 0.0, 1.6506669811389687E9, 0.0, 2022-04-22 17:36:21.138
91.0, 6.118476327508688, -2.090604075230658, 4.1251096511259675, 12.696960349567235, 0.01600000075995922, 0.04800000227987766, 1.008000047877431, 0.0, 0.0, 0.0, 0.0, 0.0, 1.6506669811395557E9, 0.0, 2022-04-22 17:36:21.139
91.0, -5.093743739649653, -5.463993835262954, 14.155521332286298, 12.90265484713018, 0.01600000075995922, 0.04800000227987766, 1.008000047877431, 0.0, 0.0, 0.0, 0.0, 0.0, 1.6506669811395557E9, 0.0, 2022-04-22 17:36:21.139
92.0, -2.4720738707110286, -9.480646387673914, 17.117522097192705, 13.766571736894548, 0.01600000075995922, 0.04800000227987766, 1.008000047877431, 0.0, 0.0, 0.0, 0.0, 0.0, 1.6506669811532283E9, 0.0, 2022-04-22 17:36:21.153
92.0, -1.3388841841369867, -8.785024995915592, 13.459899940527976, 16.769711401313543, 0.01600000075995922, 0.04800000227987766, 1.008000047877431, 0.0, 0.0, 0.0, 0.0, 0.0, 1.6506669811532283E9, 0.0, 2022-04-22 17:36:21.153
93.0, 0.022439399734139442, 3.870796454139054, 13.863809135742486, -6.597183521836996, 0.01600000075995922, 0.04800000227987766, 1.008000047877431, 0.0, 0.0, 0.0, 0.0, 0.0, 1.6506669811689324E9, 0.0, 2022-04-22 17:36:21.168
93.0, 2.1429626746103168, 3.4107887595891953, 20.371235058642924, 2.176621774211526, 0.01600000075995922, 0.04800000227987766, 1.008000047877431, 0.0, 0.0, 0.0, 0.0, 0.0, 1.6506669811689324E9, 0.0, 2022-04-22 17:36:21.168
94.0, -1.9447479769587517, -7.562077710404992, 20.348795658908784, 14.593089627102017, 0.01600000075995922, 0.04800000227987766, 1.008000047877431, 0.0, 0.0, 0.0, 0.0, 0.0, 1.6506669811696613E9, 0.0, 2022-04-22 17:36:21.169
94.0, -0.33285109605640173, -7.8276106072589755, 25.046110003255308, -10.580176974646747, 0.01600000075995922, 0.04800000227987766, 1.008000047877431, 0.0, 0.0, 0.0, 0.0, 0.0, 1.6506669811696613E9, 0.0, 2022-04-22 17:36:21.169
95.0, -3.665101956576109, -13.882508635520935, 11.720846461132169, 20.666687155142426, 0.01600000075995922, 0.04800000227987766, 1.008000047877431, 0.0, 0.0, 0.0, 0.0, 0.0, 1.650666981183183E9, 0.0, 2022-04-22 17:36:21.183
95.0, -24.354228511452675, -29.43301265127957, 0.7180607914924622, -7.943547505885363, 0.01600000075995922, 0.04800000227987766, 1.008000047877431, 0.0, 0.0, 0.0, 0.0, 0.0, 1.650666981183183E9, 0.0, 2022-04-22 17:36:21.183
96.0, -5.912781829945743, -13.616975738666952, 3.751119655556977, 7.5471181105822325, 0.01600000075995922, 0.04800000227987766, 1.008000047877431, 0.0, 0.0, 0.0, 0.0, 0.0, 1.650666981198906E9, 0.0, 2022-04-22 17:36:21.198
96.0, -6.735559820197523, -13.949826834723353, 1.5408387817442417, 9.076737192459404, 0.01600000075995922, 0.04800000227987766, 1.008000047877431, 0.0, 0.0, 0.0, 0.0, 0.0, 1.650666981198906E9, 0.0, 2022-04-22 17:36:21.198
97.0, -5.602370133623481, -21.29499034769833, 6.615883021615446, 10.374482477083802, 0.01600000075995922, 0.04800000227987766, 1.008000047877431, 0.0, 0.0, 0.0, 0.0, 0.0, 1.6506669811996017E9, 0.0, 2022-04-22 17:36:21.199
97.0, -4.596337045542896, -3.814697954803705, 11.163601367734373, -3.347210460342467, 0.01600000075995922, 0.04800000227987766, 1.008000047877431, 0.0, 0.0, 0.0, 0.0, 0.0, 1.6506669811996017E9, 0.0, 2022-04-22 17:36:21.199
98.0, -4.884309342131019, -21.227672148495913, 0.886356289498508, 17.012804898433387, 0.01600000075995922, 0.04800000227987766, 1.008000047877431, 0.0, 0.0, 0.0, 0.0, 0.0, 1.6506669812131524E9, 0.0, 2022-04-22 17:36:21.213
98.0, -2.0793843753635883, -8.575590598396957, 7.9098884062841535, -3.2911119610071182, 0.01600000075995922, 0.04800000227987766, 1.008000047877431, 0.0, 0.0, 0.0, 0.0, 0.0, 1.6506669812131524E9, 0.0, 2022-04-22 17:36:21.213
99.0, -21.422146946191788, -23.79698341805488, 5.370496336370707, -19.67187376692891, 0.01600000075995922, 0.04800000227987766, 1.008000047877431, 0.0, 0.0, 0.0, 0.0, 0.0, 1.650666981228888E9, 0.0, 2022-04-22 17:36:21.228
99.0, -10.48293957579881, -26.755244283005595, 2.326217772439122, 12.031258157454431, 0.01600000075995922, 0.04800000227987766, 1.008000047877431, 0.0, 0.0, 0.0, 0.0, 0.0, 1.650666981228888E9, 0.0, 2022-04-22 17:36:21.228
100.0, -10.378222377039492, -17.73086568992585, -3.657622156664729, 14.09568293299526, 0.01600000075995922, 0.04800000227987766, 1.0240000486373901, 0.0, 0.0, 0.0, 0.0, 0.0, 1.6506669812296245E9, 0.0, 2022-04-22 17:36:21.229
100.0, -9.809757583774626, -25.842708693817258, -4.917968441732228, 10.06407078076154, 0.01600000075995922, 0.04800000227987766, 1.0240000486373901, 0.0, 0.0, 0.0, 0.0, 0.0, 1.6506669812296245E9, 0.0, 2022-04-22 17:36:21.229
0.0, 17.04085414810106, 12.69883029954508, 41.83826080430299, 4.61690649529919, 0.01600000075995922, 0.04800000227987766, 1.0240000486373901, 0.0, 0.0, 0.0, 0.0, 0.0, 1.6506669812438118E9, 0.0, 2022-04-22 17:36:21.243
1.0, 20.107572111766785, 9.643332035746425, 46.16532505303621, -3.9699038029648364, 0.01600000075995922, 0.04800000227987766, 1.0240000486373901, 0.0, 0.0, 0.0, 0.0, 0.0, 1.6506669812445743E9, 0.0, 2022-04-22 17:36:21.244
1.0, 27.63973062252626, -2.129873024765402, 35.9441784741357, 20.33944590901956, 0.01600000075995922, 0.04800000227987766, 1.0240000486373901, 0.0, 0.0, 0.0, 0.0, 0.0, 1.6506669812445743E9, 0.0, 2022-04-22 17:36:21.244
2.0, 18.70510962838307, 1.2547364351339638, 38.22925734706223, 5.510742584709078, 0.01600000075995922, 0.04800000227987766, 1.0240000486373901, 0.0, 0.0, 0.0, 0.0, 0.0, 1.6506669812581627E9, 0.0, 2022-04-22 17:36:21.258
2.0, 24.34113886160776, 12.156544805970043, 47.5042092371732, 8.738276246469468, 0.01600000075995922, 0.04800000227987766, 1.0240000486373901, 0.0, 0.0, 0.0, 0.0, 0.0, 1.6506669812581627E9, 0.0, 2022-04-22 17:36:21.258
3.0, 24.33365906169638, 9.000069243367761, 48.0240553310141, 15.324240068439394, 0.01600000075995922, 0.04800000227987766, 1.0240000486373901, 0.0, 0.0, 0.0, 0.0, 0.0, 1.65066698127387E9, 0.0, 2022-04-22 17:36:21.273
3.0, 16.67060405248776, 7.735983058344573, 49.47513651382178, 9.06738744257018, 0.01600000075995922, 0.04800000227987766, 1.0240000486373901, 0.0, 0.0, 0.0, 0.0, 0.0, 1.65066698127387E9, 0.0, 2022-04-22 17:36:21.273
4.0, 25.837098843883723, 14.770734874997288, 47.88941893260926, 18.907064225990325, 0.01600000075995922, 0.04800000227987766, 1.0240000486373901, 0.0, 0.0, 0.0, 0.0, 0.0, 1.6506669812745495E9, 0.0, 2022-04-22 17:36:21.274
4.0, 22.067279688548297, 15.395298167597502, 49.333020315505564, 15.806687162723392, 0.01600000075995922, 0.04800000227987766, 1.0240000486373901, 0.0, 0.0, 0.0, 0.0, 0.0, 1.6506669812745495E9, 0.0, 2022-04-22 17:36:21.274
5.0, 31.016860282514244, 10.365132727194577, 57.57201991789043, 22.452489383984357, 0.01600000075995922, 0.04800000227987766, 1.0240000486373901, 0.0, 0.0, 0.0, 0.0, 0.0, 1.6506669812883232E9, 0.0, 2022-04-22 17:36:21.288
5.0, 26.117591340560466, 12.455736802425236, 52.19778368156403, 0.443178144749254, 0.01600000075995922, 0.04800000227987766, 1.0240000486373901, 0.0, 0.0, 0.0, 0.0, 0.0, 1.6506669812883232E9, 0.0, 2022-04-22 17:36:21.288
6.0, 25.362131549511105, 18.525594430509955, 53.357152667827904, 17.736475539859384, 0.01600000075995922, 0.04800000227987766, 1.0240000486373901, 0.0, 0.0, 0.0, 0.0, 0.0, 1.6506669813201973E9, 0.0, 2022-04-22 17:36:21.320
6.0, 31.2188148801215, 26.461662136483938, 62.11599836405367, 11.565640612971038, 0.01600000075995922, 0.04800000227987766, 1.0240000486373901, 0.0, 0.0, 0.0, 0.0, 0.0, 1.6506669813201973E9, 0.0, 2022-04-22 17:36:21.320
7.0, 28.402670213487, 19.789680615533143, 56.70436312817037, 16.831419750582427, 0.01600000075995922, 0.04800000227987766, 1.0240000486373901, 0.0, 0.0, 0.0, 0.0, 0.0, 1.6506669813209736E9, 0.0, 2022-04-22 17:36:21.320
7.0, 21.237021898385137, 13.297214292455465, 45.39864556211978, 20.130011511500925, 0.01600000075995922, 0.04800000227987766, 1.0240000486373901, 0.0, 0.0, 0.0, 0.0, 0.0, 1.6506669813209736E9, 0.0, 2022-04-22 17:36:21.320
8.0, 31.405809877905995, 13.824540186207741, 53.0990995708853, 16.438730255234987, 0.01600000075995922, 0.04800000227987766, 1.0240000486373901, 0.0, 0.0, 0.0, 0.0, 0.0, 1.6506669813217332E9, 0.0, 2022-04-22 17:36:21.321
8.0, 30.601731387432665, 21.207102698739618, 51.60687948856503, 13.794620986562222, 0.01600000075995922, 0.04800000227987766, 1.0240000486373901, 0.0, 0.0, 0.0, 0.0, 0.0, 1.6506669813217332E9, 0.0, 2022-04-22 17:36:21.321
9.0, 36.45467481808737, 41.911188853438944, 60.66865708120167, 10.159438229631633, 0.01600000075995922, 0.04800000227987766, 1.0240000486373901, 0.0, 0.0, 0.0, 0.0, 0.0, 1.6506669813224063E9, 0.0, 2022-04-22 17:36:21.322
9.0, 33.23088105628267, 24.3635782613419, 57.2503885217011, 17.08573294756934, 0.01600000075995922, 0.04800000227987766, 1.0240000486373901, 0.0, 0.0, 0.0, 0.0, 0.0, 1.6506669813224063E9, 0.0, 2022-04-22 17:36:21.322
10.0, 24.4009772608988, 16.004901860374957, 43.03876869007945, 23.48470177175477, 0.01600000075995922, 0.04800000227987766, 1.0240000486373901, 0.0, 0.0, 0.0, 0.0, 0.0, 1.6506669813331938E9, 0.0, 2022-04-22 17:36:21.333
10.0, 33.769426649902016, 33.49641395313665, 49.44895721413195, 9.534874937031418, 0.01600000075995922, 0.04800000227987766, 1.0240000486373901, 0.0, 0.0, 0.0, 0.0, 0.0, 1.6506669813331938E9, 0.0, 2022-04-22 17:36:21.333
11.0, 30.212781792040914, 28.75796070927754, 52.867225773632526, 19.96919581340626, 0.01600000075995922, 0.04800000227987766, 1.0240000486373901, 0.0, 0.0, 0.0, 0.0, 0.0, 1.6506669813646288E9, 0.0, 2022-04-22 17:36:21.364
11.0, 27.434036124963313, 8.569980748463422, 58.46959590725601, 7.631265859585255, 0.01600000075995922, 0.04800000227987766, 1.0240000486373901, 0.0, 0.0, 0.0, 0.0, 0.0, 1.6506669813646288E9, 0.0, 2022-04-22 17:36:21.364
12.0, 24.113004964310676, 7.418091562110931, 55.01018844824284, 18.480715631041676, 0.01600000075995922, 0.04800000227987766, 1.0240000486373901, 0.0, 0.0, 0.0, 0.0, 0.0, 1.650666981365256E9, 0.0, 2022-04-22 17:36:21.365
12.0, 30.635390487033874, 18.398437832016498, 55.372958743944764, 19.5839861179702, 0.01600000075995922, 0.04800000227987766, 1.0240000486373901, 0.0, 0.0, 0.0, 0.0, 0.0, 1.650666981365256E9, 0.0, 2022-04-22 17:36:21.365
13.0, 30.665309686679393, 17.396144643891603, 51.05711419507861, 16.906217749696225, 0.01600000075995922, 0.04800000227987766, 1.0240000486373901, 0.0, 0.0, 0.0, 0.0, 0.0, 1.650666981366057E9, 0.0, 2022-04-22 17:36:21.366
13.0, 31.110357781406492, 17.08573294756934, 47.48924963735044, -2.496383220423013, 0.01600000075995922, 0.04800000227987766, 1.0240000486373901, 0.0, 0.0, 0.0, 0.0, 0.0, 1.650666981366057E9, 0.0, 2022-04-22 17:36:21.366
14.0, 27.91648321924731, 13.798360886517912, 48.484063025563955, 21.10612539993599, 0.01600000075995922, 0.04800000227987766, 1.0240000486373901, 0.0, 0.0, 0.0, 0.0, 0.0, 1.6506669813782845E9, 0.0, 2022-04-22 17:36:21.378
14.0, 34.988634035456926, 23.338845673482865, 49.98002300783992, 21.93264329014346, 0.01600000075995922, 0.04800000227987766, 1.0240000486373901, 0.0, 0.0, 0.0, 0.0, 0.0, 1.6506669813782845E9, 0.0, 2022-04-22 17:36:21.378
15.0, 24.31869946187362, 19.423170419875532, 38.30405534617603, 5.106833389494568, 0.01600000075995922, 0.04800000227987766, 1.0240000486373901, 0.0, 0.0, 0.0, 0.0, 0.0, 1.650666981410262E9, 0.0, 2022-04-22 17:36:21.410
15.0, 16.483609054703265, 15.159684470389038, 46.98810304328799, 7.201177364680916, 0.01600000075995922, 0.04800000227987766, 1.0240000486373901, 0.0, 0.0, 0.0, 0.0, 0.0, 1.650666981410262E9, 0.0, 2022-04-22 17:36:21.410
16.0, 27.774367020931095, 17.728995739948004, 48.095113430172205, 20.67977680498734, 0.01600000075995922, 0.04800000227987766, 1.0240000486373901, 0.0, 0.0, 0.0, 0.0, 0.0, 1.65066698141105E9, 0.0, 2022-04-22 17:36:21.411
16.0, 25.302293150220066, 20.212289310526103, 46.064347754232585, 13.031681395601481, 0.01600000075995922, 0.04800000227987766, 1.0240000486373901, 0.0, 0.0, 0.0, 0.0, 0.0, 1.65066698141105E9, 0.0, 2022-04-22 17:36:21.411
17.0, 30.986941082868725, 19.96171601349488, 43.37535968609154, 16.31531355669722, 0.01600000075995922, 0.04800000227987766, 1.0240000486373901, 0.0, 0.0, 0.0, 0.0, 0.0, 1.650666981411727E9, 0.0, 2022-04-22 17:36:21.411
17.0, 18.37225853232667, 8.023955354932696, 40.17400532402098, 15.989942260552198, 0.01600000075995922, 0.04800000227987766, 1.0240000486373901, 0.0, 0.0, 0.0, 0.0, 0.0, 1.650666981411727E9, 0.0, 2022-04-22 17:36:21.411
18.0, 32.75217386195436, 25.15643705194816, 49.10114651825279, 15.313020368572325, 0.01600000075995922, 0.04800000227987766, 1.0240000486373901, 0.0, 0.0, 0.0, 0.0, 0.0, 1.6506669814124773E9, 0.0, 2022-04-22 17:36:21.412
18.0, 23.12941127596423, 19.08283952390775, 48.27088872808963, 12.448257002513856, 0.01600000075995922, 0.04800000227987766, 1.0240000486373901, 0.0, 0.0, 0.0, 0.0, 0.0, 1.6506669814124773E9, 0.0, 2022-04-22 17:36:21.412
19.0, 19.95049631362781, 15.09610617114231, 46.96192374359816, -8.139892253559083, 0.01600000075995922, 0.04800000227987766, 1.0240000486373901, 0.0, 0.0, 0.0, 0.0, 0.0, 1.650666981423142E9, 0.0, 2022-04-22 17:36:21.423
19.0, 28.3652712139301, 32.79331276146695, 44.893759068101645, 9.662031535524875, 0.01600000075995922, 0.04800000227987766, 1.0240000486373901, 0.0, 0.0, 0.0, 0.0, 0.0, 1.650666981423142E9, 0.0, 2022-04-22 17:36:21.423
20.0, 31.705001874361187, 32.89055016031489, 48.19609072897583, 6.591573671903461, 0.01600000075995922, 0.04800000227987766, 1.0240000486373901, 0.0, 0.0, 0.0, 0.0, 0.0, 1.6506669814381022E9, 0.0, 2022-04-22 17:36:21.438
20.0, 25.635144246276468, 26.252227738965303, 44.38887257408351, 17.422323943581432, 0.01600000075995922, 0.04800000227987766, 1.0240000486373901, 0.0, 0.0, 0.0, 0.0, 0.0, 1.6506669814381022E9, 0.0, 2022-04-22 17:36:21.438
21.0, 23.98210846586153, 18.585432829800993, 44.867579768411815, 12.410858002956957, 0.01600000075995922, 0.04800000227987766, 1.0240000486373901, 0.0, 0.0, 0.0, 0.0, 0.0, 1.6506669814538925E9, 0.0, 2022-04-22 17:36:21.453
21.0, 32.157529768999666, 33.72080795047805, 48.79821462184191, 17.57565984176472, 0.01600000075995922, 0.04800000227987766, 1.0240000486373901, 0.0, 0.0, 0.0, 0.0, 0.0, 1.6506669814538925E9, 0.0, 2022-04-22 17:36:21.453
22.0, 27.478914924431592, 29.902370095718652, 46.434597849845886, 9.953743732068688, 0.01600000075995922, 0.04800000227987766, 1.0240000486373901, 0.0, 0.0, 0.0, 0.0, 0.0, 1.6506669814547489E9, 0.0, 2022-04-22 17:36:21.454
22.0, 25.803439744282514, 22.250534786377102, 45.286448563449085, 19.55780681828037, 0.01600000075995922, 0.04800000227987766, 1.0240000486373901, 0.0, 0.0, 0.0, 0.0, 0.0, 1.6506669814547489E9, 0.0, 2022-04-22 17:36:21.454
23.0, 25.885717543307692, 21.87280489085242, 44.59456707164645, 15.638391664717346, 0.01600000075995922, 0.04800000227987766, 1.0240000486373901, 0.0, 0.0, 0.0, 0.0, 0.0, 1.650666981468084E9, 0.0, 2022-04-22 17:36:21.468
23.0, 30.863524384330958, 28.634544010739774, 50.67938429955393, 22.878837978933007, 0.01600000075995922, 0.04800000227987766, 1.0240000486373901, 0.0, 0.0, 0.0, 0.0, 0.0, 1.650666981468084E9, 0.0, 2022-04-22 17:36:21.468
24.0, 21.442716395948082, 21.801746791694313, 42.447864497080445, -7.429311261978, 0.01600000075995922, 0.04800000227987766, 1.0240000486373901, 0.0, 0.0, 0.0, 0.0, 0.0, 1.650666981483842E9, 0.0, 2022-04-22 17:36:21.483
24.0, 27.377937625627965, 18.551773730199784, 32.95225850958377, 7.889318956527859, 0.01600000075995922, 0.04800000227987766, 1.0240000486373901, 0.0, 0.0, 0.0, 0.0, 0.0, 1.650666981483842E9, 0.0, 2022-04-22 17:36:21.483
25.0, 21.53621389484033, 25.13025775225833, 31.097268131561577, 27.262000727001578, 0.01600000075995922, 0.04800000227987766, 1.0240000486373901, 0.0, 0.0, 0.0, 0.0, 0.0, 1.6506669814845564E9, 0.0, 2022-04-22 17:36:21.484
25.0, 29.393743701744825, 11.977029608096927, 40.54425541963428, 5.121792989317328, 0.01600000075995922, 0.04800000227987766, 1.0240000486373901, 0.0, 0.0, 0.0, 0.0, 0.0, 1.6506669814845564E9, 0.0, 2022-04-22 17:36:21.484
26.0, 21.723208892624825, 16.195636758115143, 35.30839548166841, 14.826833374332637, 0.01600000075995922, 0.04800000227987766, 1.0240000486373901, 0.0, 0.0, 0.0, 0.0, 0.0, 1.6506669814981053E9, 0.0, 2022-04-22 17:36:21.498
26.0, 27.90900341933593, 26.846871831919998, 33.66657940112054, 3.625833007041365, 0.01600000075995922, 0.04800000227987766, 1.0240000486373901, 0.0, 0.0, 0.0, 0.0, 0.0, 1.6506669814981053E9, 0.0, 2022-04-22 17:36:21.498
27.0, 26.33076563803479, 27.071265829261392, 38.21429774723947, 7.979076555464417, 0.01600000075995922, 0.04800000227987766, 1.0240000486373901, 0.0, 0.0, 0.0, 0.0, 0.0, 1.6506669815138986E9, 0.0, 2022-04-22 17:36:21.513
27.0, 18.435836831573397, 17.186710246372968, 34.410819492302835, 8.842993445228785, 0.01600000075995922, 0.04800000227987766, 1.0240000486373901, 0.0, 0.0, 0.0, 0.0, 0.0, 1.6506669815138986E9, 0.0, 2022-04-22 17:36:21.513
28.0, 25.14895725203678, 17.613058841321617, 31.609634425491095, 17.16427084663883, 0.01600000075995922, 0.04800000227987766, 1.0240000486373901, 0.0, 0.0, 0.0, 0.0, 0.0, 1.6506669815145402E9, 0.0, 2022-04-22 17:36:21.514
28.0, 26.76833393285051, 41.72793375561014, 39.48586373217404, -10.978476319927722, 0.01600000075995922, 0.04800000227987766, 1.0240000486373901, 0.0, 0.0, 0.0, 0.0, 0.0, 1.6506669815145402E9, 0.0, 2022-04-22 17:36:21.514
29.0, 27.422816425096244, 28.088518617209047, 25.079769102856517, 11.86857250938192, 0.01600000075995922, 0.04800000227987766, 1.0240000486373901, 0.0, 0.0, 0.0, 0.0, 0.0, 1.6506669815282147E9, 0.0, 2022-04-22 17:36:21.528
29.0, 19.995375113096088, 22.583385882433504, 24.21211231313646, 6.587833771947771, 0.01600000075995922, 0.04800000227987766, 1.0240000486373901, 0.0, 0.0, 0.0, 0.0, 0.0, 1.6506669815282147E9, 0.0, 2022-04-22 17:36:21.528
30.0, 18.626571729313582, 21.53995379479602, 10.606356274336576, -1.6399461305700243, 0.01600000075995922, 0.04800000227987766, 1.0240000486373901, 0.0, 0.0, 0.0, 0.0, 0.0, 1.6506669815439687E9, 0.0, 2022-04-22 17:36:21.543
30.0, 22.841438979376107, 22.3253327854909, 7.674274709075689, 2.664678718429059, 0.01600000075995922, 0.04800000227987766, 1.0240000486373901, 0.0, 0.0, 0.0, 0.0, 0.0, 1.6506669815439687E9, 0.0, 2022-04-22 17:36:21.543
31.0, 26.465402036439627, 31.061739081982523, 11.791904560290277, 6.311081175226718, 0.01600000075995922, 0.06400000303983688, 1.0240000486373901, 0.0, 0.0, 0.0, 0.0, 0.0, 1.6506669815447404E9, 0.0, 2022-04-22 17:36:21.544
31.0, 21.89150439063087, 29.490981100592762, 11.492712563835084, -5.02455559046939, 0.01600000075995922, 0.06400000303983688, 1.0240000486373901, 0.0, 0.0, 0.0, 0.0, 0.0, 1.6506669815447404E9, 0.0, 2022-04-22 17:36:21.544
32.0, 11.277668316382915, 18.215182734187692, 7.9098884062841535, -9.02998844301328, 0.01600000075995922, 0.06400000303983688, 1.0240000486373901, 0.0, 0.0, 0.0, 0.0, 0.0, 1.6506669815581982E9, 0.0, 2022-04-22 17:36:21.558
32.0, 12.485656002070755, 16.988495548721403, -2.580530969426036, -11.431004214566201, 0.01600000075995922, 0.06400000303983688, 1.0240000486373901, 0.0, 0.0, 0.0, 0.0, 0.0, 1.6506669815581982E9, 0.0, 2022-04-22 17:36:21.558
33.0, 11.4684032141231, 13.51412848988548, 0.5572450933977962, -21.18092339904979, 0.01600000075995922, 0.06400000303983688, 1.0240000486373901, 0.0, 0.0, 0.0, 0.0, 0.0, 1.6506669815739162E9, 0.0, 2022-04-22 17:36:21.573
33.0, 18.046887236181647, 14.927810673136264, 3.6314428569748998, 0.9779838384129107, 0.01600000075995922, 0.06400000303983688, 1.0240000486373901, 0.0, 0.0, 0.0, 0.0, 0.0, 1.6506669815739162E9, 0.0, 2022-04-22 17:36:21.573
34.0, 12.014428607653826, 14.037714483682066, -3.3659099601209164, 0.5329357436858118, 0.01600000075995922, 0.06400000303983688, 1.0240000486373901, 0.0, 0.0, 0.0, 0.0, 0.0, 1.6506669815746477E9, 0.0, 2022-04-22 17:36:21.574
34.0, 12.29866100428626, 16.30409385683015, -1.9971065763384104, 5.376106186304241, 0.01600000075995922, 0.06400000303983688, 1.0240000486373901, 0.0, 0.0, 0.0, 0.0, 0.0, 1.6506669815746477E9, 0.0, 2022-04-22 17:36:21.574
35.0, 20.144971111323684, 8.442824149969965, 0.39268949534744024, 2.9227318153716624, 0.01600000075995922, 0.06400000303983688, 1.0240000486373901, 0.0, 0.0, 0.0, 0.0, 0.0, 1.6506669815881743E9, 0.0, 2022-04-22 17:36:21.588
35.0, 11.576860312838107, 16.786540951114148, -1.286525584757328, -16.120838759001344, 0.01600000075995922, 0.06400000303983688, 1.0240000486373901, 0.0, 0.0, 0.0, 0.0, 0.0, 1.6506669815881743E9, 0.0, 2022-04-22 17:36:21.588
36.0, 14.183570581953973, 23.615598270203918, 1.6380761805921793, -1.5352289318107069, 0.01600000075995922, 0.06400000303983688, 1.0240000486373901, 0.0, 0.0, 0.0, 0.0, 0.0, 1.650666981603938E9, 0.0, 2022-04-22 17:36:21.603
36.0, 11.401085014920682, 18.428357031662017, -0.2730126967653632, -7.530288560781628, 0.01600000075995922, 0.06400000303983688, 1.0240000486373901, 0.0, 0.0, 0.0, 0.0, 0.0, 1.650666981603938E9, 0.0, 2022-04-22 17:36:21.603
37.0, 17.628018441144377, 22.890057678800076, 2.2289803735911846, -3.2368834116496146, 0.01600000075995922, 0.06400000303983688, 1.0240000486373901, 0.0, 0.0, 0.0, 0.0, 0.0, 1.6506669816046112E9, 0.0, 2022-04-22 17:36:21.604
37.0, 28.144617116544396, 26.992727930191904, 11.825563659891486, 11.05327431904152, 0.01600000075995922, 0.06400000303983688, 1.0240000486373901, 0.0, 0.0, 0.0, 0.0, 0.0, 1.6506669816046112E9, 0.0, 2022-04-22 17:36:21.604
38.0, 8.038914954755455, -0.8695267396979034, 1.084570987150073, -7.171258165035397, 0.01600000075995922, 0.06400000303983688, 1.0240000486373901, 0.0, 0.0, 0.0, 0.0, 0.0, 1.6506669816181347E9, 0.0, 2022-04-22 17:36:21.618
38.0, 10.24919582856819, 10.974736419972032, 4.588857245631516, -11.303847616072744, 0.01600000075995922, 0.06400000303983688, 1.0240000486373901, 0.0, 0.0, 0.0, 0.0, 0.0, 1.6506669816181347E9, 0.0, 2022-04-22 17:36:21.618
39.0, 11.591819912660867, 16.135798358824104, 9.862116183154285, -23.862431667279452, 0.01600000075995922, 0.06400000303983688, 1.0240000486373901, 0.0, 0.0, 0.0, 0.0, 0.0, 1.6506669816338997E9, 0.0, 2022-04-22 17:36:21.633
39.0, 24.984401653986424, 30.75506728561595, 16.178807208314538, -10.589526724535972, 0.01600000075995922, 0.06400000303983688, 1.0240000486373901, 0.0, 0.0, 0.0, 0.0, 0.0, 1.6506669816338997E9, 0.0, 2022-04-22 17:36:21.633
40.0, 16.087179659400135, 21.259461298119277, 1.1144901867955923, -13.49916889006272, 0.01600000075995922, 0.06400000303983688, 1.0240000486373901, 0.0, 0.0, 0.0, 0.0, 0.0, 1.650666981634619E9, 0.0, 2022-04-22 17:36:21.634
40.0, 18.084286235738546, 18.2488418337889, 13.332743342034519, 6.9842631672509015, 0.01600000075995922, 0.06400000303983688, 1.0240000486373901, 0.0, 0.0, 0.0, 0.0, 0.0, 1.650666981634619E9, 0.0, 2022-04-22 17:36:21.634
41.0, 16.850119250360876, 17.751435139682144, 7.094590215943754, 7.399392062332481, 0.01600000075995922, 0.06400000303983688, 1.0240000486373901, 0.0, 0.0, 0.0, 0.0, 0.0, 1.650666981648234E9, 0.0, 2022-04-22 17:36:21.648
41.0, 6.6588918711058795, 9.45633703796193, 2.7563062673434615, -3.81656790478155, 0.01600000075995922, 0.06400000303983688, 1.0240000486373901, 0.0, 0.0, 0.0, 0.0, 0.0, 1.650666981648234E9, 0.0, 2022-04-22 17:36:21.648
42.0, 26.38312423741445, 28.38771061366424, 13.852589435875416, 6.879545968491584, 0.01600000075995922, 0.06400000303983688, 1.0240000486373901, 0.0, 0.0, 0.0, 0.0, 0.0, 1.6506669816638887E9, 0.0, 2022-04-22 17:36:21.663
42.0, 19.89065791433677, 13.08777989493683, 16.186287008225918, -9.119746041949838, 0.01600000075995922, 0.06400000303983688, 1.0240000486373901, 0.0, 0.0, 0.0, 0.0, 0.0, 1.6506669816638887E9, 0.0, 2022-04-22 17:36:21.663
43.0, 11.954590208362788, 23.09949207631871, 5.64350903313607, 2.530042320024222, 0.01600000075995922, 0.06400000303983688, 1.0240000486373901, 0.0, 0.0, 0.0, 0.0, 0.0, 1.6506669816647544E9, 0.0, 2022-04-22 17:36:21.664
43.0, 13.330873392056674, 19.04918042430654, 0.4637475945055485, -23.768934168387204, 0.01600000075995922, 0.06400000303983688, 1.0240000486373901, 0.0, 0.0, 0.0, 0.0, 0.0, 1.6506669816647544E9, 0.0, 2022-04-22 17:36:21.664
44.0, 19.85325891477987, 11.240269316826016, 10.84196997154504, -2.2308503235690296, 0.01600000075995922, 0.06400000303983688, 1.0240000486373901, 0.0, 0.0, 0.0, 0.0, 0.0, 1.6506669816781416E9, 0.0, 2022-04-22 17:36:21.678
44.0, 8.525101948995143, 6.142785677220672, 10.097729880362749, -14.538861077744514, 0.01600000075995922, 0.06400000303983688, 1.0240000486373901, 0.0, 0.0, 0.0, 0.0, 0.0, 1.6506669816781416E9, 0.0, 2022-04-22 17:36:21.678
45.0, 9.561054236721247, -8.27826855191961, 9.23755289055407, -6.082947277929634, 0.01600000075995922, 0.06400000303983688, 1.0240000486373901, 0.0, 0.0, 0.0, 0.0, 0.0, 1.6506669816938903E9, 0.0, 2022-04-22 17:36:21.693
45.0, 21.98874178947881, 17.807533639017493, 13.037291245535016, 5.514482484664768, 0.01600000075995922, 0.06400000303983688, 1.0240000486373901, 0.0, 0.0, 0.0, 0.0, 0.0, 1.6506669816938903E9, 0.0, 2022-04-22 17:36:21.693
46.0, 8.487702949438244, 23.679176569450647, 17.32695649471134, 1.5090496321208775, 0.01600000075995922, 0.06400000303983688, 1.0240000486373901, 0.0, 0.0, 0.0, 0.0, 0.0, 1.6506669816946328E9, 0.0, 2022-04-22 17:36:21.694
46.0, 13.45802999055013, 10.357652927283198, 8.220300102606416, -10.193097329232842, 0.01600000075995922, 0.06400000303983688, 1.0240000486373901, 0.0, 0.0, 0.0, 0.0, 0.0, 1.6506669816946328E9, 0.0, 2022-04-22 17:36:21.694
47.0, 25.18635625159368, 25.732381645124406, 27.211512077599764, 6.273682175669819, 0.01600000075995922, 0.06400000303983688, 1.0240000486373901, 0.0, 0.0, 0.0, 0.0, 0.0, 1.650666981708194E9, 0.0, 2022-04-22 17:36:21.708
47.0, 15.402777967508882, 15.047487471718341, 14.813743724487722, 5.140492489095777, 0.01600000075995922, 0.06400000303983688, 1.0240000486373901, 0.0, 0.0, 0.0, 0.0, 0.0, 1.650666981708194E9, 0.0, 2022-04-22 17:36:21.708
48.0, 9.8752058329992, 7.492889561224729, 12.936313946731389, -20.567579806316644, 0.01600000075995922, 0.06400000303983688, 1.0240000486373901, 0.0, 0.0, 0.0, 0.0, 0.0, 1.6506669817239552E9, 0.0, 2022-04-22 17:36:21.723
48.0, 19.243655222002417, 24.041946865152568, 22.58151593245566, -12.885825297329575, 0.01600000075995922, 0.06400000303983688, 1.0240000486373901, 0.0, 0.0, 0.0, 0.0, 0.0, 1.6506669817239552E9, 0.0, 2022-04-22 17:36:21.723
49.0, 14.209749881643802, 14.845532874111086, 24.462685610167682, 0.5740746431984007, 0.01600000075995922, 0.06400000303983688, 1.0240000486373901, 0.0, 0.0, 0.0, 0.0, 0.0, 1.650666981724616E9, 0.0, 2022-04-22 17:36:21.724
49.0, 16.161977658513933, 9.87894573295489, 23.80820311792195, -4.370073098223656, 0.01600000075995922, 0.06400000303983688, 1.0240000486373901, 0.0, 0.0, 0.0, 0.0, 0.0, 1.650666981724616E9, 0.0, 2022-04-22 17:36:21.724
50.0, 18.125425135251135, 8.311927651520818, 26.807602882385254, 4.695444394368678, 0.01600000075995922, 0.06400000303983688, 1.0240000486373901, 0.0, 0.0, 0.0, 0.0, 0.0, 1.6506669817382283E9, 0.0, 2022-04-22 17:36:21.738
50.0, 14.31446708040312, 22.73672178061679, 27.83233547024429, -5.675298182759434, 0.01600000075995922, 0.06400000303983688, 1.0240000486373901, 0.0, 0.0, 0.0, 0.0, 0.0, 1.6506669817382283E9, 0.0, 2022-04-22 17:36:21.738
51.0, 17.732735639903694, 30.631650587078184, 22.248664836399257, 8.738276246469468, 0.01600000075995922, 0.04800000227987766, 1.0240000486373901, 0.0, 0.0, 0.0, 0.0, 0.0, 1.6506669817538655E9, 0.0, 2022-04-22 17:36:21.753
51.0, 26.506540935952216, 25.298553250264376, 13.512258539907634, -8.28574835183099, 0.01600000075995922, 0.04800000227987766, 1.0240000486373901, 0.0, 0.0, 0.0, 0.0, 0.0, 1.6506669817538655E9, 0.0, 2022-04-22 17:36:21.753
52.0, 15.298060768749565, 24.894644055049866, 24.61228160839528, -13.420630990993232, 0.01600000075995922, 0.04800000227987766, 1.0240000486373901, 0.0, 0.0, 0.0, 0.0, 0.0, 1.6506669817545912E9, 0.0, 2022-04-22 17:36:21.754
52.0, 23.215428974945098, 22.949896078091115, 19.911227364093065, 5.757575981784612, 0.01600000075995922, 0.04800000227987766, 1.0240000486373901, 0.0, 0.0, 0.0, 0.0, 0.0, 1.6506669817545912E9, 0.0, 2022-04-22 17:36:21.754
53.0, 18.233882233966142, 26.6972758336924, 21.938253140076995, -9.706910334993154, 0.01600000075995922, 0.04800000227987766, 1.0240000486373901, 0.0, 0.0, 0.0, 0.0, 0.0, 1.650666981768247E9, 0.0, 2022-04-22 17:36:21.768
53.0, 27.082485529128462, 31.93687567161396, 26.732804883271456, 13.547787589486688, 0.01600000075995922, 0.04800000227987766, 1.0240000486373901, 0.0, 0.0, 0.0, 0.0, 0.0, 1.650666981768247E9, 0.0, 2022-04-22 17:36:21.768
54.0, 26.01661404175684, 27.53875332372263, 27.78371677082032, -2.567441319581121, 0.01600000075995922, 0.04800000227987766, 1.0240000486373901, 0.0, 0.0, 0.0, 0.0, 0.0, 1.6506669817839084E9, 0.0, 2022-04-22 17:36:21.783
54.0, 29.434882601257414, 31.895736772101372, 31.160846430808306, -8.364286250900477, 0.01600000075995922, 0.04800000227987766, 1.0240000486373901, 0.0, 0.0, 0.0, 0.0, 0.0, 1.6506669817839084E9, 0.0, 2022-04-22 17:36:21.783
55.0, 22.916236978489906, 29.375044201966375, 23.512751021422446, 7.694844158831984, 0.01600000075995922, 0.04800000227987766, 1.0240000486373901, 0.0, 0.0, 0.0, 0.0, 0.0, 1.6506669817846053E9, 0.0, 2022-04-22 17:36:21.784
55.0, 7.818260857369751, 14.553820677567273, 19.66813386697322, -0.686271641869098, 0.01600000075995922, 0.04800000227987766, 1.0240000486373901, 0.0, 0.0, 0.0, 0.0, 0.0, 1.6506669817846053E9, 0.0, 2022-04-22 17:36:21.784
56.0, 17.250288545619696, 18.458276231307536, 31.486217726953328, -27.92396301915869, 0.01600000075995922, 0.04800000227987766, 1.0240000486373901, 0.0, 0.0, 0.0, 0.0, 0.0, 1.6506669817982092E9, 0.0, 2022-04-22 17:36:21.798
56.0, 23.791373568121344, 22.7329818806611, 31.665732924826443, 4.403732197824866, 0.01600000075995922, 0.04800000227987766, 1.0240000486373901, 0.0, 0.0, 0.0, 0.0, 0.0, 1.6506669817982092E9, 0.0, 2022-04-22 17:36:21.798
57.0, 17.12687184708193, 14.516421678010374, 18.789257377386093, -5.4284647856839, 0.01600000075995922, 0.04800000227987766, 1.0240000486373901, 0.0, 0.0, 0.0, 0.0, 0.0, 1.650666981813929E9, 0.0, 2022-04-22 17:36:21.813
57.0, 21.06124660046771, 22.422570184338838, 26.56450938526541, 8.64477874757722, 0.01600000075995922, 0.04800000227987766, 1.0240000486373901, 0.0, 0.0, 0.0, 0.0, 0.0, 1.650666981813929E9, 0.0, 2022-04-22 17:36:21.813
58.0, 10.997175819706172, 18.854705626610667, 27.566802573390305, 3.895105803851038, 0.01600000075995922, 0.04800000227987766, 1.0240000486373901, 0.0, 0.0, 0.0, 0.0, 0.0, 1.6506669818147385E9, 0.0, 2022-04-22 17:36:21.814
58.0, 13.001762195955962, 5.708957282360643, 20.85742205288261, -3.81656790478155, 0.01600000075995922, 0.04800000227987766, 1.0240000486373901, 0.0, 0.0, 0.0, 0.0, 0.0, 1.6506669818147385E9, 0.0, 2022-04-22 17:36:21.814
59.0, 12.074267006944865, 14.72211617557332, 26.291496688500047, -15.193343569990247, 0.01600000075995922, 0.04800000227987766, 1.0240000486373901, 0.0, 0.0, 0.0, 0.0, 0.0, 1.650666981828231E9, 0.0, 2022-04-22 17:36:21.828
59.0, 24.453335860278457, 20.208549410570413, 22.13272793777287, 5.536921884398907, 0.01600000075995922, 0.04800000227987766, 1.0240000486373901, 0.0, 0.0, 0.0, 0.0, 0.0, 1.650666981828231E9, 0.0, 2022-04-22 17:36:21.828
60.0, 20.642377805430442, 18.540554030332714, 22.87322812899947, 13.181277393829077, 0.01600000075995922, 0.04800000227987766, 1.0240000486373901, 0.0, 0.0, 0.0, 0.0, 0.0, 1.650666981843908E9, 0.0, 2022-04-22 17:36:21.843
60.0, 14.939030373003334, 8.072574054356664, 32.98591760918498, -18.016968036536127, 0.01600000075995922, 0.04800000227987766, 1.0240000486373901, 0.0, 0.0, 0.0, 0.0, 0.0, 1.650666981843908E9, 0.0, 2022-04-22 17:36:21.843
61.0, 0.42447864497080445, -5.241469787899405, 14.940900322981179, -12.28744130441919, 0.01600000075995922, 0.04800000227987766, 1.0240000486373901, 0.0, 0.0, 0.0, 0.0, 0.0, 1.6506669818446374E9, 0.0, 2022-04-22 17:36:21.844
61.0, 23.19672947516665, 16.995975348632783, 19.544717168435454, -2.339307422284037, 0.01600000075995922, 0.04800000227987766, 1.0240000486373901, 0.0, 0.0, 0.0, 0.0, 0.0, 1.6506669818446374E9, 0.0, 2022-04-22 17:36:21.844
62.0, 23.817552867811173, 20.447903007734567, 29.36569445207715, 15.724409363698214, 0.01600000075995922, 0.04800000227987766, 1.0240000486373901, 0.0, 0.0, 0.0, 0.0, 0.0, 1.6506669818582284E9, 0.0, 2022-04-22 17:36:21.858
62.0, 21.625971493776888, 17.332566344644874, 30.730757935903966, 9.47503653774038, 0.01600000075995922, 0.04800000227987766, 1.0240000486373901, 0.0, 0.0, 0.0, 0.0, 0.0, 1.6506669818582284E9, 0.0, 2022-04-22 17:36:21.858
63.0, 15.937583661172539, 20.178630210924894, 24.387887611053884, -4.456090797204524, 0.01600000075995922, 0.04800000227987766, 1.0240000486373901, 0.0, 0.0, 0.0, 0.0, 0.0, 1.6506669818739128E9, 0.0, 2022-04-22 17:36:21.873
63.0, 23.757714468520135, 14.950250072870404, 33.37112730462104, -4.2466563996858895, 0.01600000075995922, 0.04800000227987766, 1.0240000486373901, 0.0, 0.0, 0.0, 0.0, 0.0, 1.6506669818739128E9, 0.0, 2022-04-22 17:36:21.873
64.0, 26.38312423741445, 21.438976495992392, 31.067348931916058, 23.90357056679204, 0.01600000075995922, 0.04800000227987766, 1.0240000486373901, 0.0, 0.0, 0.0, 0.0, 0.0, 1.6506669818745823E9, 0.0, 2022-04-22 17:36:21.874
64.0, 12.066787207033485, 15.89270486170426, 25.442539398558438, -10.899938420858234, 0.01600000075995922, 0.04800000227987766, 1.0240000486373901, 0.0, 0.0, 0.0, 0.0, 0.0, 1.6506669818745823E9, 0.0, 2022-04-22 17:36:21.874
65.0, 13.91803768509999, 20.69099650485441, 28.894467057660222, -9.400238538626581, 0.01600000075995922, 0.04800000227987766, 1.0240000486373901, 0.0, 0.0, 0.0, 0.0, 0.0, 1.6506669818881867E9, 0.0, 2022-04-22 17:36:21.888
65.0, 23.394944172818214, 4.684224694501609, 31.198245430365205, 14.527641377877444, 0.01600000075995922, 0.04800000227987766, 1.0240000486373901, 0.0, 0.0, 0.0, 0.0, 0.0, 1.6506669818881867E9, 0.0, 2022-04-22 17:36:21.888
66.0, 15.780507863033563, 7.911758356261998, 38.24795684684068, -3.618353207129985, 0.01600000075995922, 0.04800000227987766, 1.0240000486373901, 0.0, 0.0, 0.0, 0.0, 0.0, 1.650666981920296E9, 0.0, 2022-04-22 17:36:21.920
66.0, 14.752035375218838, 17.138091546949, 32.3127356171608, 13.319653692189604, 0.01600000075995922, 0.04800000227987766, 1.0240000486373901, 0.0, 0.0, 0.0, 0.0, 0.0, 1.650666981920296E9, 0.0, 2022-04-22 17:36:21.920
67.0, 11.528241613414139, 8.760715646203607, 24.97879180405289, -12.26126200472936, 0.01600000075995922, 0.04800000227987766, 1.0240000486373901, 0.0, 0.0, 0.0, 0.0, 0.0, 1.6506669819209943E9, 0.0, 2022-04-22 17:36:21.920
67.0, 33.34307805495337, 29.15439010458067, 34.11910729575902, -1.00790303805843, 0.01600000075995922, 0.04800000227987766, 1.0240000486373901, 0.0, 0.0, 0.0, 0.0, 0.0, 1.6506669819209943E9, 0.0, 2022-04-22 17:36:21.920
68.0, 20.627418205607682, 18.054367036093026, 32.855021110735834, 15.90392456157133, 0.01600000075995922, 0.04800000227987766, 1.0240000486373901, 0.0, 0.0, 0.0, 0.0, 0.0, 1.6506669819217784E9, 0.0, 2022-04-22 17:36:21.921
68.0, 21.96256248978898, 12.882085397373885, 31.33288182877004, 22.037360488902777, 0.01600000075995922, 0.04800000227987766, 1.0240000486373901, 0.0, 0.0, 0.0, 0.0, 0.0, 1.6506669819217784E9, 0.0, 2022-04-22 17:36:21.921
69.0, 9.183324341196567, 6.262462475802749, 25.72303189523518, -9.07486724248156, 0.01600000075995922, 0.04800000227987766, 1.0240000486373901, 0.0, 0.0, 0.0, 0.0, 0.0, 1.6506669819224796E9, 0.0, 2022-04-22 17:36:21.922
69.0, 18.821046527009457, 16.072220059577376, 24.60106190852821, 1.613766830880195, 0.01600000075995922, 0.04800000227987766, 1.0240000486373901, 0.0, 0.0, 0.0, 0.0, 0.0, 1.6506669819224796E9, 0.0, 2022-04-22 17:36:21.922
70.0, 12.904524797108024, 8.577460548374802, 25.7903500944376, 5.308787987101823, 0.01600000075995922, 0.04800000227987766, 1.008000047877431, 0.0, 0.0, 0.0, 0.0, 0.0, 1.6506669819332E9, 0.0, 2022-04-22 17:36:21.933
70.0, 16.509788354393095, 2.488903420511633, 23.987718315795064, 0.6563524422235787, 0.01600000075995922, 0.04800000227987766, 1.008000047877431, 0.0, 0.0, 0.0, 0.0, 0.0, 1.6506669819332E9, 0.0, 2022-04-22 17:36:21.933
71.0, 29.9210695954971, 23.271527474280447, 29.620007649064064, 23.241608274634928, 0.01600000075995922, 0.04800000227987766, 1.008000047877431, 0.0, 0.0, 0.0, 0.0, 0.0, 1.6506669819481838E9, 0.0, 2022-04-22 17:36:21.948
71.0, 20.38806460844353, 24.270080762449652, 29.683585948310792, -5.563101184088737, 0.01600000075995922, 0.04800000227987766, 1.008000047877431, 0.0, 0.0, 0.0, 0.0, 0.0, 1.6506669819481838E9, 0.0, 2022-04-22 17:36:21.948
72.0, 22.26923428615555, 18.484455530997366, 26.15686029009521, -4.598206995520741, 0.01600000075995922, 0.04800000227987766, 1.008000047877431, 0.0, 0.0, 0.0, 0.0, 0.0, 1.650666981963854E9, 0.0, 2022-04-22 17:36:21.963
72.0, 25.665063445921987, 24.094305464532226, 35.37571368087083, 5.1330126891843975, 0.01600000075995922, 0.04800000227987766, 1.008000047877431, 0.0, 0.0, 0.0, 0.0, 0.0, 1.650666981963854E9, 0.0, 2022-04-22 17:36:21.963
73.0, 11.266448616515845, 7.2647556639276445, 21.934513240121305, 8.917791444342583, 0.01600000075995922, 0.04800000227987766, 1.008000047877431, 0.0, 0.0, 0.0, 0.0, 0.0, 1.6506669819645565E9, 0.0, 2022-04-22 17:36:21.964
73.0, 16.36393225612119, 9.665771435480565, 20.045863762497902, 1.127579836640507, 0.01600000075995922, 0.04800000227987766, 1.008000047877431, 0.0, 0.0, 0.0, 0.0, 0.0, 1.6506669819645565E9, 0.0, 2022-04-22 17:36:21.964
74.0, 21.356698696967214, 18.30868023307994, 34.12284719571471, 1.9840169264934957, 0.01600000075995922, 0.04800000227987766, 1.008000047877431, 0.0, 0.0, 0.0, 0.0, 0.0, 1.650666981978162E9, 0.0, 2022-04-22 17:36:21.978
74.0, 28.30543281463906, 25.425709848757833, 29.242277753539383, 14.763255075085908, 0.01600000075995922, 0.04800000227987766, 1.008000047877431, 0.0, 0.0, 0.0, 0.0, 0.0, 1.650666981978162E9, 0.0, 2022-04-22 17:36:21.978
75.0, 22.145817587617785, 27.258260827045888, 30.779376635327935, 7.807041157502681, 0.01600000075995922, 0.04800000227987766, 1.008000047877431, 0.0, 0.0, 0.0, 0.0, 0.0, 1.6506669819938562E9, 0.0, 2022-04-22 17:36:21.993
75.0, 17.399884543847293, 19.438130019698292, 30.483924538828433, -0.10284724878147244, 0.01600000075995922, 0.04800000227987766, 1.008000047877431, 0.0, 0.0, 0.0, 0.0, 0.0, 1.6506669819938562E9, 0.0, 2022-04-22 17:36:21.993
76.0, 4.070881101768464, -2.971350514795631, 13.407541341148317, -12.784847998525947, 0.01600000075995922, 0.04800000227987766, 1.008000047877431, 0.0, 0.0, 0.0, 0.0, 0.0, 1.6506669819946103E9, 0.0, 2022-04-22 17:36:21.994
76.0, 25.20505575137213, 16.921177349518985, 34.09666789602488, 21.19962289882824, 0.01600000075995922, 0.04800000227987766, 1.008000047877431, 0.0, 0.0, 0.0, 0.0, 0.0, 1.6506669819946103E9, 0.0, 2022-04-22 17:36:21.994
77.0, 20.986448601353914, 14.097552882973105, 34.60155439004302, 24.28504036227241, 0.01600000075995922, 0.04800000227987766, 1.008000047877431, 0.0, 0.0, 0.0, 0.0, 0.0, 1.650666982008208E9, 0.0, 2022-04-22 17:36:22.008
77.0, 17.818753338884562, 8.128672553692013, 36.27328967023641, 9.359099639113992, 0.01600000075995922, 0.04800000227987766, 1.008000047877431, 0.0, 0.0, 0.0, 0.0, 0.0, 1.650666982008208E9, 0.0, 2022-04-22 17:36:22.008
78.0, 28.058599417563528, 23.21168907498941, 41.81582140456885, 8.356806450989097, 0.01600000075995922, 0.04800000227987766, 1.008000047877431, 0.0, 0.0, 0.0, 0.0, 0.0, 1.6506669820238707E9, 0.0, 2022-04-22 17:36:22.023
78.0, 28.39519041357562, 19.224955722223967, 36.766956464387476, 9.291781439911574, 0.01600000075995922, 0.04800000227987766, 1.008000047877431, 0.0, 0.0, 0.0, 0.0, 0.0, 1.6506669820238707E9, 0.0, 2022-04-22 17:36:22.023
79.0, 26.74215463316068, 16.34523275634274, 37.36908035725355, 20.485302007291466, 0.01600000075995922, 0.04800000227987766, 1.008000047877431, 0.0, 0.0, 0.0, 0.0, 0.0, 1.650666982024602E9, 0.0, 2022-04-22 17:36:22.024
79.0, 14.69967677583918, 6.946864167694002, 26.98711808025837, 12.317360504064709, 0.01600000075995922, 0.04800000227987766, 1.008000047877431, 0.0, 0.0, 0.0, 0.0, 0.0, 1.650666982024602E9, 0.0, 2022-04-22 17:36:22.024
80.0, 27.834205420222133, 17.661677540745586, 31.03368983231485, -2.892812615726143, 0.01600000075995922, 0.04800000227987766, 1.008000047877431, 0.0, 0.0, 0.0, 0.0, 0.0, 1.650666982038199E9, 0.0, 2022-04-22 17:36:22.038
80.0, 8.439084250014275, 5.952050779480487, 23.924140016548336, -17.418584043625742, 0.01600000075995922, 0.04800000227987766, 1.008000047877431, 0.0, 0.0, 0.0, 0.0, 0.0, 1.650666982038199E9, 0.0, 2022-04-22 17:36:22.038
81.0, 17.45972294313833, 17.56444014189765, 34.71375138871372, -3.453797609079629, 0.01600000075995922, 0.06400000303983688, 1.008000047877431, 0.0, 0.0, 0.0, 0.0, 0.0, 1.6506669820538812E9, 0.0, 2022-04-22 17:36:22.053
81.0, 31.678822574671358, 15.88522506179288, 45.19295106455684, 16.027341260109097, 0.01600000075995922, 0.06400000303983688, 1.008000047877431, 0.0, 0.0, 0.0, 0.0, 0.0, 1.6506669820538812E9, 0.0, 2022-04-22 17:36:22.053
82.0, 21.659630593378097, 15.586033065337688, 38.23673714697361, 19.1015390236862, 0.01600000075995922, 0.06400000303983688, 1.008000047877431, 0.0, 0.0, 0.0, 0.0, 0.0, 1.6506669820545733E9, 0.0, 2022-04-22 17:36:22.054
82.0, 41.27540586097166, 34.77171983802691, 42.7994150929153, 19.17259712284431, 0.01600000075995922, 0.06400000303983688, 1.008000047877431, 0.0, 0.0, 0.0, 0.0, 0.0, 1.6506669820545733E9, 0.0, 2022-04-22 17:36:22.054
83.0, 30.586771787609905, 30.164163092616946, 43.09112728945911, 7.04784146649763, 0.01600000075995922, 0.06400000303983688, 1.008000047877431, 0.0, 0.0, 0.0, 0.0, 0.0, 1.6506669820681489E9, 0.0, 2022-04-22 17:36:22.068
83.0, 22.905017278622836, 11.431004214566201, 36.22467097081244, 6.124086177442223, 0.01600000075995922, 0.06400000303983688, 1.008000047877431, 0.0, 0.0, 0.0, 0.0, 0.0, 1.6506669820681489E9, 0.0, 2022-04-22 17:36:22.068
84.0, 22.553466682787985, 11.954590208362788, 32.52217001467943, 7.799561357591301, 0.01600000075995922, 0.06400000303983688, 1.008000047877431, 0.0, 0.0, 0.0, 0.0, 0.0, 1.6506669820839047E9, 0.0, 2022-04-22 17:36:22.083
84.0, 33.12990375747904, 31.046779482159764, 43.47633698489517, 16.442470155190676, 0.01600000075995922, 0.06400000303983688, 1.008000047877431, 0.0, 0.0, 0.0, 0.0, 0.0, 1.6506669820839047E9, 0.0, 2022-04-22 17:36:22.083
85.0, 26.214828739408404, 22.998514777515084, 41.83826080430299, 18.117945335339755, 0.01600000075995922, 0.06400000303983688, 1.008000047877431, 0.0, 0.0, 0.0, 0.0, 0.0, 1.6506669820846634E9, 0.0, 2022-04-22 17:36:22.084
85.0, 12.459476702380925, 7.261015763971955, 33.67031930107623, 1.1911581358872354, 0.01600000075995922, 0.06400000303983688, 1.008000047877431, 0.0, 0.0, 0.0, 0.0, 0.0, 1.6506669820846634E9, 0.0, 2022-04-22 17:36:22.084
86.0, 22.467448983807117, 25.721161945257336, 43.711950682103634, 0.9106656392104924, 0.01600000075995922, 0.06400000303983688, 1.008000047877431, 0.0, 0.0, 0.0, 0.0, 0.0, 1.6506669820981808E9, 0.0, 2022-04-22 17:36:22.098
86.0, 21.18466329900548, 19.632604817394167, 35.02416308503598, -4.979676791001111, 0.01600000075995922, 0.06400000303983688, 1.008000047877431, 0.0, 0.0, 0.0, 0.0, 0.0, 1.6506669820981808E9, 0.0, 2022-04-22 17:36:22.098
87.0, 15.806687162723392, 19.322193121071905, 38.22177754715085, -5.649118883069605, 0.01600000075995922, 0.06400000303983688, 1.008000047877431, 0.0, 0.0, 0.0, 0.0, 0.0, 1.6506669821138723E9, 0.0, 2022-04-22 17:36:22.113
87.0, 16.827679850626737, 14.845532874111086, 41.47549050860107, 7.930457856040448, 0.01600000075995922, 0.06400000303983688, 1.008000047877431, 0.0, 0.0, 0.0, 0.0, 0.0, 1.6506669821138723E9, 0.0, 2022-04-22 17:36:22.113
88.0, 21.09116580011323, 12.893305097240955, 35.73848397657275, 21.4726355955936, 0.01600000075995922, 0.06400000303983688, 1.008000047877431, 0.0, 0.0, 0.0, 0.0, 0.0, 1.6506669821146085E9, 0.0, 2022-04-22 17:36:22.114
88.0, 19.408210820052773, 2.2383301234804094, 31.246864129789174, 4.1643786006607115, 0.01600000075995922, 0.06400000303983688, 1.008000047877431, 0.0, 0.0, 0.0, 0.0, 0.0, 1.6506669821146085E9, 0.0, 2022-04-22 17:36:22.114
89.0, 20.25716810999438, 15.163424370344728, 28.322262364439666, 11.546941113192588, 0.01600000075995922, 0.06400000303983688, 1.008000047877431, 0.0, 0.0, 0.0, 0.0, 0.0, 1.650666982128281E9, 0.0, 2022-04-22 17:36:22.128
89.0, 15.91888416139409, 4.549588296096772, 24.040076915174723, 12.388418603222817, 0.01600000075995922, 0.06400000303983688, 1.008000047877431, 0.0, 0.0, 0.0, 0.0, 0.0, 1.650666982128281E9, 0.0, 2022-04-22 17:36:22.128
90.0, 21.360438596922904, 16.057260459754616, 39.695298129692674, 5.005856090690941, 0.01600000075995922, 0.06400000303983688, 1.008000047877431, 0.0, 0.0, 0.0, 0.0, 0.0, 1.6506669821439211E9, 0.0, 2022-04-22 17:36:22.143
90.0, 17.728995739948004, 10.342693327460438, 37.94128505047411, -7.735983058344573, 0.01600000075995922, 0.06400000303983688, 1.008000047877431, 0.0, 0.0, 0.0, 0.0, 0.0, 1.6506669821439211E9, 0.0, 2022-04-22 17:36:22.143
91.0, 24.576752558816224, 18.222662534099072, 27.72761827148497, 16.569626753684133, 0.01600000075995922, 0.06400000303983688, 1.008000047877431, 0.0, 0.0, 0.0, 0.0, 0.0, 1.6506669821446257E9, 0.0, 2022-04-22 17:36:22.144
91.0, 24.932043054606766, 22.856398579198867, 30.861654434353113, -1.206117735709995, 0.01600000075995922, 0.06400000303983688, 1.008000047877431, 0.0, 0.0, 0.0, 0.0, 0.0, 1.6506669821446257E9, 0.0, 2022-04-22 17:36:22.144
92.0, 14.636098476592451, 19.49796841898933, 30.461485139094293, -6.8234474691562355, 0.01600000075995922, 0.06400000303983688, 1.008000047877431, 0.0, 0.0, 0.0, 0.0, 0.0, 1.6506669821582143E9, 0.0, 2022-04-22 17:36:22.158
92.0, 29.004794106353074, 20.30578680941835, 36.19849167112261, 21.682069993112236, 0.01600000075995922, 0.06400000303983688, 1.008000047877431, 0.0, 0.0, 0.0, 0.0, 0.0, 1.6506669821582143E9, 0.0, 2022-04-22 17:36:22.158
93.0, 25.20131585141644, 24.247641362715513, 39.239030335098505, 14.905371273402125, 0.01600000075995922, 0.06400000303983688, 1.008000047877431, 0.0, 0.0, 0.0, 0.0, 0.0, 1.6506669821739163E9, 0.0, 2022-04-22 17:36:22.173
93.0, 28.7355213095434, 24.445856060367078, 35.42059248033911, 17.90477103786543, 0.01600000075995922, 0.06400000303983688, 1.008000047877431, 0.0, 0.0, 0.0, 0.0, 0.0, 1.6506669821739163E9, 0.0, 2022-04-22 17:36:22.173
94.0, 26.528980335686356, 20.66481720516458, 37.41769905667752, 11.823693709913641, 0.01600000075995922, 0.06400000303983688, 1.008000047877431, 0.0, 0.0, 0.0, 0.0, 0.0, 1.650666982174612E9, 0.0, 2022-04-22 17:36:22.174
94.0, 21.15100419940427, 16.592066153418273, 31.658253124915063, 13.962916484568268, 0.01600000075995922, 0.06400000303983688, 1.008000047877431, 0.0, 0.0, 0.0, 0.0, 0.0, 1.650666982174612E9, 0.0, 2022-04-22 17:36:22.174
95.0, 18.72380912816152, 28.559746011625975, 32.11452091950923, 6.441977673675865, 0.01600000075995922, 0.06400000303983688, 1.008000047877431, 0.0, 0.0, 0.0, 0.0, 0.0, 1.650666982188171E9, 0.0, 2022-04-22 17:36:22.188
95.0, 27.22460172744468, 23.89235086692497, 24.847895305603743, 10.881238921079785, 0.01600000075995922, 0.06400000303983688, 1.008000047877431, 0.0, 0.0, 0.0, 0.0, 0.0, 1.650666982188171E9, 0.0, 2022-04-22 17:36:22.188
96.0, 24.019507465418428, 25.878237743396312, 30.92523273359984, 20.189849910791963, 0.01600000075995922, 0.06400000303983688, 1.008000047877431, 0.0, 0.0, 0.0, 0.0, 0.0, 1.650666982203858E9, 0.0, 2022-04-22 17:36:22.203
96.0, 28.32413231441751, 33.27949975570664, 34.48187759146094, -0.16268564807251096, 0.01600000075995922, 0.06400000303983688, 1.008000047877431, 0.0, 0.0, 0.0, 0.0, 0.0, 1.650666982203858E9, 0.0, 2022-04-22 17:36:22.203
97.0, 31.738660973962396, 36.70898801507428, 30.58490183763206, 10.084640230517834, 0.01600000075995922, 0.06400000303983688, 1.008000047877431, 0.0, 0.0, 0.0, 0.0, 0.0, 1.6506669822046068E9, 0.0, 2022-04-22 17:36:22.204
97.0, 38.00299339974299, 44.49545972282067, 30.22961134184152, 12.141585206147283, 0.01600000075995922, 0.06400000303983688, 1.008000047877431, 0.0, 0.0, 0.0, 0.0, 0.0, 1.6506669822046068E9, 0.0, 2022-04-22 17:36:22.204
98.0, 28.686902610119432, 37.98055400000885, 32.806402411311865, 18.75372832780704, 0.01600000075995922, 0.06400000303983688, 1.008000047877431, 0.0, 0.0, 0.0, 0.0, 0.0, 1.6506669822181804E9, 0.0, 2022-04-22 17:36:22.218
98.0, 34.199515144806355, 35.590757928323, 30.816775634884834, 15.129765270743519, 0.01600000075995922, 0.06400000303983688, 1.008000047877431, 0.0, 0.0, 0.0, 0.0, 0.0, 1.6506669822181804E9, 0.0, 2022-04-22 17:36:22.218
99.0, 42.49835314648226, 51.522731739562005, 28.778530159033835, 17.594359341543168, 0.01600000075995922, 0.06400000303983688, 1.008000047877431, 0.0, 0.0, 0.0, 0.0, 0.0, 1.6506669822339E9, 0.0, 2022-04-22 17:36:22.233
99.0, 28.885117307770997, 26.061492841225117, 21.3810080466792, 10.443670626264066, 0.01600000075995922, 0.06400000303983688, 1.008000047877431, 0.0, 0.0, 0.0, 0.0, 0.0, 1.6506669822339E9, 0.0, 2022-04-22 17:36:22.233
100.0, 27.262000727001578, 45.40051551209763, 38.6107271425426, 3.5996537073515356, 0.01600000075995922, 0.06400000303983688, 1.008000047877431, 0.0, 0.0, 0.0, 0.0, 0.0, 1.6506669822346387E9, 0.0, 2022-04-22 17:36:22.234
100.0, 31.60028467560187, 44.45058092335239, 31.935005721636117, -8.917791444342583, 0.01600000075995922, 0.06400000303983688, 1.008000047877431, 0.0, 0.0, 0.0, 0.0, 0.0, 1.6506669822346387E9, 0.0, 2022-04-22 17:36:22.234
0.0, 31.998584020882845, 40.83783756615594, 36.54817231697962, 8.949580593965948, 0.01600000075995922, 0.06400000303983688, 1.008000047877431, 0.0, 0.0, 0.0, 0.0, 0.0, 1.650666982248934E9, 0.0, 2022-04-22 17:36:22.248
1.0, 37.76550975255668, 38.72479409119114, 41.53345895791426, 28.326002264395356, 0.01600000075995922, 0.06400000303983688, 1.008000047877431, 0.0, 0.0, 0.0, 0.0, 0.0, 1.650666982249592E9, 0.0, 2022-04-22 17:36:22.249
1.0, 35.562708678655326, 38.09649089863524, 41.52971905795857, 25.502377797849476, 0.01600000075995922, 0.06400000303983688, 1.008000047877431, 0.0, 0.0, 0.0, 0.0, 0.0, 1.650666982249592E9, 0.0, 2022-04-22 17:36:22.249
2.0, 25.603355096653104, 43.422108435537666, 32.236067668069154, 20.90978065226227, 0.01600000075995922, 0.06400000303983688, 1.008000047877431, 0.0, 0.0, 0.0, 0.0, 0.0, 1.650666982263153E9, 0.0, 2022-04-22 17:36:22.263
2.0, 41.39695260953158, 58.789357353467494, 36.80248551396653, 25.32286259997636, 0.01600000075995922, 0.06400000303983688, 1.008000047877431, 0.0, 0.0, 0.0, 0.0, 0.0, 1.650666982263153E9, 0.0, 2022-04-22 17:36:22.263
3.0, 31.37776062823832, 40.88271636562422, 43.39218923589215, 26.867441281676292, 0.01600000075995922, 0.06400000303983688, 1.008000047877431, 0.0, 0.0, 0.0, 0.0, 0.0, 1.650666982278849E9, 0.0, 2022-04-22 17:36:22.278
3.0, 35.73848397657275, 31.364670978393406, 40.8527971659787, 25.37522119935602, 0.01600000075995922, 0.06400000303983688, 1.008000047877431, 0.0, 0.0, 0.0, 0.0, 0.0, 1.650666982278849E9, 0.0, 2022-04-22 17:36:22.278
4.0, 24.92643320467323, 28.047379717696458, 32.74095416208729, -21.953212739899755, 0.01600000075995922, 0.06400000303983688, 1.008000047877431, 0.0, 0.0, 0.0, 0.0, 0.0, 1.6506669822795715E9, 0.0, 2022-04-22 17:36:22.279
4.0, 34.26870329398662, 48.53829157492146, 37.079238110687584, 11.975159658119082, 0.01600000075995922, 0.06400000303983688, 1.008000047877431, 0.0, 0.0, 0.0, 0.0, 0.0, 1.6506669822795715E9, 0.0, 2022-04-22 17:36:22.279
5.0, 22.057929938659072, 33.94520194781944, 31.92939587170258, 8.717706796713173, 0.01600000075995922, 0.06400000303983688, 1.008000047877431, 0.0, 0.0, 0.0, 0.0, 0.0, 1.6506669822932372E9, 0.0, 2022-04-22 17:36:22.293
5.0, 26.97215848043561, 37.370950307231396, 37.32981140771881, 20.55075025651604, 0.01600000075995922, 0.06400000303983688, 1.008000047877431, 0.0, 0.0, 0.0, 0.0, 0.0, 1.6506669822932372E9, 0.0, 2022-04-22 17:36:22.293
6.0, 32.3127356171608, 40.673281968105584, 36.45841471804306, 37.0923277605325, 0.01600000075995922, 0.06400000303983688, 1.008000047877431, 0.0, 0.0, 0.0, 0.0, 0.0, 1.650666982308823E9, 0.0, 2022-04-22 17:36:22.308
6.0, 27.667779872193933, 26.484101536218077, 33.95642164768651, 21.938253140076995, 0.01600000075995922, 0.06400000303983688, 1.008000047877431, 0.0, 0.0, 0.0, 0.0, 0.0, 1.650666982308823E9, 0.0, 2022-04-22 17:36:22.308
7.0, 33.973251197487116, 34.42390914214775, 44.38326272414997, 27.447125774808228, 0.01600000075995922, 0.06400000303983688, 1.008000047877431, 0.0, 0.0, 0.0, 0.0, 0.0, 1.6506669823095565E9, 0.0, 2022-04-22 17:36:22.309
7.0, 33.12055400758982, 32.976567859295756, 38.11893029836938, 18.377868382260203, 0.01600000075995922, 0.06400000303983688, 1.008000047877431, 0.0, 0.0, 0.0, 0.0, 0.0, 1.6506669823095565E9, 0.0, 2022-04-22 17:36:22.309
8.0, 28.15396686643362, 24.958222354296595, 29.850011496338993, 17.64484799094498, 0.01600000075995922, 0.06400000303983688, 1.008000047877431, 0.0, 0.0, 0.0, 0.0, 0.0, 1.650666982323164E9, 0.0, 2022-04-22 17:36:22.323
8.0, 31.220684830099344, 30.280099991243333, 38.82203149003908, 18.822916476987302, 0.01600000075995922, 0.06400000303983688, 1.008000047877431, 0.0, 0.0, 0.0, 0.0, 0.0, 1.650666982323164E9, 0.0, 2022-04-22 17:36:22.323
9.0, 21.833535941317677, 32.75591376191005, 36.652889515738934, -14.90350132342428, 0.01600000075995922, 0.06400000303983688, 1.008000047877431, 0.0, 0.0, 0.0, 0.0, 0.0, 1.650666982338893E9, 0.0, 2022-04-22 17:36:22.338
9.0, 22.461839133873582, 28.989834506530315, 33.69836855074391, 9.701300485059619, 0.01600000075995922, 0.06400000303983688, 1.008000047877431, 0.0, 0.0, 0.0, 0.0, 0.0, 1.650666982338893E9, 0.0, 2022-04-22 17:36:22.338
10.0, 29.107641355134547, 28.33161211432889, 44.95920731732622, 41.04540201369673, 0.01600000075995922, 0.06400000303983688, 1.0240000486373901, 0.0, 0.0, 0.0, 0.0, 0.0, 1.650666982339559E9, 0.0, 2022-04-22 17:36:22.339
10.0, 33.49454400315881, 36.45467481808737, 39.5176528817974, 28.445679062977433, 0.01600000075995922, 0.06400000303983688, 1.0240000486373901, 0.0, 0.0, 0.0, 0.0, 0.0, 1.650666982339559E9, 0.0, 2022-04-22 17:36:22.339
11.0, 36.867933763191104, 41.56337815755978, 33.7021084506996, 26.19051938969642, 0.01600000075995922, 0.04800000227987766, 1.0240000486373901, 0.0, 0.0, 0.0, 0.0, 0.0, 1.650666982353164E9, 0.0, 2022-04-22 17:36:22.353
11.0, 31.32166212890297, 39.16236238600686, 43.28747203713283, 15.127895320765674, 0.01600000075995922, 0.04800000227987766, 1.0240000486373901, 0.0, 0.0, 0.0, 0.0, 0.0, 1.650666982353164E9, 0.0, 2022-04-22 17:36:22.353
12.0, 15.142854920588434, 17.392404743935913, 25.683762945700437, -8.295098101720214, 0.01600000075995922, 0.04800000227987766, 1.0240000486373901, 0.0, 0.0, 0.0, 0.0, 0.0, 1.6506669823688977E9, 0.0, 2022-04-22 17:36:22.368
12.0, 27.843555170111358, 37.76737970253453, 32.39688336616382, 13.602016138844192, 0.01600000075995922, 0.04800000227987766, 1.0240000486373901, 0.0, 0.0, 0.0, 0.0, 0.0, 1.6506669823688977E9, 0.0, 2022-04-22 17:36:22.368
13.0, 18.785517477430403, 18.3610388324596, 23.290226974058896, 5.426594835706055, 0.01600000075995922, 0.04800000227987766, 1.0240000486373901, 0.0, 0.0, 0.0, 0.0, 0.0, 1.6506669823695517E9, 0.0, 2022-04-22 17:36:22.369
13.0, 28.2362446654588, 40.86027696589008, 36.03954592300579, 4.697314344346523, 0.01600000075995922, 0.04800000227987766, 1.0240000486373901, 0.0, 0.0, 0.0, 0.0, 0.0, 1.6506669823695517E9, 0.0, 2022-04-22 17:36:22.369
14.0, 26.60938818473369, 33.1074643577449, 29.18804920418188, -1.0209926879033446, 0.01600000075995922, 0.04800000227987766, 1.0240000486373901, 0.0, 0.0, 0.0, 0.0, 0.0, 1.6506669823832145E9, 0.0, 2022-04-22 17:36:22.383
14.0, 34.49309729132801, 31.013120382558554, 28.982354706618935, 22.92184682842344, 0.01600000075995922, 0.04800000227987766, 1.0240000486373901, 0.0, 0.0, 0.0, 0.0, 0.0, 1.6506669823832145E9, 0.0, 2022-04-22 17:36:22.383
15.0, 24.840415505692363, 27.10118502890691, 31.97801457112655, 15.363509017974138, 0.01600000075995922, 0.04800000227987766, 1.0240000486373901, 0.0, 0.0, 0.0, 0.0, 0.0, 1.6506669823989005E9, 0.0, 2022-04-22 17:36:22.398
15.0, 23.28087722416967, 16.184417058248073, 31.387110378127545, 14.581869927234948, 0.01600000075995922, 0.04800000227987766, 1.0240000486373901, 0.0, 0.0, 0.0, 0.0, 0.0, 1.6506669823989005E9, 0.0, 2022-04-22 17:36:22.398
16.0, 34.010650197044015, 24.75252785673365, 28.82901880843565, 19.67935356684029, 0.01600000075995922, 0.04800000227987766, 1.0240000486373901, 0.0, 0.0, 0.0, 0.0, 0.0, 1.6506669823995523E9, 0.0, 2022-04-22 17:36:22.399
16.0, 31.493697526864707, 33.361777554731816, 27.56493262341246, 15.131635220721364, 0.01600000075995922, 0.04800000227987766, 1.0240000486373901, 0.0, 0.0, 0.0, 0.0, 0.0, 1.6506669823995523E9, 0.0, 2022-04-22 17:36:22.399
17.0, 19.6756136668846, 24.614151558373123, 21.637191193643957, -3.0330588640645146, 0.01600000075995922, 0.04800000227987766, 1.0240000486373901, 0.0, 0.0, 0.0, 0.0, 0.0, 1.6506669824131784E9, 0.0, 2022-04-22 17:36:22.413
17.0, 24.829195805825293, 30.04074639407918, 22.860138479154557, 10.408141576685011, 0.01600000075995922, 0.04800000227987766, 1.0240000486373901, 0.0, 0.0, 0.0, 0.0, 0.0, 1.6506669824131784E9, 0.0, 2022-04-22 17:36:22.413
18.0, 24.4926048098132, 35.774013026151806, 31.028079982381314, 17.061423597857356, 0.01600000075995922, 0.04800000227987766, 1.0240000486373901, 0.0, 0.0, 0.0, 0.0, 0.0, 1.6506669824288304E9, 0.0, 2022-04-22 17:36:22.428
18.0, 16.94922659918666, 28.507387412246317, 32.168749468866736, 12.618422450497746, 0.01600000075995922, 0.04800000227987766, 1.0240000486373901, 0.0, 0.0, 0.0, 0.0, 0.0, 1.6506669824288304E9, 0.0, 2022-04-22 17:36:22.428
19.0, 25.42383989877999, 33.54503265256062, 29.756513997446746, -8.171681403182447, 0.01600000075995922, 0.04800000227987766, 1.0240000486373901, 0.0, 0.0, 0.0, 0.0, 0.0, 1.6506669824295387E9, 0.0, 2022-04-22 17:36:22.429
19.0, 19.914967264048755, 19.9168372140266, 23.697876069229096, 6.518645622767508, 0.01600000075995922, 0.04800000227987766, 1.0240000486373901, 0.0, 0.0, 0.0, 0.0, 0.0, 1.6506669824295387E9, 0.0, 2022-04-22 17:36:22.429
20.0, 28.9393458571285, 32.75591376191005, 29.21048860391602, 20.50213155709207, 0.01600000075995922, 0.04800000227987766, 1.0240000486373901, 0.0, 0.0, 0.0, 0.0, 0.0, 1.650666982443132E9, 0.0, 2022-04-22 17:36:22.443
20.0, 22.87696802895516, 31.360931078437716, 31.503047276753932, 16.332143106497824, 0.01600000075995922, 0.04800000227987766, 1.0240000486373901, 0.0, 0.0, 0.0, 0.0, 0.0, 1.650666982443132E9, 0.0, 2022-04-22 17:36:22.443
21.0, 18.55738358013332, 22.104678688105196, 26.876791031565517, -0.1047171987593174, 0.01600000075995922, 0.06400000303983688, 1.0240000486373901, 0.0, 0.0, 0.0, 0.0, 0.0, 1.6506669824752452E9, 0.0, 2022-04-22 17:36:22.475
21.0, 19.432520169764757, 24.41219696076587, 29.24040780356154, 4.959107341244817, 0.01600000075995922, 0.06400000303983688, 1.0240000486373901, 0.0, 0.0, 0.0, 0.0, 0.0, 1.6506669824752452E9, 0.0, 2022-04-22 17:36:22.475
22.0, 23.082662526518106, 22.602085382211953, 23.56697957077995, 15.913274311460555, 0.01600000075995922, 0.06400000303983688, 1.0240000486373901, 0.0, 0.0, 0.0, 0.0, 0.0, 1.6506669824760036E9, 0.0, 2022-04-22 17:36:22.476
22.0, 17.970219287090003, 8.865432844962925, 34.618383939843625, 11.459053464233875, 0.01600000075995922, 0.06400000303983688, 1.0240000486373901, 0.0, 0.0, 0.0, 0.0, 0.0, 1.6506669824760036E9, 0.0, 2022-04-22 17:36:22.476
23.0, 27.922093069180846, 20.578799506183714, 39.18854168569669, 17.37183529417962, 0.01600000075995922, 0.06400000303983688, 1.0240000486373901, 0.0, 0.0, 0.0, 0.0, 0.0, 1.6506669824767303E9, 0.0, 2022-04-22 17:36:22.476
23.0, 19.152027673088014, 13.51786838984117, 35.22424773266539, -1.0658714873716235, 0.01600000075995922, 0.06400000303983688, 1.0240000486373901, 0.0, 0.0, 0.0, 0.0, 0.0, 1.6506669824767303E9, 0.0, 2022-04-22 17:36:22.476
24.0, 12.951273546554148, 4.497229696717113, 26.671096534002572, 1.451081182807684, 0.01600000075995922, 0.06400000303983688, 1.0240000486373901, 0.0, 0.0, 0.0, 0.0, 0.0, 1.6506669824774632E9, 0.0, 2022-04-22 17:36:22.477
24.0, 22.92184682842344, 15.780507863033563, 42.96958054089919, 10.572697174735367, 0.01600000075995922, 0.06400000303983688, 1.0240000486373901, 0.0, 0.0, 0.0, 0.0, 0.0, 1.6506669824774632E9, 0.0, 2022-04-22 17:36:22.477
25.0, 26.53833008557558, 10.29781452799216, 51.84436313575134, 15.7113197138533, 0.01600000075995922, 0.06400000303983688, 1.0240000486373901, 0.0, 0.0, 0.0, 0.0, 0.0, 1.6506669824881325E9, 0.0, 2022-04-22 17:36:22.488
25.0, 31.923786021769047, 21.790527091827244, 60.363855234812945, 18.007618286646903, 0.01600000075995922, 0.06400000303983688, 1.0240000486373901, 0.0, 0.0, 0.0, 0.0, 0.0, 1.6506669824881325E9, 0.0, 2022-04-22 17:36:22.488
26.0, 22.48427853360772, 13.820800286252052, 61.26143122417852, 8.235259702429175, 0.01600000075995922, 0.06400000303983688, 1.0240000486373901, 0.0, 0.0, 0.0, 0.0, 0.0, 1.6506669825032022E9, 0.0, 2022-04-22 17:36:22.503
26.0, 26.695405883714557, 12.29492110433057, 73.46846467955038, 16.814590200781822, 0.01600000075995922, 0.06400000303983688, 1.0240000486373901, 0.0, 0.0, 0.0, 0.0, 0.0, 1.6506669825032022E9, 0.0, 2022-04-22 17:36:22.503
27.0, 21.79613694176078, 4.785201993305236, 79.93475170293823, 11.889141959138215, 0.01600000075995922, 0.06400000303983688, 1.0240000486373901, 0.0, 0.0, 0.0, 0.0, 0.0, 1.650666982518868E9, 0.0, 2022-04-22 17:36:22.518
27.0, 23.935359716415405, 4.321454398799688, 79.04091561352834, 12.648341650143266, 0.01600000075995922, 0.06400000303983688, 1.0240000486373901, 0.0, 0.0, 0.0, 0.0, 0.0, 1.650666982518868E9, 0.0, 2022-04-22 17:36:22.518
28.0, 26.377514387480915, 7.03662176663056, 84.24685635184869, 13.130788744427264, 0.01600000075995922, 0.06400000303983688, 1.0240000486373901, 0.0, 0.0, 0.0, 0.0, 0.0, 1.6506669825196023E9, 0.0, 2022-04-22 17:36:22.519
28.0, 18.598522479645908, -0.925625239033252, 77.97504412615672, 13.785271236672997, 0.01600000075995922, 0.06400000303983688, 1.0240000486373901, 0.0, 0.0, 0.0, 0.0, 0.0, 1.6506669825196023E9, 0.0, 2022-04-22 17:36:22.519
29.0, 20.16180066112429, -1.2360369353555143, 67.42852625111118, 4.8095113430172205, 0.01600000075995922, 0.06400000303983688, 1.0240000486373901, 0.0, 0.0, 0.0, 0.0, 0.0, 1.6506669825331094E9, 0.0, 2022-04-22 17:36:22.533
29.0, 18.96129277534783, -5.667818382848054, 68.13910724269226, 10.408141576685011, 0.01600000075995922, 0.06400000303983688, 1.0240000486373901, 0.0, 0.0, 0.0, 0.0, 0.0, 1.6506669825331094E9, 0.0, 2022-04-22 17:36:22.533
30.0, 20.210419360548258, -6.909465168137103, 63.93171979254112, 23.112581726163626, 0.01600000075995922, 0.06400000303983688, 1.008000047877431, 0.0, 0.0, 0.0, 0.0, 0.0, 1.6506669825485537E9, 0.0, 2022-04-22 17:36:22.548
30.0, 12.10605615656823, -15.413997667375952, 64.30570978811011, 1.047171987593174, 0.01600000075995922, 0.06400000303983688, 1.008000047877431, 0.0, 0.0, 0.0, 0.0, 0.0, 1.6506669825485537E9, 0.0, 2022-04-22 17:36:22.548
31.0, 12.711919949389994, -7.201177364680916, 70.6074412134476, 13.30656404234469, 0.01600000075995922, 0.06400000303983688, 1.008000047877431, 0.0, 0.0, 0.0, 0.0, 0.0, 1.650666982563924E9, 0.0, 2022-04-22 17:36:22.563
31.0, 24.61602150835097, 8.809334345627576, 73.22163128247485, 29.32829545252025, 0.01600000075995922, 0.06400000303983688, 1.008000047877431, 0.0, 0.0, 0.0, 0.0, 0.0, 1.650666982563924E9, 0.0, 2022-04-22 17:36:22.563
32.0, 19.391381270252168, -6.913205068092793, 67.65666014840826, 20.371235058642924, 0.01600000075995922, 0.06400000303983688, 1.008000047877431, 0.0, 0.0, 0.0, 0.0, 0.0, 1.6506669825646772E9, 0.0, 2022-04-22 17:36:22.564
32.0, 5.823024231009185, -16.30409385683015, 63.77464399440214, -6.511165822856128, 0.01600000075995922, 0.06400000303983688, 1.008000047877431, 0.0, 0.0, 0.0, 0.0, 0.0, 1.6506669825646772E9, 0.0, 2022-04-22 17:36:22.564
33.0, 12.805417448282242, -14.220969581510872, 66.88624075753614, 8.325017301365733, 0.01600000075995922, 0.06400000303983688, 1.008000047877431, 0.0, 0.0, 0.0, 0.0, 0.0, 1.6506669825789022E9, 0.0, 2022-04-22 17:36:22.578
33.0, 12.394028453156352, -14.789434374775738, 58.66594065492973, 7.0646710162982345, 0.01600000075995922, 0.06400000303983688, 1.008000047877431, 0.0, 0.0, 0.0, 0.0, 0.0, 1.6506669825789022E9, 0.0, 2022-04-22 17:36:22.578
34.0, 16.575236603617668, 0.1888649477623403, 63.11268170224503, 3.175175062380731, 0.01600000075995922, 0.06400000303983688, 1.008000047877431, 0.0, 0.0, 0.0, 0.0, 0.0, 1.6506669825796244E9, 0.0, 2022-04-22 17:36:22.579
34.0, 10.232366278767586, -9.03372834296897, 46.58232389809564, 20.775144253857434, 0.01600000075995922, 0.06400000303983688, 1.008000047877431, 0.0, 0.0, 0.0, 0.0, 0.0, 1.6506669825796244E9, 0.0, 2022-04-22 17:36:22.579
35.0, 6.241893026046455, -22.183216587174684, 37.33729120763019, 6.8552366187796, 0.01600000075995922, 0.06400000303983688, 1.008000047877431, 0.0, 0.0, 0.0, 0.0, 0.0, 1.6506669825931728E9, 0.0, 2022-04-22 17:36:22.593
35.0, 12.371589053422213, -24.2887802622281, 51.133782144170254, 11.193520567379892, 0.01600000075995922, 0.06400000303983688, 1.008000047877431, 0.0, 0.0, 0.0, 0.0, 0.0, 1.6506669825931728E9, 0.0, 2022-04-22 17:36:22.593
36.0, 20.722785654477775, 1.0565217374823987, 66.10460166679695, 10.411881476640701, 0.01600000075995922, 0.06400000303983688, 1.008000047877431, 0.0, 0.0, 0.0, 0.0, 0.0, 1.6506669826089196E9, 0.0, 2022-04-22 17:36:22.608
36.0, 23.022824127227068, 3.9325048034079373, 58.13487486122176, 20.49465175718069, 0.01600000075995922, 0.06400000303983688, 1.008000047877431, 0.0, 0.0, 0.0, 0.0, 0.0, 1.6506669826089196E9, 0.0, 2022-04-22 17:36:22.608
37.0, 18.50876488070935, 1.5539284315891564, 56.766071477439255, 15.823516712523997, 0.01600000075995922, 0.06400000303983688, 1.008000047877431, 0.0, 0.0, 0.0, 0.0, 0.0, 1.650666982609588E9, 0.0, 2022-04-22 17:36:22.609
37.0, 19.103408973664045, -3.01248941430822, 54.376275405753404, -1.8288110783323646, 0.01600000075995922, 0.06400000303983688, 1.008000047877431, 0.0, 0.0, 0.0, 0.0, 0.0, 1.650666982609588E9, 0.0, 2022-04-22 17:36:22.609
38.0, 26.57198918517679, 7.46297036157921, 54.08830310916528, 10.583916874602437, 0.01600000075995922, 0.06400000303983688, 1.008000047877431, 0.0, 0.0, 0.0, 0.0, 0.0, 1.6506669826231396E9, 0.0, 2022-04-22 17:36:22.623
38.0, 11.68344746157527, 0.5815544431097806, 49.30871096579358, 1.006033088080585, 0.01600000075995922, 0.06400000303983688, 1.008000047877431, 0.0, 0.0, 0.0, 0.0, 0.0, 1.6506669826231396E9, 0.0, 2022-04-22 17:36:22.623
39.0, 22.865748329088092, 7.253535964060575, 63.77090409444645, 13.904948035255075, 0.01600000075995922, 0.06400000303983688, 1.008000047877431, 0.0, 0.0, 0.0, 0.0, 0.0, 1.6506669826552203E9, 0.0, 2022-04-22 17:36:22.655
39.0, 21.990611739456654, 0.723670641425997, 56.45565978111699, 7.509719111025333, 0.01600000075995922, 0.06400000303983688, 1.008000047877431, 0.0, 0.0, 0.0, 0.0, 0.0, 1.6506669826552203E9, 0.0, 2022-04-22 17:36:22.655
40.0, 29.459191950969398, 22.635744481813163, 63.224878700915724, 15.210173119790852, 0.01600000075995922, 0.06400000303983688, 1.008000047877431, 0.0, 0.0, 0.0, 0.0, 0.0, 1.6506669826559327E9, 0.0, 2022-04-22 17:36:22.655
40.0, 26.10076179075986, 10.997175819706172, 50.93556744651869, 27.00581758003682, 0.01600000075995922, 0.06400000303983688, 1.008000047877431, 0.0, 0.0, 0.0, 0.0, 0.0, 1.6506669826559327E9, 0.0, 2022-04-22 17:36:22.655
41.0, 20.599368955940008, -4.908618691843003, 47.18444779096171, 13.560877239331603, 0.01600000075995922, 0.04800000227987766, 1.008000047877431, 0.0, 0.0, 0.0, 0.0, 0.0, 1.650666982656684E9, 0.0, 2022-04-22 17:36:22.656
41.0, 24.821716005913913, 9.224463240709156, 61.171673625241965, 22.798430129885674, 0.01600000075995922, 0.04800000227987766, 1.008000047877431, 0.0, 0.0, 0.0, 0.0, 0.0, 1.650666982656684E9, 0.0, 2022-04-22 17:36:22.656
42.0, 33.603001101873815, 27.98754131840542, 63.12016150215641, 25.188226201571524, 0.01600000075995922, 0.04800000227987766, 1.008000047877431, 0.0, 0.0, 0.0, 0.0, 0.0, 1.6506669826574411E9, 0.0, 2022-04-22 17:36:22.657
42.0, 28.16892646625638, 16.853859150316566, 54.91856089932844, 22.14020773768425, 0.01600000075995922, 0.04800000227987766, 1.008000047877431, 0.0, 0.0, 0.0, 0.0, 0.0, 1.6506669826574411E9, 0.0, 2022-04-22 17:36:22.657
43.0, 15.333589818328619, 9.85650633322075, 55.71889948984608, 2.8049249667674303, 0.01600000075995922, 0.04800000227987766, 1.008000047877431, 0.0, 0.0, 0.0, 0.0, 0.0, 1.6506669826681857E9, 0.0, 2022-04-22 17:36:22.668
43.0, 32.754043811932206, 24.023247365374118, 64.88165438128635, 18.837876076810062, 0.01600000075995922, 0.04800000227987766, 1.008000047877431, 0.0, 0.0, 0.0, 0.0, 0.0, 1.6506669826681857E9, 0.0, 2022-04-22 17:36:22.668
44.0, 27.570542473345995, 15.787987662944943, 55.32994989445433, 11.040184669196606, 0.01600000075995922, 0.04800000227987766, 1.008000047877431, 0.0, 0.0, 0.0, 0.0, 0.0, 1.6506669826832235E9, 0.0, 2022-04-22 17:36:22.683
44.0, 30.020176944322884, 9.183324341196567, 53.123408920597285, 19.103408973664045, 0.01600000075995922, 0.04800000227987766, 1.008000047877431, 0.0, 0.0, 0.0, 0.0, 0.0, 1.6506669826832235E9, 0.0, 2022-04-22 17:36:22.683
45.0, 24.058776414953172, 15.9151442614384, 46.89647549437359, 20.012204662896693, 0.01600000075995922, 0.04800000227987766, 1.008000047877431, 0.0, 0.0, 0.0, 0.0, 0.0, 1.6506669826989284E9, 0.0, 2022-04-22 17:36:22.698
45.0, 30.285709841176867, 30.710188486147672, 52.02387833362445, 14.260238531045616, 0.01600000075995922, 0.04800000227987766, 1.008000047877431, 0.0, 0.0, 0.0, 0.0, 0.0, 1.6506669826989284E9, 0.0, 2022-04-22 17:36:22.698
46.0, 28.864547858014703, 24.31121966196224, 55.07189679751173, 18.415267381817102, 0.01600000075995922, 0.04800000227987766, 1.008000047877431, 0.0, 0.0, 0.0, 0.0, 0.0, 1.650666982699612E9, 0.0, 2022-04-22 17:36:22.699
46.0, 40.839707516133785, 33.58243165211752, 62.86958820512518, 24.638460908085108, 0.01600000075995922, 0.04800000227987766, 1.008000047877431, 0.0, 0.0, 0.0, 0.0, 0.0, 1.650666982699612E9, 0.0, 2022-04-22 17:36:22.699
47.0, 25.177006501704454, 16.580846453551203, 58.85667555266991, 14.570650227367878, 0.01600000075995922, 0.04800000227987766, 1.008000047877431, 0.0, 0.0, 0.0, 0.0, 0.0, 1.6506669827132826E9, 0.0, 2022-04-22 17:36:22.713
47.0, 24.48138510994613, 23.372504773084074, 54.387495105620474, 15.180253920145333, 0.01600000075995922, 0.04800000227987766, 1.008000047877431, 0.0, 0.0, 0.0, 0.0, 0.0, 1.6506669827132826E9, 0.0, 2022-04-22 17:36:22.713
48.0, 22.233705236576498, 21.405317396391183, 50.06791065679863, 5.800584831275046, 0.01600000075995922, 0.04800000227987766, 1.008000047877431, 0.0, 0.0, 0.0, 0.0, 0.0, 1.6506669827288704E9, 0.0, 2022-04-22 17:36:22.728
48.0, 18.452666381374, 0.12154674855992198, 40.58352436916903, -11.64230856206268, 0.01600000075995922, 0.04800000227987766, 1.008000047877431, 0.0, 0.0, 0.0, 0.0, 0.0, 1.6506669827288704E9, 0.0, 2022-04-22 17:36:22.728
49.0, 18.351689082570374, 12.339799903798848, 51.5975297386758, 8.257699102163315, 0.01600000075995922, 0.04800000227987766, 1.008000047877431, 0.0, 0.0, 0.0, 0.0, 0.0, 1.650666982729586E9, 0.0, 2022-04-22 17:36:22.729
49.0, 24.803016506135464, 16.390111555811018, 49.58920346247032, 14.361215829849243, 0.01600000075995922, 0.04800000227987766, 1.008000047877431, 0.0, 0.0, 0.0, 0.0, 0.0, 1.650666982729586E9, 0.0, 2022-04-22 17:36:22.729
50.0, 26.10450169071555, 15.52245476609096, 50.1165293562226, 13.583316639065742, 0.01600000075995922, 0.04800000227987766, 1.008000047877431, 0.0, 0.0, 0.0, 0.0, 0.0, 1.6506669827432332E9, 0.0, 2022-04-22 17:36:22.743
50.0, 38.18811844754964, 28.114697916898876, 56.91940737562254, 30.18099264241755, 0.01600000075995922, 0.04800000227987766, 1.008000047877431, 0.0, 0.0, 0.0, 0.0, 0.0, 1.6506669827432332E9, 0.0, 2022-04-22 17:36:22.743
51.0, 21.257591348141432, 9.508695637341589, 50.01181215746328, 18.04127738624811, 0.01600000075995922, 0.04800000227987766, 1.008000047877431, 0.0, 0.0, 0.0, 0.0, 0.0, 1.650666982758902E9, 0.0, 2022-04-22 17:36:22.758
51.0, 25.35278179962188, 12.523055001627654, 61.564363120589405, 17.125001897104084, 0.01600000075995922, 0.04800000227987766, 1.008000047877431, 0.0, 0.0, 0.0, 0.0, 0.0, 1.650666982758902E9, 0.0, 2022-04-22 17:36:22.758
52.0, 34.72497108858079, 19.804640215355903, 59.608395443763584, 17.192320096306503, 0.01600000075995922, 0.04800000227987766, 1.008000047877431, 0.0, 0.0, 0.0, 0.0, 0.0, 1.6506669827596612E9, 0.0, 2022-04-22 17:36:22.759
52.0, 29.40309345163405, 29.375044201966375, 53.3029241184704, 0.014959599822759628, 0.01600000075995922, 0.04800000227987766, 1.008000047877431, 0.0, 0.0, 0.0, 0.0, 0.0, 1.6506669827596612E9, 0.0, 2022-04-22 17:36:22.759
53.0, 19.425040369853377, 20.492781807202846, 53.05235082143918, 4.065271251834929, 0.01600000075995922, 0.04800000227987766, 1.008000047877431, 0.0, 0.0, 0.0, 0.0, 0.0, 1.6506669827732165E9, 0.0, 2022-04-22 17:36:22.773
53.0, 23.486571721732616, 8.24834935227409, 42.77510574320331, 29.911719845607877, 0.01600000075995922, 0.04800000227987766, 1.008000047877431, 0.0, 0.0, 0.0, 0.0, 0.0, 1.6506669827732165E9, 0.0, 2022-04-22 17:36:22.773
54.0, 32.63436701335013, 31.417029577773064, 61.77005761815235, 7.917368206195533, 0.01600000075995922, 0.04800000227987766, 1.008000047877431, 0.0, 0.0, 0.0, 0.0, 0.0, 1.65066698278886E9, 0.0, 2022-04-22 17:36:22.788
54.0, 39.17919193580747, 45.882962606381625, 53.28796451864764, 23.886741016991436, 0.01600000075995922, 0.04800000227987766, 1.008000047877431, 0.0, 0.0, 0.0, 0.0, 0.0, 1.65066698278886E9, 0.0, 2022-04-22 17:36:22.788
55.0, 25.71929199527949, 32.580138463992625, 45.97646010527387, 19.918707164004445, 0.01600000075995922, 0.04800000227987766, 1.008000047877431, 0.0, 0.0, 0.0, 0.0, 0.0, 1.6506669827896523E9, 0.0, 2022-04-22 17:36:22.789
55.0, 38.423732144758105, 48.87114267097786, 57.65990756684914, 15.240092319436371, 0.01600000075995922, 0.04800000227987766, 1.008000047877431, 0.0, 0.0, 0.0, 0.0, 0.0, 1.6506669827896523E9, 0.0, 2022-04-22 17:36:22.789
56.0, 36.22093107085675, 48.13064247975126, 66.23175826529041, 15.191473620012403, 0.01600000075995922, 0.04800000227987766, 1.008000047877431, 0.0, 0.0, 0.0, 0.0, 0.0, 1.6506669828031507E9, 0.0, 2022-04-22 17:36:22.803
56.0, 29.02536355610937, 33.21592145645991, 53.01121192192659, 12.423947652801871, 0.01600000075995922, 0.04800000227987766, 1.008000047877431, 0.0, 0.0, 0.0, 0.0, 0.0, 1.6506669828031507E9, 0.0, 2022-04-22 17:36:22.803
57.0, 35.55896877869964, 40.48628697032109, 58.07503646193072, 14.308857230469584, 0.01600000075995922, 0.04800000227987766, 1.008000047877431, 0.0, 0.0, 0.0, 0.0, 0.0, 1.6506669828188767E9, 0.0, 2022-04-22 17:36:22.818
57.0, 30.94767213333398, 26.76459403289482, 54.761485101189464, 5.033905340358615, 0.01600000075995922, 0.04800000227987766, 1.008000047877431, 0.0, 0.0, 0.0, 0.0, 0.0, 1.6506669828188767E9, 0.0, 2022-04-22 17:36:22.818
58.0, 32.24541741795838, 36.578091516625136, 44.42814152361825, 16.231165807694197, 0.01600000075995922, 0.04800000227987766, 1.008000047877431, 0.0, 0.0, 0.0, 0.0, 0.0, 1.6506669828195677E9, 0.0, 2022-04-22 17:36:22.819
58.0, 23.864301617257297, 33.32437855517492, 38.32088489597663, 8.201600602827966, 0.01600000075995922, 0.04800000227987766, 1.008000047877431, 0.0, 0.0, 0.0, 0.0, 0.0, 1.6506669828195677E9, 0.0, 2022-04-22 17:36:22.819
59.0, 33.11307420767844, 40.16465557413176, 48.06332428054884, 20.737745254300535, 0.01600000075995922, 0.04800000227987766, 1.008000047877431, 0.0, 0.0, 0.0, 0.0, 0.0, 1.6506669828331544E9, 0.0, 2022-04-22 17:36:22.833
59.0, 28.58779526129365, 22.011181189212948, 50.96548664616421, 17.562570191919804, 0.01600000075995922, 0.04800000227987766, 1.008000047877431, 0.0, 0.0, 0.0, 0.0, 0.0, 1.6506669828331544E9, 0.0, 2022-04-22 17:36:22.833
60.0, 34.51553669106215, 26.461662136483938, 51.76208533672616, 11.67596766166389, 0.01600000075995922, 0.04800000227987766, 1.0240000486373901, 0.0, 0.0, 0.0, 0.0, 0.0, 1.650666982848939E9, 0.0, 2022-04-22 17:36:22.848
60.0, 40.91824541520327, 34.992373935412616, 53.72927271341905, 15.535544415935874, 0.01600000075995922, 0.04800000227987766, 1.0240000486373901, 0.0, 0.0, 0.0, 0.0, 0.0, 1.650666982848939E9, 0.0, 2022-04-22 17:36:22.848
61.0, 29.82196224667132, 37.24379370873794, 50.92060784669593, 19.33528277091682, 0.01600000075995922, 0.04800000227987766, 1.0240000486373901, 0.0, 0.0, 0.0, 0.0, 0.0, 1.650666982849609E9, 0.0, 2022-04-22 17:36:22.849
61.0, 39.39610613323748, 24.898383955005556, 52.80551742436364, 12.8951750472188, 0.01600000075995922, 0.04800000227987766, 1.0240000486373901, 0.0, 0.0, 0.0, 0.0, 0.0, 1.650666982849609E9, 0.0, 2022-04-22 17:36:22.849
62.0, 15.071796821430326, 10.742862622719258, 38.47422079415992, -0.2505732970312238, 0.01600000075995922, 0.04800000227987766, 1.0240000486373901, 0.0, 0.0, 0.0, 0.0, 0.0, 1.6506669828632164E9, 0.0, 2022-04-22 17:36:22.863
62.0, 21.216452448628843, 19.015521324705333, 36.91842241259292, -4.0465717520564795, 0.01600000075995922, 0.04800000227987766, 1.0240000486373901, 0.0, 0.0, 0.0, 0.0, 0.0, 1.6506669828632164E9, 0.0, 2022-04-22 17:36:22.863
63.0, 43.33048088662326, 37.082978010643274, 39.495213482063264, 23.131281225942075, 0.01600000075995922, 0.04800000227987766, 1.0240000486373901, 0.0, 0.0, 0.0, 0.0, 0.0, 1.6506669828789191E9, 0.0, 2022-04-22 17:36:22.878
63.0, 21.36604844685644, 22.893797578755766, 45.69222770864144, 15.217652919702232, 0.01600000075995922, 0.04800000227987766, 1.0240000486373901, 0.0, 0.0, 0.0, 0.0, 0.0, 1.6506669828789191E9, 0.0, 2022-04-22 17:36:22.878
64.0, 26.123201190494, 32.68859556270763, 47.98852628143504, 15.931973811239004, 0.01600000075995922, 0.04800000227987766, 1.0240000486373901, 0.0, 0.0, 0.0, 0.0, 0.0, 1.6506669828796332E9, 0.0, 2022-04-22 17:36:22.879
64.0, 5.961400529369712, -3.8876260039396584, 29.786433197092265, 1.0658714873716235, 0.01600000075995922, 0.04800000227987766, 1.0240000486373901, 0.0, 0.0, 0.0, 0.0, 0.0, 1.6506669828796332E9, 0.0, 2022-04-22 17:36:22.879
65.0, 26.366294687613845, 27.273220426868647, 49.64156206184998, 18.654620978981256, 0.01600000075995922, 0.04800000227987766, 1.0240000486373901, 0.0, 0.0, 0.0, 0.0, 0.0, 1.6506669828931255E9, 0.0, 2022-04-22 17:36:22.893
65.0, 46.59167364798486, 53.30666401842609, 53.65073481434956, 40.469457420520484, 0.01600000075995922, 0.04800000227987766, 1.0240000486373901, 0.0, 0.0, 0.0, 0.0, 0.0, 1.6506669828931255E9, 0.0, 2022-04-22 17:36:22.893
66.0, 38.019822949543595, 40.96873406460509, 45.781985307578, 28.741131159476936, 0.01600000075995922, 0.04800000227987766, 1.0240000486373901, 0.0, 0.0, 0.0, 0.0, 0.0, 1.6506669829089308E9, 0.0, 2022-04-22 17:36:22.908
66.0, 30.439045739360154, 28.997314306441694, 45.94280100567266, 2.2813389729708433, 0.01600000075995922, 0.04800000227987766, 1.0240000486373901, 0.0, 0.0, 0.0, 0.0, 0.0, 1.6506669829089308E9, 0.0, 2022-04-22 17:36:22.908
67.0, 43.670811782591045, 29.853751396294683, 59.208226148504764, 9.798537883907557, 0.01600000075995922, 0.04800000227987766, 1.0240000486373901, 0.0, 0.0, 0.0, 0.0, 0.0, 1.6506669829095683E9, 0.0, 2022-04-22 17:36:22.909
67.0, 33.35242780484259, 36.55939201684669, 42.83494414249435, 10.905548270791769, 0.01600000075995922, 0.04800000227987766, 1.0240000486373901, 0.0, 0.0, 0.0, 0.0, 0.0, 1.6506669829095683E9, 0.0, 2022-04-22 17:36:22.909
68.0, 38.6481261420995, 27.460215424653143, 36.01710652327165, 18.792997277341783, 0.01600000075995922, 0.04800000227987766, 1.0240000486373901, 0.0, 0.0, 0.0, 0.0, 0.0, 1.650666982923199E9, 0.0, 2022-04-22 17:36:22.923
68.0, 29.35073485225439, 27.1797229279764, 44.02423232840374, 8.639168897643685, 0.01600000075995922, 0.04800000227987766, 1.0240000486373901, 0.0, 0.0, 0.0, 0.0, 0.0, 1.650666982923199E9, 0.0, 2022-04-22 17:36:22.923
69.0, 39.35496723372489, 43.107956839259714, 58.49390525696799, 32.765263511799276, 0.01600000075995922, 0.04800000227987766, 1.0240000486373901, 0.0, 0.0, 0.0, 0.0, 0.0, 1.6506669829388397E9, 0.0, 2022-04-22 17:36:22.938
69.0, 32.742824112065136, 34.79415923776105, 51.33199684182182, 8.261439002119005, 0.01600000075995922, 0.04800000227987766, 1.0240000486373901, 0.0, 0.0, 0.0, 0.0, 0.0, 1.6506669829388397E9, 0.0, 2022-04-22 17:36:22.938
70.0, 28.22128506563604, 26.69353593373671, 45.8193843071349, 7.921108106151223, 0.01600000075995922, 0.04800000227987766, 1.0240000486373901, 0.0, 0.0, 0.0, 0.0, 0.0, 1.6506669829396057E9, 0.0, 2022-04-22 17:36:22.939
70.0, 32.353874516673386, 24.71138895722106, 45.96898030536249, 22.431919934228063, 0.01600000075995922, 0.04800000227987766, 1.0240000486373901, 0.0, 0.0, 0.0, 0.0, 0.0, 1.6506669829396057E9, 0.0, 2022-04-22 17:36:22.939
71.0, 31.190765630453825, 32.557699064258486, 42.00842625228688, 12.315490554086864, 0.01600000075995922, 0.06400000303983688, 1.0240000486373901, 0.0, 0.0, 0.0, 0.0, 0.0, 1.6506669829532368E9, 0.0, 2022-04-22 17:36:22.953
