%OpenBCI Raw EEG Data
%Number of channels = 4
%Sample Rate = 200 Hz
%Board = OpenBCI_GUI$BoardGanglionBLE
Sample Index, EXG Channel 0, EXG Channel 1, EXG Channel 2, EXG Channel 3, Accel Channel 0, Accel Channel 1, Accel Channel 2, Other, Other, Other, Other, Other, Timestamp, Timestamp (Formatted)
90.0, -191.13507080078125, -230.2731170654297, -175.2143096923828, 182.5445098876953, 0.0, 0.0, 1.0240000486373901, 0.0, 0.0, 0.0, 0.0, 0.0, 1.602455853403221E9, 2020-10-11 17:37:33.403
90.0, -169.0098114013672, -198.98886108398438, -150.7142333984375, 310.80999755859375, 0.0, 0.0, 1.0240000486373901, 0.0, 0.0, 0.0, 0.0, 0.0, 1.602455853403221E9, 2020-10-11 17:37:33.403
0.0, -0.6021239161491394, 96.22575378417969, -1036.2047119140625, -503.564453125, 0.0, 0.0, 1.0240000486373901, 0.0, 0.0, 0.0, 0.0, 0.0, 1.6024558534236095E9, 2020-10-11 17:37:33.423
1.0, -145.19039916992188, -79.70661926269531, -1166.1475830078125, -580.0659790039062, 0.0, 0.03200000151991844, 1.0240000486373901, 0.0, 0.0, 0.0, 0.0, 0.0, 1.602455853436955E9, 2020-10-11 17:37:33.436
1.0, -151.26025390625, -96.27437591552734, -1178.2386474609375, -769.0094604492188, 0.0, 0.03200000151991844, 1.0240000486373901, 0.0, 0.0, 0.0, 0.0, 0.0, 1.602455853436955E9, 2020-10-11 17:37:33.436
2.0, -20.18798065185547, 69.53408813476562, -1055.5960693359375, -542.4780883789062, -0.01600000075995922, 0.03200000151991844, 1.0240000486373901, 0.0, 0.0, 0.0, 0.0, 0.0, 1.6024558534533274E9, 2020-10-11 17:37:33.453
2.0, -92.2259292602539, -9.198284149169922, -1118.6844482421875, -710.8165893554688, -0.01600000075995922, 0.03200000151991844, 1.0240000486373901, 0.0, 0.0, 0.0, 0.0, 0.0, 1.6024558534533274E9, 2020-10-11 17:37:33.453
3.0, -178.138916015625, -120.80812072753906, -1192.85791015625, -637.1106567382812, -0.01600000075995922, 0.03200000151991844, 1.0240000486373901, 0.0, 0.0, 0.0, 0.0, 0.0, 1.6024558534541318E9, 2020-10-11 17:37:33.454
3.0, -49.40781784057617, 30.66530990600586, -1075.1932373046875, -475.4029846191406, -0.01600000075995922, 0.03200000151991844, 1.0240000486373901, 0.0, 0.0, 0.0, 0.0, 0.0, 1.6024558534541318E9, 2020-10-11 17:37:33.454
4.0, -17.6411075592041, 71.31802368164062, -1052.2489013671875, -375.9665222167969, -0.01600000075995922, 0.03200000151991844, 1.0240000486373901, 0.0, 0.0, 0.0, 0.0, 0.0, 1.6024558534668725E9, 2020-10-11 17:37:33.466
4.0, -156.67189025878906, -106.7872314453125, -1177.46826171875, -552.1326293945312, -0.01600000075995922, 0.03200000151991844, 1.0240000486373901, 0.0, 0.0, 0.0, 0.0, 0.0, 1.6024558534668725E9, 2020-10-11 17:37:33.466
5.0, -90.46817779541016, -21.891504287719727, -1109.9854736328125, -378.8238220214844, -0.01600000075995922, 0.03200000151991844, 1.0240000486373901, 0.0, 0.0, 0.0, 0.0, 0.0, 1.602455853482649E9, 2020-10-11 17:37:33.482
5.0, -12.704440116882324, 91.32648468017578, -1033.6204833984375, -507.9139404296875, -0.01600000075995922, 0.03200000151991844, 1.0240000486373901, 0.0, 0.0, 0.0, 0.0, 0.0, 1.602455853482649E9, 2020-10-11 17:37:33.482
6.0, -135.94161987304688, -65.52117919921875, -1152.6278076171875, -575.8399047851562, -0.01600000075995922, 0.03200000151991844, 1.0240000486373901, 0.0, 0.0, 0.0, 0.0, 0.0, 1.6024558534828937E9, 2020-10-11 17:37:33.482
6.0, -138.8512725830078, -80.35362243652344, -1160.4068603515625, -754.3341064453125, -0.01600000075995922, 0.03200000151991844, 1.0240000486373901, 0.0, 0.0, 0.0, 0.0, 0.0, 1.6024558534828937E9, 2020-10-11 17:37:33.482
7.0, -8.268918991088867, 85.8250961303711, -1038.5272216796875, -534.7178344726562, -0.01600000075995922, 0.03200000151991844, 1.0240000486373901, 0.0, 0.0, 0.0, 0.0, 0.0, 1.6024558534963956E9, 2020-10-11 17:37:33.496
7.0, -86.87787628173828, -7.380692481994629, -1108.5306396484375, -714.76220703125, -0.01600000075995922, 0.03200000151991844, 1.0240000486373901, 0.0, 0.0, 0.0, 0.0, 0.0, 1.6024558534963956E9, 2020-10-11 17:37:33.496
8.0, -179.1075439453125, -125.22493743896484, -1185.9241943359375, -641.2881469726562, -0.01600000075995922, 0.03200000151991844, 1.0240000486373901, 0.0, 0.0, 0.0, 0.0, 0.0, 1.6024558535126228E9, 2020-10-11 17:37:33.512
8.0, -62.994873046875, 20.922870635986328, -1084.99169921875, -484.7265625, -0.01600000075995922, 0.03200000151991844, 1.0240000486373901, 0.0, 0.0, 0.0, 0.0, 0.0, 1.6024558535126228E9, 2020-10-11 17:37:33.512
9.0, -25.382701873779297, 68.05683135986328, -1049.3355712890625, -377.7803955078125, -0.01600000075995922, 0.03200000151991844, 1.0240000486373901, 0.0, 0.0, 0.0, 0.0, 0.0, 1.6024558535127966E9, 2020-10-11 17:37:33.512
9.0, -157.8387451171875, -110.59071350097656, -1179.184814453125, -552.1812744140625, -0.01600000075995922, 0.03200000151991844, 1.0240000486373901, 0.0, 0.0, 0.0, 0.0, 0.0, 1.6024558535127966E9, 2020-10-11 17:37:33.512
10.0, -105.80177307128906, -34.502445220947266, -1123.87548828125, -393.4430847167969, -0.01600000075995922, 0.03200000151991844, 0.5120000243186951, 0.0, 0.0, 0.0, 0.0, 0.0, 1.6024558535264215E9, 2020-10-11 17:37:33.526
10.0, -9.301131248474121, 87.97927856445312, -1041.1788330078125, -502.8912658691406, -0.01600000075995922, 0.03200000151991844, 0.5120000243186951, 0.0, 0.0, 0.0, 0.0, 0.0, 1.6024558535264215E9, 2020-10-11 17:37:33.526
11.0, -137.19822692871094, -77.98626708984375, -1163.04345703125, -576.1502685546875, -0.01600000075995922, 0.01600000075995922, 0.5120000243186951, 0.0, 0.0, 0.0, 0.0, 0.0, 1.602455853542209E9, 2020-10-11 17:37:33.542
11.0, -138.76898193359375, -83.77188873291016, -1155.0362548828125, -758.9940185546875, -0.01600000075995922, 0.01600000075995922, 0.5120000243186951, 0.0, 0.0, 0.0, 0.0, 0.0, 1.602455853542209E9, 2020-10-11 17:37:33.542
12.0, -14.349996566772461, 72.238037109375, -1040.6514892578125, -532.6122436523438, 0.0, 0.01600000075995922, 0.5120000243186951, 0.0, 0.0, 0.0, 0.0, 0.0, 1.6024558535430624E9, 2020-10-11 17:37:33.543
12.0, -79.75336456298828, 5.372366428375244, -1092.505126953125, -707.9743041992188, 0.0, 0.01600000075995922, 0.5120000243186951, 0.0, 0.0, 0.0, 0.0, 0.0, 1.6024558535430624E9, 2020-10-11 17:37:33.543
13.0, -163.75152587890625, -111.39852905273438, -1177.5093994140625, -631.6728515625, 0.0, 0.01600000075995922, 0.5120000243186951, 0.0, 0.0, 0.0, 0.0, 0.0, 1.602455853556646E9, 2020-10-11 17:37:33.556
13.0, -50.189456939697266, 28.06608009338379, -1080.0662841796875, -477.4861145019531, 0.0, 0.01600000075995922, 0.5120000243186951, 0.0, 0.0, 0.0, 0.0, 0.0, 1.602455853556646E9, 2020-10-11 17:37:33.556
14.0, -26.21295928955078, 69.21245574951172, -1057.7540283203125, -376.4377746582031, 0.0, 0.01600000075995922, 0.5120000243186951, 0.0, 0.0, 0.0, 0.0, 0.0, 1.6024558535725603E9, 2020-10-11 17:37:33.572
14.0, -169.61941528320312, -117.84611511230469, -1190.1651611328125, -558.008056640625, 0.0, 0.01600000075995922, 0.5120000243186951, 0.0, 0.0, 0.0, 0.0, 0.0, 1.6024558535725603E9, 2020-10-11 17:37:33.572
15.0, -98.6660385131836, -31.409549713134766, -1126.609375, -389.1347351074219, 0.0, 0.01600000075995922, 0.5120000243186951, 0.0, 0.0, 0.0, 0.0, 0.0, 1.6024558535733263E9, 2020-10-11 17:37:33.573
15.0, 3.9755136966705322, 102.086181640625, -1022.0716552734375, -496.8924560546875, 0.0, 0.01600000075995922, 0.5120000243186951, 0.0, 0.0, 0.0, 0.0, 0.0, 1.6024558535733263E9, 2020-10-11 17:37:33.573
16.0, -123.78321075439453, -66.76282501220703, -1146.2587890625, -569.7213745117188, 0.0, 0.01600000075995922, 0.5120000243186951, 0.0, 0.0, 0.0, 0.0, 0.0, 1.6024558535864496E9, 2020-10-11 17:37:33.586
16.0, -120.05078887939453, -63.142601013183594, -1139.6429443359375, -740.2159423828125, 0.0, 0.01600000075995922, 0.5120000243186951, 0.0, 0.0, 0.0, 0.0, 0.0, 1.6024558535864496E9, 2020-10-11 17:37:33.586
17.0, -1.6792150735855103, 94.116455078125, -1032.62939453125, -521.418701171875, 0.0, 0.01600000075995922, 0.5120000243186951, 0.0, 0.0, 0.0, 0.0, 0.0, 1.602455853602316E9, 2020-10-11 17:37:33.602
17.0, -60.82573318481445, 27.53501319885254, -1084.898193359375, -686.9485473632812, 0.0, 0.01600000075995922, 0.5120000243186951, 0.0, 0.0, 0.0, 0.0, 0.0, 1.602455853602316E9, 2020-10-11 17:37:33.602
18.0, -157.08328247070312, -113.16002655029297, -1170.88232421875, -627.6786499023438, 0.0, 0.01600000075995922, 0.5120000243186951, 0.0, 0.0, 0.0, 0.0, 0.0, 1.6024558536029017E9, 2020-10-11 17:37:33.602
18.0, -46.06060791015625, 31.791019439697266, -1069.100830078125, -471.7640686035156, 0.0, 0.01600000075995922, 0.5120000243186951, 0.0, 0.0, 0.0, 0.0, 0.0, 1.6024558536029017E9, 2020-10-11 17:37:33.602
19.0, -18.43396759033203, 72.03234100341797, -1044.215576171875, -375.1287841796875, 0.0, 0.01600000075995922, 0.5120000243186951, 0.0, 0.0, 0.0, 0.0, 0.0, 1.602455853616434E9, 2020-10-11 17:37:33.616
19.0, -165.23626708984375, -110.15314483642578, -1180.1871337890625, -560.2781372070312, 0.0, 0.01600000075995922, 0.5120000243186951, 0.0, 0.0, 0.0, 0.0, 0.0, 1.602455853616434E9, 2020-10-11 17:37:33.616
20.0, -91.68738555908203, -26.99646759033203, -1119.6195068359375, -386.5841064453125, 0.0, 0.01600000075995922, 0.7680000066757202, 0.0, 0.0, 0.0, 0.0, 0.0, 1.6024558536321948E9, 2020-10-11 17:37:33.632
20.0, 3.751119613647461, 97.1270751953125, -1030.8641357421875, -498.3996276855469, 0.0, 0.01600000075995922, 0.7680000066757202, 0.0, 0.0, 0.0, 0.0, 0.0, 1.6024558536321948E9, 2020-10-11 17:37:33.632
21.0, -137.64328002929688, -73.25528717041016, -1154.23974609375, -574.3925170898438, 0.0, 0.01600000075995922, 0.7680000066757202, 0.0, 0.0, 0.0, 0.0, 0.0, 1.602455853632864E9, 2020-10-11 17:37:33.632
21.0, -139.62168884277344, -87.48187255859375, -1158.4583740234375, -758.8518676757812, 0.0, 0.01600000075995922, 0.7680000066757202, 0.0, 0.0, 0.0, 0.0, 0.0, 1.602455853632864E9, 2020-10-11 17:37:33.632
22.0, -13.287864685058594, 79.60564422607422, -1037.760498046875, -531.5126953125, 0.0, 0.01600000075995922, 0.7680000066757202, 0.0, 0.0, 0.0, 0.0, 0.0, 1.6024558536467338E9, 2020-10-11 17:37:33.646
22.0, -80.7369613647461, -5.0582146644592285, -1100.0, -704.0623168945312, 0.0, 0.01600000075995922, 0.7680000066757202, 0.0, 0.0, 0.0, 0.0, 0.0, 1.6024558536467338E9, 2020-10-11 17:37:33.646
23.0, -169.08836364746094, -115.11225128173828, -1181.305419921875, -635.7007446289062, 0.0, 0.01600000075995922, 0.7680000066757202, 0.0, 0.0, 0.0, 0.0, 0.0, 1.6024558536621768E9, 2020-10-11 17:37:33.662
23.0, -52.42591857910156, 28.656984329223633, -1079.9615478515625, -478.9521484375, 0.0, 0.01600000075995922, 0.7680000066757202, 0.0, 0.0, 0.0, 0.0, 0.0, 1.6024558536621768E9, 2020-10-11 17:37:33.662
24.0, -13.807710647583008, 81.31851196289062, -1048.87548828125, -370.6446533203125, 0.0, 0.01600000075995922, 0.7680000066757202, 0.0, 0.0, 0.0, 0.0, 0.0, 1.602455853662806E9, 2020-10-11 17:37:33.662
24.0, -168.55355834960938, -113.93791961669922, -1181.918701171875, -562.0733032226562, 0.0, 0.01600000075995922, 0.7680000066757202, 0.0, 0.0, 0.0, 0.0, 0.0, 1.602455853662806E9, 2020-10-11 17:37:33.662
25.0, -97.925537109375, -25.61270523071289, -1114.69775390625, -389.3067626953125, 0.0, 0.01600000075995922, 0.7680000066757202, 0.0, 0.0, 0.0, 0.0, 0.0, 1.6024558536763933E9, 2020-10-11 17:37:33.676
25.0, -2.962000846862793, 94.93549346923828, -1033.2801513671875, -497.7301940917969, 0.0, 0.01600000075995922, 0.7680000066757202, 0.0, 0.0, 0.0, 0.0, 0.0, 1.6024558536763933E9, 2020-10-11 17:37:33.676
26.0, -142.87913513183594, -79.01847839355469, -1154.2733154296875, -580.5297241210938, 0.0, 0.01600000075995922, 0.7680000066757202, 0.0, 0.0, 0.0, 0.0, 0.0, 1.6024558536923995E9, 2020-10-11 17:37:33.692
26.0, -140.57162475585938, -82.3133316040039, -1152.22021484375, -758.2534790039062, 0.0, 0.01600000075995922, 0.7680000066757202, 0.0, 0.0, 0.0, 0.0, 0.0, 1.6024558536923995E9, 2020-10-11 17:37:33.692
27.0, -8.310057640075684, 85.52216339111328, -1037.925048828125, -527.9597778320312, 0.0, 0.01600000075995922, 0.7680000066757202, 0.0, 0.0, 0.0, 0.0, 0.0, 1.6024558536928043E9, 2020-10-11 17:37:33.692
27.0, -76.43607330322266, 9.205763816833496, -1097.9580078125, -704.4737548828125, 0.0, 0.01600000075995922, 0.7680000066757202, 0.0, 0.0, 0.0, 0.0, 0.0, 1.6024558536928043E9, 2020-10-11 17:37:33.692
28.0, -168.6395721435547, -117.46839141845703, -1179.4803466796875, -637.0321044921875, 0.0, 0.01600000075995922, 0.7680000066757202, 0.0, 0.0, 0.0, 0.0, 0.0, 1.6024558537063944E9, 2020-10-11 17:37:33.706
28.0, -49.34798049926758, 35.50474166870117, -1073.9290771484375, -472.19415283203125, 0.0, 0.01600000075995922, 0.7680000066757202, 0.0, 0.0, 0.0, 0.0, 0.0, 1.6024558537063944E9, 2020-10-11 17:37:33.706
29.0, -17.611188888549805, 78.76416015625, -1050.0050048828125, -369.02154541015625, 0.0, 0.01600000075995922, 0.7680000066757202, 0.0, 0.0, 0.0, 0.0, 0.0, 1.602455853722159E9, 2020-10-11 17:37:33.722
29.0, -178.65501403808594, -127.61473846435547, -1198.80810546875, -571.0640258789062, 0.0, 0.01600000075995922, 0.7680000066757202, 0.0, 0.0, 0.0, 0.0, 0.0, 1.602455853722159E9, 2020-10-11 17:37:33.722
30.0, -108.61791229248047, -37.22135543823242, -1115.318603515625, -390.29034423828125, 0.0, 0.01600000075995922, 0.8800000548362732, 0.0, 0.0, 0.0, 0.0, 0.0, 1.602455853722865E9, 2020-10-11 17:37:33.722
30.0, 3.4893267154693604, 107.12382507324219, -1014.8386840820312, -487.7783203125, 0.0, 0.01600000075995922, 0.8800000548362732, 0.0, 0.0, 0.0, 0.0, 0.0, 1.602455853722865E9, 2020-10-11 17:37:33.722
31.0, -134.8046875, -62.518035888671875, -1137.7392578125, -573.1097412109375, 0.0, 0.01600000075995922, 0.8800000548362732, 0.0, 0.0, 0.0, 0.0, 0.0, 1.6024558537528152E9, 2020-10-11 17:37:33.752
31.0, -153.19004821777344, -91.8687744140625, -1153.1177978515625, -761.3576049804688, 0.0, 0.01600000075995922, 0.8800000548362732, 0.0, 0.0, 0.0, 0.0, 0.0, 1.6024558537528152E9, 2020-10-11 17:37:33.752
32.0, -14.87732219696045, 88.65619659423828, -1015.3360595703125, -519.8966064453125, 0.0, 0.01600000075995922, 0.8800000548362732, 0.0, 0.0, 0.0, 0.0, 0.0, 1.602455853754012E9, 2020-10-11 17:37:33.754
32.0, -81.21940612792969, 12.388418197631836, -1076.906005859375, -700.2252197265625, 0.0, 0.01600000075995922, 0.8800000548362732, 0.0, 0.0, 0.0, 0.0, 0.0, 1.602455853754012E9, 2020-10-11 17:37:33.754
33.0, -174.46633911132812, -107.89798736572266, -1159.0791015625, -628.045166015625, 0.0, 0.01600000075995922, 0.8800000548362732, 0.0, 0.0, 0.0, 0.0, 0.0, 1.602455853754774E9, 2020-10-11 17:37:33.754
33.0, -59.41579055786133, 42.37867736816406, -1060.0054931640625, -469.1760559082031, 0.0, 0.01600000075995922, 0.8800000548362732, 0.0, 0.0, 0.0, 0.0, 0.0, 1.602455853754774E9, 2020-10-11 17:37:33.754
34.0, -25.277984619140625, 83.80928802490234, -1033.4970703125, -368.1015319824219, 0.0, 0.01600000075995922, 0.8800000548362732, 0.0, 0.0, 0.0, 0.0, 0.0, 1.6024558537664688E9, 2020-10-11 17:37:33.766
34.0, -175.80148315429688, -106.55909729003906, -1170.3961181640625, -558.655029296875, 0.0, 0.01600000075995922, 0.8800000548362732, 0.0, 0.0, 0.0, 0.0, 0.0, 1.6024558537664688E9, 2020-10-11 17:37:33.766
35.0, -99.39532470703125, -13.147618293762207, -1092.5650634765625, -372.5295715332031, 0.0, 0.01600000075995922, 0.8800000548362732, 0.0, 0.0, 0.0, 0.0, 0.0, 1.6024558537820728E9, 2020-10-11 17:37:33.782
35.0, -9.56666374206543, 103.2941665649414, -1014.6217651367188, -493.7808532714844, 0.0, 0.01600000075995922, 0.8800000548362732, 0.0, 0.0, 0.0, 0.0, 0.0, 1.6024558537820728E9, 2020-10-11 17:37:33.782
36.0, -141.91424560546875, -64.9676742553711, -1129.32080078125, -571.44921875, 0.0, 0.01600000075995922, 0.8800000548362732, 0.0, 0.0, 0.0, 0.0, 0.0, 1.602455853783222E9, 2020-10-11 17:37:33.783
36.0, -143.8402862548828, -78.50237274169922, -1142.2608642578125, -753.2644653320312, 0.0, 0.01600000075995922, 0.8800000548362732, 0.0, 0.0, 0.0, 0.0, 0.0, 1.602455853783222E9, 2020-10-11 17:37:33.783
37.0, -14.892281532287598, 92.62797546386719, -1014.367431640625, -515.4049682617188, 0.0, 0.01600000075995922, 0.8800000548362732, 0.0, 0.0, 0.0, 0.0, 0.0, 1.6024558537964115E9, 2020-10-11 17:37:33.796
37.0, -82.34137725830078, 13.56274700164795, -1074.27685546875, -693.8187866210938, 0.0, 0.01600000075995922, 0.8800000548362732, 0.0, 0.0, 0.0, 0.0, 0.0, 1.6024558537964115E9, 2020-10-11 17:37:33.796
38.0, -189.0407257080078, -122.43871307373047, -1166.2559814453125, -640.4616088867188, 0.0, 0.01600000075995922, 0.8800000548362732, 0.0, 0.0, 0.0, 0.0, 0.0, 1.6024558538120964E9, 2020-10-11 17:37:33.812
38.0, -64.1392822265625, 36.38361740112305, -1058.2327880859375, -468.716064453125, 0.0, 0.01600000075995922, 0.8800000548362732, 0.0, 0.0, 0.0, 0.0, 0.0, 1.6024558538120964E9, 2020-10-11 17:37:33.812
39.0, -25.644493103027344, 78.48367309570312, -1032.2965087890625, -365.69677734375, 0.0, 0.01600000075995922, 0.8800000548362732, 0.0, 0.0, 0.0, 0.0, 0.0, 1.602455853813146E9, 2020-10-11 17:37:33.813
39.0, -179.9265899658203, -114.26329040527344, -1170.863525390625, -560.5848388671875, 0.0, 0.01600000075995922, 0.8800000548362732, 0.0, 0.0, 0.0, 0.0, 0.0, 1.602455853813146E9, 2020-10-11 17:37:33.813
40.0, -108.11676788330078, -28.529827117919922, -1104.0203857421875, -385.33123779296875, 0.0, 0.01600000075995922, 0.9440000653266907, 0.0, 0.0, 0.0, 0.0, 0.0, 1.6024558538264112E9, 2020-10-11 17:37:33.826
40.0, -8.504532814025879, 101.83186340332031, -1015.4520263671875, -488.2458190917969, 0.0, 0.01600000075995922, 0.9440000653266907, 0.0, 0.0, 0.0, 0.0, 0.0, 1.6024558538264112E9, 2020-10-11 17:37:33.826
41.0, -146.07675170898438, -73.22163391113281, -1139.3026123046875, -573.0723266601562, 0.0, 0.01600000075995922, 0.9440000653266907, 0.0, 0.0, 0.0, 0.0, 0.0, 1.602455853842085E9, 2020-10-11 17:37:33.842
41.0, -144.92486572265625, -83.84294891357422, -1140.2562255859375, -753.7095336914062, 0.0, 0.01600000075995922, 0.9440000653266907, 0.0, 0.0, 0.0, 0.0, 0.0, 1.602455853842085E9, 2020-10-11 17:37:33.842
42.0, -14.529511451721191, 82.93415069580078, -1024.962646484375, -525.0651245117188, 0.0, 0.01600000075995922, 0.9440000653266907, 0.0, 0.0, 0.0, 0.0, 0.0, 1.602455853842857E9, 2020-10-11 17:37:33.842
42.0, -75.20191192626953, 8.943970680236816, -1085.4180908203125, -694.1852416992188, 0.0, 0.01600000075995922, 0.9440000653266907, 0.0, 0.0, 0.0, 0.0, 0.0, 1.602455853842857E9, 2020-10-11 17:37:33.842
43.0, -184.35089111328125, -125.20249938964844, -1175.4822998046875, -642.15576171875, 0.0, 0.01600000075995922, 0.9440000653266907, 0.0, 0.0, 0.0, 0.0, 0.0, 1.6024558538564317E9, 2020-10-11 17:37:33.856
43.0, -61.71208953857422, 33.47771453857422, -1060.8057861328125, -473.974365234375, 0.0, 0.01600000075995922, 0.9440000653266907, 0.0, 0.0, 0.0, 0.0, 0.0, 1.6024558538564317E9, 2020-10-11 17:37:33.856
44.0, -31.452558517456055, 76.57632446289062, -1040.0380859375, -375.0539855957031, 0.0, 0.01600000075995922, 0.9440000653266907, 0.0, 0.0, 0.0, 0.0, 0.0, 1.6024558538722332E9, 2020-10-11 17:37:33.872
44.0, -178.65501403808594, -121.66455841064453, -1178.1563720703125, -567.1109619140625, 0.0, 0.01600000075995922, 0.9440000653266907, 0.0, 0.0, 0.0, 0.0, 0.0, 1.6024558538722332E9, 2020-10-11 17:37:33.872
45.0, -112.80286407470703, -33.990081787109375, -1117.5438232421875, -394.7408447265625, 0.0, 0.01600000075995922, 0.9440000653266907, 0.0, 0.0, 0.0, 0.0, 0.0, 1.6024558538731065E9, 2020-10-11 17:37:33.873
45.0, -1.9971065521240234, 103.63823699951172, -1017.4042358398438, -488.94891357421875, 0.0, 0.01600000075995922, 0.9440000653266907, 0.0, 0.0, 0.0, 0.0, 0.0, 1.6024558538731065E9, 2020-10-11 17:37:33.873
46.0, -148.94525146484375, -76.46038818359375, -1144.3289794921875, -581.696533203125, 0.0, 0.01600000075995922, 0.9440000653266907, 0.0, 0.0, 0.0, 0.0, 0.0, 1.6024558538867557E9, 2020-10-11 17:37:33.886
46.0, -153.1302032470703, -89.04888916015625, -1157.5120849609375, -759.8204956054688, 0.0, 0.01600000075995922, 0.9440000653266907, 0.0, 0.0, 0.0, 0.0, 0.0, 1.6024558538867557E9, 2020-10-11 17:37:33.886
47.0, -12.895174980163574, 83.25204467773438, -1030.8043212890625, -523.5130615234375, 0.0, 0.01600000075995922, 0.9440000653266907, 0.0, 0.0, 0.0, 0.0, 0.0, 1.6024558539020925E9, 2020-10-11 17:37:33.902
47.0, -82.9846420288086, 1.3781530857086182, -1099.41650390625, -700.7637329101562, 0.0, 0.01600000075995922, 0.9440000653266907, 0.0, 0.0, 0.0, 0.0, 0.0, 1.6024558539020925E9, 2020-10-11 17:37:33.902
48.0, -181.47865295410156, -136.70269775390625, -1190.8197021484375, -644.7587280273438, 0.0, 0.01600000075995922, 0.9440000653266907, 0.0, 0.0, 0.0, 0.0, 0.0, 1.6024558539029603E9, 2020-10-11 17:37:33.902
48.0, -67.16486358642578, 18.720069885253906, -1083.7425537109375, -480.1152648925781, 0.0, 0.01600000075995922, 0.9440000653266907, 0.0, 0.0, 0.0, 0.0, 0.0, 1.6024558539029603E9, 2020-10-11 17:37:33.902
49.0, -27.75379753112793, 66.78152465820312, -1050.034912109375, -370.7904968261719, 0.0, 0.01600000075995922, 0.9440000653266907, 0.0, 0.0, 0.0, 0.0, 0.0, 1.6024558539165814E9, 2020-10-11 17:37:33.916
49.0, -170.32252502441406, -116.8999252319336, -1177.7412109375, -562.2266235351562, 0.0, 0.01600000075995922, 0.9440000653266907, 0.0, 0.0, 0.0, 0.0, 0.0, 1.6024558539165814E9, 2020-10-11 17:37:33.916
50.0, -89.7688217163086, -10.802700996398926, -1095.6915283203125, -373.8123474121094, 0.0, 0.01600000075995922, 0.9760000705718994, 0.0, 0.0, 0.0, 0.0, 0.0, 1.6024558539320836E9, 2020-10-11 17:37:33.932
50.0, 2.2476799488067627, 106.96675109863281, -1019.7791137695312, -483.30914306640625, 0.0, 0.01600000075995922, 0.9760000705718994, 0.0, 0.0, 0.0, 0.0, 0.0, 1.6024558539320836E9, 2020-10-11 17:37:33.932
51.0, -123.90288543701172, -63.40439224243164, -1146.1614990234375, -570.8471069335938, 0.0, 0.01600000075995922, 0.9760000705718994, 0.0, 0.0, 0.0, 0.0, 0.0, 1.6024558539328418E9, 2020-10-11 17:37:33.932
51.0, -126.02340698242188, -68.19520568847656, -1130.180908203125, -743.5818481445312, 0.0, 0.01600000075995922, 0.9760000705718994, 0.0, 0.0, 0.0, 0.0, 0.0, 1.6024558539328418E9, 2020-10-11 17:37:33.932
52.0, -6.380269527435303, 84.27677917480469, -1021.9556884765625, -519.6011352539062, 0.0, 0.01600000075995922, 0.9760000705718994, 0.0, 0.0, 0.0, 0.0, 0.0, 1.6024558539465797E9, 2020-10-11 17:37:33.946
52.0, -78.0068359375, -0.5030165314674377, -1090.1715087890625, -699.0022583007812, 0.0, 0.01600000075995922, 0.9760000705718994, 0.0, 0.0, 0.0, 0.0, 0.0, 1.6024558539465797E9, 2020-10-11 17:37:33.946
53.0, -170.07943725585938, -117.004638671875, -1179.9515380859375, -634.9677124023438, 0.0, 0.01600000075995922, 0.9760000705718994, 0.0, 0.0, 0.0, 0.0, 0.0, 1.6024558539621007E9, 2020-10-11 17:37:33.962
53.0, -56.012481689453125, 36.2564582824707, -1070.8436279296875, -472.7962951660156, 0.0, 0.01600000075995922, 0.9760000705718994, 0.0, 0.0, 0.0, 0.0, 0.0, 1.6024558539621007E9, 2020-10-11 17:37:33.962
54.0, -25.898807525634766, 75.89192199707031, -1045.808837890625, -373.43463134765625, 0.0, 0.01600000075995922, 0.9760000705718994, 0.0, 0.0, 0.0, 0.0, 0.0, 1.6024558539628518E9, 2020-10-11 17:37:33.962
54.0, -158.6727294921875, -102.00016021728516, -1167.965087890625, -550.7750854492188, 0.0, 0.01600000075995922, 0.9760000705718994, 0.0, 0.0, 0.0, 0.0, 0.0, 1.6024558539628518E9, 2020-10-11 17:37:33.962
55.0, -110.42428588867188, -34.132198333740234, -1122.14013671875, -389.43017578125, 0.0, 0.01600000075995922, 0.9760000705718994, 0.0, 0.0, 0.0, 0.0, 0.0, 1.6024558539763663E9, 2020-10-11 17:37:33.976
55.0, -9.951873779296875, 93.177734375, -1040.3260498046875, -495.75927734375, 0.0, 0.01600000075995922, 0.9760000705718994, 0.0, 0.0, 0.0, 0.0, 0.0, 1.6024558539763663E9, 2020-10-11 17:37:33.976
56.0, -144.2142791748047, -77.5187759399414, -1157.48974609375, -580.2117919921875, 0.0, 0.01600000075995922, 0.9760000705718994, 0.0, 0.0, 0.0, 0.0, 0.0, 1.6024558539920888E9, 2020-10-11 17:37:33.992
56.0, -156.54473876953125, -94.00799560546875, -1152.8447265625, -765.1573486328125, 0.0, 0.01600000075995922, 0.9760000705718994, 0.0, 0.0, 0.0, 0.0, 0.0, 1.6024558539920888E9, 2020-10-11 17:37:33.992
57.0, -14.054544448852539, 83.49139404296875, -1027.419677734375, -522.3387451171875, 0.0, 0.01600000075995922, 0.9760000705718994, 0.0, 0.0, 0.0, 0.0, 0.0, 1.6024558539933548E9, 2020-10-11 17:37:33.993
57.0, -83.66529846191406, 4.328934192657471, -1095.474609375, -702.5813598632812, 0.0, 0.01600000075995922, 0.9760000705718994, 0.0, 0.0, 0.0, 0.0, 0.0, 1.6024558539933548E9, 2020-10-11 17:37:33.993
58.0, -184.4032440185547, -132.70474243164062, -1191.0029296875, -647.9489135742188, 0.0, 0.01600000075995922, 0.9760000705718994, 0.0, 0.0, 0.0, 0.0, 0.0, 1.6024558540064063E9, 2020-10-11 17:37:34.006
58.0, -63.608219146728516, 20.975229263305664, -1081.56591796875, -479.5804748535156, 0.0, 0.01600000075995922, 0.9760000705718994, 0.0, 0.0, 0.0, 0.0, 0.0, 1.6024558540064063E9, 2020-10-11 17:37:34.006
59.0, -35.09522247314453, 60.61442947387695, -1055.468994140625, -377.6158142089844, 0.0, 0.01600000075995922, 0.9760000705718994, 0.0, 0.0, 0.0, 0.0, 0.0, 1.6024558540223167E9, 2020-10-11 17:37:34.022
59.0, -171.88954162597656, -116.77276611328125, -1181.8626708984375, -564.3396606445312, 0.0, 0.01600000075995922, 0.9760000705718994, 0.0, 0.0, 0.0, 0.0, 0.0, 1.6024558540223167E9, 2020-10-11 17:37:34.022
60.0, -113.07213592529297, -38.425601959228516, -1124.2158203125, -394.6996765136719, 0.0, 0.01600000075995922, 0.9920000433921814, 0.0, 0.0, 0.0, 0.0, 0.0, 1.6024558540232227E9, 2020-10-11 17:37:34.023
60.0, -10.546518325805664, 89.9427261352539, -1034.1478271484375, -497.71148681640625, 0.0, 0.01600000075995922, 0.9920000433921814, 0.0, 0.0, 0.0, 0.0, 0.0, 1.6024558540232227E9, 2020-10-11 17:37:34.023
61.0, -147.88311767578125, -78.2181396484375, -1152.399658203125, -578.92529296875, 0.0, 0.03200000151991844, 0.9920000433921814, 0.0, 0.0, 0.0, 0.0, 0.0, 1.6024558540364325E9, 2020-10-11 17:37:34.036
61.0, -145.77381896972656, -92.81122589111328, -1151.6441650390625, -756.0133056640625, 0.0, 0.03200000151991844, 0.9920000433921814, 0.0, 0.0, 0.0, 0.0, 0.0, 1.6024558540364325E9, 2020-10-11 17:37:34.036
62.0, -6.451327323913574, 85.61940002441406, -1029.5439453125, -517.1140747070312, 0.0, 0.03200000151991844, 0.9920000433921814, 0.0, 0.0, 0.0, 0.0, 0.0, 1.602455854052564E9, 2020-10-11 17:37:34.052
62.0, -81.72055053710938, 0.4469180405139923, -1096.58544921875, -698.1944580078125, 0.0, 0.03200000151991844, 0.9920000433921814, 0.0, 0.0, 0.0, 0.0, 0.0, 1.602455854052564E9, 2020-10-11 17:37:34.052
63.0, -172.14759826660156, -127.29684448242188, -1189.218994140625, -637.8324584960938, 0.0, 0.03200000151991844, 0.9920000433921814, 0.0, 0.0, 0.0, 0.0, 0.0, 1.6024558540531535E9, 2020-10-11 17:37:34.053
63.0, -58.13300323486328, 27.086225509643555, -1073.7532958984375, -474.22119140625, 0.0, 0.03200000151991844, 0.9920000433921814, 0.0, 0.0, 0.0, 0.0, 0.0, 1.6024558540531535E9, 2020-10-11 17:37:34.053
64.0, -39.126834869384766, 54.641807556152344, -1065.0880126953125, -381.9840393066406, 0.0, 0.03200000151991844, 0.9920000433921814, 0.0, 0.0, 0.0, 0.0, 0.0, 1.6024558540664139E9, 2020-10-11 17:37:34.066
64.0, -175.8874969482422, -125.87194061279297, -1194.092041015625, -564.3060302734375, 0.0, 0.03200000151991844, 0.9920000433921814, 0.0, 0.0, 0.0, 0.0, 0.0, 1.6024558540664139E9, 2020-10-11 17:37:34.066
65.0, -114.1828842163086, -44.764732360839844, -1125.7042236328125, -396.1694641113281, 0.0, 0.03200000151991844, 0.9920000433921814, 0.0, 0.0, 0.0, 0.0, 0.0, 1.6024558540825324E9, 2020-10-11 17:37:34.082
65.0, -2.939561367034912, 97.3103256225586, -1029.2373046875, -493.64996337890625, 0.0, 0.03200000151991844, 0.9920000433921814, 0.0, 0.0, 0.0, 0.0, 0.0, 1.6024558540825324E9, 2020-10-11 17:37:34.082
66.0, -148.43289184570312, -81.66258239746094, -1158.4844970703125, -580.8551025390625, 0.0, 0.03200000151991844, 0.9920000433921814, 0.0, 0.0, 0.0, 0.0, 0.0, 1.602455854082862E9, 2020-10-11 17:37:34.082
66.0, -148.8330535888672, -90.15963745117188, -1164.4459228515625, -758.732177734375, 0.0, 0.03200000151991844, 0.9920000433921814, 0.0, 0.0, 0.0, 0.0, 0.0, 1.602455854082862E9, 2020-10-11 17:37:34.082
67.0, -22.170127868652344, 67.51080322265625, -1053.438232421875, -536.1502075195312, 0.0, 0.03200000151991844, 0.9920000433921814, 0.0, 0.0, 0.0, 0.0, 0.0, 1.6024558540964143E9, 2020-10-11 17:37:34.096
67.0, -85.14630126953125, -3.902585506439209, -1109.312255859375, -708.3220825195312, 0.0, 0.03200000151991844, 0.9920000433921814, 0.0, 0.0, 0.0, 0.0, 0.0, 1.6024558540964143E9, 2020-10-11 17:37:34.096
68.0, -161.58612060546875, -118.65019226074219, -1182.950927734375, -633.890625, 0.0, 0.03200000151991844, 0.9920000433921814, 0.0, 0.0, 0.0, 0.0, 0.0, 1.6024558541123383E9, 2020-10-11 17:37:34.112
68.0, -58.929603576660156, 18.63779067993164, -1091.364501953125, -483.5597229003906, 0.0, 0.03200000151991844, 0.9920000433921814, 0.0, 0.0, 0.0, 0.0, 0.0, 1.6024558541123383E9, 2020-10-11 17:37:34.112
69.0, -32.432411193847656, 68.08674621582031, -1046.2388916015625, -371.50482177734375, 0.0, 0.03200000151991844, 0.9920000433921814, 0.0, 0.0, 0.0, 0.0, 0.0, 1.6024558541129212E9, 2020-10-11 17:37:34.112
69.0, -175.62570190429688, -115.74055480957031, -1175.0484619140625, -559.4441528320312, 0.0, 0.03200000151991844, 0.9920000433921814, 0.0, 0.0, 0.0, 0.0, 0.0, 1.6024558541129212E9, 2020-10-11 17:37:34.112
70.0, -111.12738800048828, -36.708988189697266, -1113.1494140625, -391.3076171875, 0.0, 0.03200000151991844, 1.0080000162124634, 0.0, 0.0, 0.0, 0.0, 0.0, 1.6024558541264472E9, 2020-10-11 17:37:34.126
70.0, -21.766218185424805, 88.74595642089844, -1028.1976318359375, -500.89788818359375, 0.0, 0.03200000151991844, 1.0080000162124634, 0.0, 0.0, 0.0, 0.0, 0.0, 1.6024558541264472E9, 2020-10-11 17:37:34.126
71.0, -153.97915649414062, -77.99748229980469, -1155.111083984375, -581.9733276367188, 0.0, 0.01600000075995922, 1.0080000162124634, 0.0, 0.0, 0.0, 0.0, 0.0, 1.6024558541421864E9, 2020-10-11 17:37:34.142
71.0, -153.0067901611328, -88.06903076171875, -1151.1356201171875, -753.5262451171875, 0.0, 0.01600000075995922, 1.0080000162124634, 0.0, 0.0, 0.0, 0.0, 0.0, 1.6024558541421864E9, 2020-10-11 17:37:34.142
72.0, -27.32370948791504, 73.66667938232422, -1036.7208251953125, -531.3145141601562, -0.01600000075995922, 0.01600000075995922, 1.0080000162124634, 0.0, 0.0, 0.0, 0.0, 0.0, 1.602455854142898E9, 2020-10-11 17:37:34.142
72.0, -94.18563842773438, 1.1537591218948364, -1086.599853515625, -700.86474609375, -0.01600000075995922, 0.01600000075995922, 1.0080000162124634, 0.0, 0.0, 0.0, 0.0, 0.0, 1.602455854142898E9, 2020-10-11 17:37:34.142
73.0, -184.18258666992188, -120.90535736083984, -1175.8974609375, -633.9130249023438, -0.01600000075995922, 0.01600000075995922, 1.0080000162124634, 0.0, 0.0, 0.0, 0.0, 0.0, 1.6024558541567347E9, 2020-10-11 17:37:34.156
73.0, -67.84178161621094, 28.24933433532715, -1072.52294921875, -476.9251403808594, -0.01600000075995922, 0.01600000075995922, 1.0080000162124634, 0.0, 0.0, 0.0, 0.0, 0.0, 1.6024558541567347E9, 2020-10-11 17:37:34.156
74.0, -31.549795150756836, 75.06539916992188, -1039.3387451171875, -372.6679382324219, -0.01600000075995922, 0.01600000075995922, 1.0080000162124634, 0.0, 0.0, 0.0, 0.0, 0.0, 1.6024558541723177E9, 2020-10-11 17:37:34.172
74.0, -191.21360778808594, -130.17657470703125, -1189.005859375, -568.4423828125, -0.01600000075995922, 0.01600000075995922, 1.0080000162124634, 0.0, 0.0, 0.0, 0.0, 0.0, 1.6024558541723177E9, 2020-10-11 17:37:34.172
75.0, -111.46023559570312, -31.705001831054688, -1116.25732421875, -387.1787414550781, -0.01600000075995922, 0.01600000075995922, 1.0080000162124634, 0.0, 0.0, 0.0, 0.0, 0.0, 1.60245585417295E9, 2020-10-11 17:37:34.172
75.0, -24.219593048095703, 87.72122192382812, -1029.40185546875, -503.4634704589844, -0.01600000075995922, 0.01600000075995922, 1.0080000162124634, 0.0, 0.0, 0.0, 0.0, 0.0, 1.60245585417295E9, 2020-10-11 17:37:34.172
76.0, -166.6798553466797, -90.07362365722656, -1160.1600341796875, -589.7373657226562, -0.01600000075995922, 0.01600000075995922, 1.0080000162124634, 0.0, 0.0, 0.0, 0.0, 0.0, 1.6024558541865144E9, 2020-10-11 17:37:34.186
76.0, -158.75502014160156, -91.02729797363281, -1154.407958984375, -767.2778930664062, -0.01600000075995922, 0.01600000075995922, 1.0080000162124634, 0.0, 0.0, 0.0, 0.0, 0.0, 1.6024558541865144E9, 2020-10-11 17:37:34.186
77.0, -24.19341278076172, 76.58753967285156, -1031.0885009765625, -531.0639038085938, -0.01600000075995922, 0.01600000075995922, 1.0080000162124634, 0.0, 0.0, 0.0, 0.0, 0.0, 1.6024558542022107E9, 2020-10-11 17:37:34.202
77.0, -92.32691192626953, 2.129873037338257, -1100.2767333984375, -706.2614135742188, -0.01600000075995922, 0.01600000075995922, 1.0080000162124634, 0.0, 0.0, 0.0, 0.0, 0.0, 1.6024558542022107E9, 2020-10-11 17:37:34.202
78.0, -192.1336212158203, -130.52064514160156, -1187.8538818359375, -648.5547485351562, -0.01600000075995922, 0.01600000075995922, 1.0080000162124634, 0.0, 0.0, 0.0, 0.0, 0.0, 1.602455854202829E9, 2020-10-11 17:37:34.202
78.0, -64.20286560058594, 29.113250732421875, -1072.526611328125, -480.7996826171875, -0.01600000075995922, 0.01600000075995922, 1.0080000162124634, 0.0, 0.0, 0.0, 0.0, 0.0, 1.602455854202829E9, 2020-10-11 17:37:34.202
79.0, -42.67226028442383, 60.322715759277344, -1054.51904296875, -382.7469787597656, -0.01600000075995922, 0.01600000075995922, 1.0080000162124634, 0.0, 0.0, 0.0, 0.0, 0.0, 1.6024558542168171E9, 2020-10-11 17:37:34.216
79.0, -185.09512329101562, -125.61015319824219, -1180.34423828125, -562.3313598632812, -0.01600000075995922, 0.01600000075995922, 1.0080000162124634, 0.0, 0.0, 0.0, 0.0, 0.0, 1.6024558542168171E9, 2020-10-11 17:37:34.216
80.0, -108.16912841796875, -28.469987869262695, -1110.651123046875, -388.0314636230469, -0.01600000075995922, 0.01600000075995922, 1.0080000162124634, 0.0, 0.0, 0.0, 0.0, 0.0, 1.6024558542321937E9, 2020-10-11 17:37:34.232
80.0, 0.3104116916656494, 106.33096313476562, -1016.2000122070312, -487.7484130859375, -0.01600000075995922, 0.01600000075995922, 1.0080000162124634, 0.0, 0.0, 0.0, 0.0, 0.0, 1.6024558542321937E9, 2020-10-11 17:37:34.232
81.0, -136.62228393554688, -65.58475494384766, -1138.7939453125, -570.1739501953125, -0.01600000075995922, 0.03200000151991844, 1.0080000162124634, 0.0, 0.0, 0.0, 0.0, 0.0, 1.6024558542328136E9, 2020-10-11 17:37:34.232
81.0, -135.13380432128906, -79.89361572265625, -1138.0235595703125, -748.50732421875, -0.01600000075995922, 0.03200000151991844, 1.0080000162124634, 0.0, 0.0, 0.0, 0.0, 0.0, 1.6024558542328136E9, 2020-10-11 17:37:34.232
82.0, -15.662700653076172, 82.50032043457031, -1028.5865478515625, -525.1361694335938, -0.01600000075995922, 0.03200000151991844, 1.0080000162124634, 0.0, 0.0, 0.0, 0.0, 0.0, 1.602455854246374E9, 2020-10-11 17:37:34.246
82.0, -92.4391098022461, -1.5576683282852173, -1093.1522216796875, -700.1653442382812, -0.01600000075995922, 0.03200000151991844, 1.0080000162124634, 0.0, 0.0, 0.0, 0.0, 0.0, 1.602455854246374E9, 2020-10-11 17:37:34.246
83.0, -180.3005828857422, -120.11249542236328, -1172.972900390625, -633.6138305664062, -0.01600000075995922, 0.03200000151991844, 1.0080000162124634, 0.0, 0.0, 0.0, 0.0, 0.0, 1.6024558542621727E9, 2020-10-11 17:37:34.262
83.0, -55.99378204345703, 31.458168029785156, -1069.2430419921875, -470.8403015136719, -0.01600000075995922, 0.03200000151991844, 1.0080000162124634, 0.0, 0.0, 0.0, 0.0, 0.0, 1.6024558542621727E9, 2020-10-11 17:37:34.262
84.0, -40.04310989379883, 65.15840911865234, -1052.768798828125, -377.6046142578125, -0.01600000075995922, 0.03200000151991844, 1.0080000162124634, 0.0, 0.0, 0.0, 0.0, 0.0, 1.602455854262782E9, 2020-10-11 17:37:34.262
84.0, -172.8843536376953, -117.4870834350586, -1167.54248046875, -550.9358520507812, -0.01600000075995922, 0.03200000151991844, 1.0080000162124634, 0.0, 0.0, 0.0, 0.0, 0.0, 1.602455854262782E9, 2020-10-11 17:37:34.262
85.0, -109.04426574707031, -29.812612533569336, -1108.9383544921875, -389.11602783203125, -0.01600000075995922, 0.03200000151991844, 1.0080000162124634, 0.0, 0.0, 0.0, 0.0, 0.0, 1.6024558542763903E9, 2020-10-11 17:37:34.276
85.0, -15.172774314880371, 93.92945861816406, -1024.8541259765625, -497.28515625, -0.01600000075995922, 0.03200000151991844, 1.0080000162124634, 0.0, 0.0, 0.0, 0.0, 0.0, 1.6024558542763903E9, 2020-10-11 17:37:34.276
86.0, -143.66452026367188, -72.05477905273438, -1145.0357666015625, -572.2757568359375, -0.01600000075995922, 0.03200000151991844, 1.0080000162124634, 0.0, 0.0, 0.0, 0.0, 0.0, 1.6024558543086205E9, 2020-10-11 17:37:34.308
86.0, -155.31430053710938, -88.46546173095703, -1151.7003173828125, -756.3424072265625, -0.01600000075995922, 0.03200000151991844, 1.0080000162124634, 0.0, 0.0, 0.0, 0.0, 0.0, 1.6024558543086205E9, 2020-10-11 17:37:34.308
87.0, -30.450265884399414, 66.84510040283203, -1050.2255859375, -538.6297607421875, -0.01600000075995922, 0.03200000151991844, 1.0080000162124634, 0.0, 0.0, 0.0, 0.0, 0.0, 1.6024558543093567E9, 2020-10-11 17:37:34.309
87.0, -86.51510620117188, 4.24665641784668, -1094.921142578125, -697.6596069335938, -0.01600000075995922, 0.03200000151991844, 1.0080000162124634, 0.0, 0.0, 0.0, 0.0, 0.0, 1.6024558543093567E9, 2020-10-11 17:37:34.309
88.0, -169.41372680664062, -114.02767944335938, -1175.4188232421875, -630.1768798828125, -0.01600000075995922, 0.03200000151991844, 1.0080000162124634, 0.0, 0.0, 0.0, 0.0, 0.0, 1.602455854310152E9, 2020-10-11 17:37:34.310
88.0, -54.65489959716797, 31.07295799255371, -1074.3853759765625, -478.6866149902344, -0.01600000075995922, 0.03200000151991844, 1.0080000162124634, 0.0, 0.0, 0.0, 0.0, 0.0, 1.602455854310152E9, 2020-10-11 17:37:34.310
89.0, -31.714351654052734, 68.4009017944336, -1047.0167236328125, -375.2970886230469, -0.01600000075995922, 0.03200000151991844, 1.0080000162124634, 0.0, 0.0, 0.0, 0.0, 0.0, 1.6024558543109791E9, 2020-10-11 17:37:34.310
89.0, -174.08860778808594, -115.9238052368164, -1176.166748046875, -555.7603759765625, -0.01600000075995922, 0.03200000151991844, 1.0080000162124634, 0.0, 0.0, 0.0, 0.0, 0.0, 1.6024558543109791E9, 2020-10-11 17:37:34.310
90.0, -95.50582885742188, -25.0180606842041, -1108.3773193359375, -383.64080810546875, -0.01600000075995922, 0.03200000151991844, 1.0080000162124634, 0.0, 0.0, 0.0, 0.0, 0.0, 1.6024558543215432E9, 2020-10-11 17:37:34.321
90.0, -12.854036331176758, 88.22611236572266, -1037.3828125, -507.5549011230469, -0.01600000075995922, 0.03200000151991844, 1.0080000162124634, 0.0, 0.0, 0.0, 0.0, 0.0, 1.6024558543215432E9, 2020-10-11 17:37:34.321
91.0, -138.52963256835938, -71.27313995361328, -1152.059326171875, -568.6517944335938, -0.01600000075995922, 0.01600000075995922, 1.0080000162124634, 0.0, 0.0, 0.0, 0.0, 0.0, 1.6024558543364165E9, 2020-10-11 17:37:34.336
91.0, -141.23358154296875, -82.99398803710938, -1153.46923828125, -753.7057495117188, -0.01600000075995922, 0.01600000075995922, 1.0080000162124634, 0.0, 0.0, 0.0, 0.0, 0.0, 1.6024558543364165E9, 2020-10-11 17:37:34.336
92.0, -29.769603729248047, 72.06600189208984, -1045.3563232421875, -535.327392578125, 0.0, 0.01600000075995922, 1.0080000162124634, 0.0, 0.0, 0.0, 0.0, 0.0, 1.6024558543523493E9, 2020-10-11 17:37:34.352
92.0, -85.07524108886719, -2.2084109783172607, -1108.24267578125, -702.5626220703125, 0.0, 0.01600000075995922, 1.0080000162124634, 0.0, 0.0, 0.0, 0.0, 0.0, 1.6024558543523493E9, 2020-10-11 17:37:34.352
93.0, -181.55718994140625, -127.46514129638672, -1192.0538330078125, -638.5430297851562, 0.0, 0.01600000075995922, 1.0080000162124634, 0.0, 0.0, 0.0, 0.0, 0.0, 1.6024558543530946E9, 2020-10-11 17:37:34.353
93.0, -69.62571716308594, 19.969196319580078, -1077.6353759765625, -480.077880859375, 0.0, 0.01600000075995922, 1.0080000162124634, 0.0, 0.0, 0.0, 0.0, 0.0, 1.6024558543530946E9, 2020-10-11 17:37:34.353
94.0, -46.700130462646484, 59.84400939941406, -1050.2705078125, -379.4072265625, 0.0, 0.01600000075995922, 1.0080000162124634, 0.0, 0.0, 0.0, 0.0, 0.0, 1.6024558543664188E9, 2020-10-11 17:37:34.366
94.0, -187.2081756591797, -124.35728454589844, -1174.6820068359375, -558.4231567382812, 0.0, 0.01600000075995922, 1.0080000162124634, 0.0, 0.0, 0.0, 0.0, 0.0, 1.6024558543664188E9, 2020-10-11 17:37:34.366
95.0, -119.03353881835938, -34.94749450683594, -1109.357177734375, -390.6942443847656, 0.0, 0.01600000075995922, 1.0080000162124634, 0.0, 0.0, 0.0, 0.0, 0.0, 1.602455854382357E9, 2020-10-11 17:37:34.382
95.0, -31.2506046295166, 81.23249816894531, -1028.0555419921875, -504.40966796875, 0.0, 0.01600000075995922, 1.0080000162124634, 0.0, 0.0, 0.0, 0.0, 0.0, 1.602455854382357E9, 2020-10-11 17:37:34.382
96.0, -165.14649963378906, -86.39730072021484, -1146.4906005859375, -571.916748046875, 0.0, 0.01600000075995922, 1.0080000162124634, 0.0, 0.0, 0.0, 0.0, 0.0, 1.6024558543831935E9, 2020-10-11 17:37:34.383
96.0, -173.23590087890625, -94.46052551269531, -1147.2049560546875, -759.798095703125, 0.0, 0.01600000075995922, 1.0080000162124634, 0.0, 0.0, 0.0, 0.0, 0.0, 1.6024558543831935E9, 2020-10-11 17:37:34.383
97.0, -50.4175910949707, 55.15791320800781, -1045.55078125, -545.0399169921875, 0.0, 0.01600000075995922, 1.0080000162124634, 0.0, 0.0, 0.0, 0.0, 0.0, 1.602455854396396E9, 2020-10-11 17:37:34.396
97.0, -109.2237777709961, -20.45538330078125, -1107.195556640625, -711.8301391601562, 0.0, 0.01600000075995922, 1.0080000162124634, 0.0, 0.0, 0.0, 0.0, 0.0, 1.602455854396396E9, 2020-10-11 17:37:34.396
98.0, -195.66783142089844, -132.0166015625, -1179.53271484375, -640.8655395507812, 0.0, 0.01600000075995922, 1.0080000162124634, 0.0, 0.0, 0.0, 0.0, 0.0, 1.6024558544123E9, 2020-10-11 17:37:34.412
98.0, -84.02059173583984, 17.975830078125, -1073.31201171875, -486.4880676269531, 0.0, 0.01600000075995922, 1.0080000162124634, 0.0, 0.0, 0.0, 0.0, 0.0, 1.6024558544123E9, 2020-10-11 17:37:34.412
99.0, -59.438228607177734, 47.43128204345703, -1056.05615234375, -389.8752136230469, 0.0, 0.01600000075995922, 1.0080000162124634, 0.0, 0.0, 0.0, 0.0, 0.0, 1.602455854413211E9, 2020-10-11 17:37:34.413
99.0, -192.91151428222656, -129.19297790527344, -1190.2586669921875, -563.5355834960938, 0.0, 0.01600000075995922, 1.0080000162124634, 0.0, 0.0, 0.0, 0.0, 0.0, 1.602455854413211E9, 2020-10-11 17:37:34.413
100.0, -130.12982177734375, -52.66340255737305, -1126.4111328125, -403.596923828125, 0.0, 0.01600000075995922, 1.0080000162124634, 0.0, 0.0, 0.0, 0.0, 0.0, 1.602455854427291E9, 2020-10-11 17:37:34.427
100.0, -28.973005294799805, 77.52999877929688, -1031.2979736328125, -510.53936767578125, 0.0, 0.01600000075995922, 1.0080000162124634, 0.0, 0.0, 0.0, 0.0, 0.0, 1.602455854427291E9, 2020-10-11 17:37:34.427
0.0, -149.54176330566406, -81.2007064819336, -1140.5628662109375, -82.87057495117188, 0.0, 0.01600000075995922, 1.0080000162124634, 0.0, 0.0, 0.0, 0.0, 0.0, 1.602455854428253E9, 2020-10-11 17:37:34.428
1.0, -145.7532501220703, -90.07923126220703, -1141.849365234375, -262.6026916503906, 0.0, 0.03200000151991844, 1.0080000162124634, 0.0, 0.0, 0.0, 0.0, 0.0, 1.6024558544414191E9, 2020-10-11 17:37:34.441
1.0, -30.470834732055664, 66.7459945678711, -1037.4464111328125, -51.36752700805664, 0.0, 0.03200000151991844, 1.0080000162124634, 0.0, 0.0, 0.0, 0.0, 0.0, 1.6024558544414191E9, 2020-10-11 17:37:34.441
2.0, -100.7435531616211, -10.7073335647583, -1098.0140380859375, -216.5121612548828, 0.0, 0.03200000151991844, 1.0080000162124634, 0.0, 0.0, 0.0, 0.0, 0.0, 1.6024558544571545E9, 2020-10-11 17:37:34.457
2.0, -187.0454864501953, -127.50814819335938, -1179.405517578125, -143.85711669921875, 0.0, 0.03200000151991844, 1.0080000162124634, 0.0, 0.0, 0.0, 0.0, 0.0, 1.6024558544571545E9, 2020-10-11 17:37:34.457
3.0, -79.40742492675781, 2.7937052249908447, -1083.4583740234375, -2.333697557449341, 0.0, 0.03200000151991844, 1.0080000162124634, 0.0, 0.0, 0.0, 0.0, 0.0, 1.6024558544578621E9, 2020-10-11 17:37:34.457
3.0, -60.17686080932617, 38.259178161621094, -1064.2763671875, 97.28975677490234, 0.0, 0.03200000151991844, 1.0080000162124634, 0.0, 0.0, 0.0, 0.0, 0.0, 1.6024558544578621E9, 2020-10-11 17:37:34.457
4.0, -188.62745666503906, -131.08349609375, -1186.507568359375, -74.609130859375, 0.0, 0.03200000151991844, 1.0080000162124634, 0.0, 0.0, 0.0, 0.0, 0.0, 1.6024558544714582E9, 2020-10-11 17:37:34.471
4.0, -112.31480407714844, -36.695899963378906, -1114.9857177734375, 100.76038360595703, 0.0, 0.03200000151991844, 1.0080000162124634, 0.0, 0.0, 0.0, 0.0, 0.0, 1.6024558544714582E9, 2020-10-11 17:37:34.471
5.0, -31.319791793823242, 71.7051010131836, -1038.18310546875, -21.553043365478516, 0.0, 0.03200000151991844, 1.0080000162124634, 0.0, 0.0, 0.0, 0.0, 0.0, 1.6024558544876387E9, 2020-10-11 17:37:34.487
5.0, -166.20301818847656, -98.91287231445312, -1167.7108154296875, -96.5473861694336, 0.0, 0.03200000151991844, 1.0080000162124634, 0.0, 0.0, 0.0, 0.0, 0.0, 1.6024558544876387E9, 2020-10-11 17:37:34.487
6.0, -160.30520629882812, -93.18708801269531, -1156.2069091796875, -275.23980712890625, 0.0, 0.03200000151991844, 1.0080000162124634, 0.0, 0.0, 0.0, 0.0, 0.0, 1.6024558544878595E9, 2020-10-11 17:37:34.487
6.0, -30.867263793945312, 74.22953796386719, -1041.1900634765625, -51.58443832397461, 0.0, 0.03200000151991844, 1.0080000162124634, 0.0, 0.0, 0.0, 0.0, 0.0, 1.6024558544878595E9, 2020-10-11 17:37:34.487
7.0, -85.3837890625, 4.327064037322998, -1088.9185791015625, -204.22283935546875, 0.0, 0.03200000151991844, 1.0080000162124634, 0.0, 0.0, 0.0, 0.0, 0.0, 1.6024558545014136E9, 2020-10-11 17:37:34.501
7.0, -166.92855834960938, -115.72372436523438, -1165.43701171875, -137.20758056640625, 0.0, 0.03200000151991844, 1.0080000162124634, 0.0, 0.0, 0.0, 0.0, 0.0, 1.6024558545014136E9, 2020-10-11 17:37:34.501
8.0, -64.81059265136719, 28.789749145507812, -1069.628173828125, 9.207633972167969, 0.0, 0.03200000151991844, 1.0080000162124634, 0.0, 0.0, 0.0, 0.0, 0.0, 1.602455854517196E9, 2020-10-11 17:37:34.517
8.0, -34.786678314208984, 63.77277374267578, -1043.52001953125, 112.90383911132812, 0.0, 0.03200000151991844, 1.0080000162124634, 0.0, 0.0, 0.0, 0.0, 0.0, 1.602455854517196E9, 2020-10-11 17:37:34.517
9.0, -170.03268432617188, -115.1627426147461, -1177.6851806640625, -62.73495101928711, 0.0, 0.03200000151991844, 1.0080000162124634, 0.0, 0.0, 0.0, 0.0, 0.0, 1.602455854517868E9, 2020-10-11 17:37:34.517
9.0, -122.0235824584961, -46.43085861206055, -1133.1578369140625, 77.66650390625, 0.0, 0.03200000151991844, 1.0080000162124634, 0.0, 0.0, 0.0, 0.0, 0.0, 1.602455854517868E9, 2020-10-11 17:37:34.517
10.0, -26.476621627807617, 81.95616912841797, -1032.2479248046875, -25.479938507080078, 0.0, 0.03200000151991844, 1.0240000486373901, 0.0, 0.0, 0.0, 0.0, 0.0, 1.6024558545314417E9, 2020-10-11 17:37:34.531
10.0, -126.15617370605469, -58.94456481933594, -1124.5299072265625, -71.02256774902344, 0.0, 0.03200000151991844, 1.0240000486373901, 0.0, 0.0, 0.0, 0.0, 0.0, 1.6024558545314417E9, 2020-10-11 17:37:34.531
11.0, -148.84988403320312, -83.0706558227539, -1145.05078125, -270.23956298828125, 0.0, 0.03200000151991844, 1.0240000486373901, 0.0, 0.0, 0.0, 0.0, 0.0, 1.6024558545476043E9, 2020-10-11 17:37:34.547
11.0, -20.07391357421875, 83.17537689208984, -1027.651611328125, -49.68831253051758, 0.0, 0.03200000151991844, 1.0240000486373901, 0.0, 0.0, 0.0, 0.0, 0.0, 1.6024558545476043E9, 2020-10-11 17:37:34.547
12.0, -87.68756103515625, -4.020392417907715, -1096.18896484375, -211.36231994628906, 0.0, 0.03200000151991844, 1.0240000486373901, 0.0, 0.0, 0.0, 0.0, 0.0, 1.6024558545482984E9, 2020-10-11 17:37:34.548
12.0, -177.9238739013672, -120.4621810913086, -1180.9239501953125, -149.51185607910156, 0.0, 0.03200000151991844, 1.0240000486373901, 0.0, 0.0, 0.0, 0.0, 0.0, 1.6024558545482984E9, 2020-10-11 17:37:34.548
13.0, -68.60659790039062, 23.20233917236328, -1077.2763671875, 3.638922691345215, 0.0, 0.03200000151991844, 1.0240000486373901, 0.0, 0.0, 0.0, 0.0, 0.0, 1.6024558545618284E9, 2020-10-11 17:37:34.561
13.0, -40.36661148071289, 61.311920166015625, -1049.94140625, 106.235595703125, 0.0, 0.03200000151991844, 1.0240000486373901, 0.0, 0.0, 0.0, 0.0, 0.0, 1.6024558545618284E9, 2020-10-11 17:37:34.561
14.0, -178.60079956054688, -109.47434997558594, -1172.5914306640625, -69.47798919677734, 0.0, 0.03200000151991844, 1.0240000486373901, 0.0, 0.0, 0.0, 0.0, 0.0, 1.6024558545776358E9, 2020-10-11 17:37:34.577
14.0, -98.53701782226562, -19.38016128540039, -1103.1376953125, 105.69705200195312, 0.0, 0.03200000151991844, 1.0240000486373901, 0.0, 0.0, 0.0, 0.0, 0.0, 1.6024558545776358E9, 2020-10-11 17:37:34.577
15.0, -8.177290916442871, 96.26502227783203, -1024.5623779296875, -14.062024116516113, 0.0, 0.03200000151991844, 1.0240000486373901, 0.0, 0.0, 0.0, 0.0, 0.0, 1.602455854577876E9, 2020-10-11 17:37:34.577
15.0, -138.15377807617188, -70.77760314941406, -1139.369873046875, -82.3956069946289, 0.0, 0.03200000151991844, 1.0240000486373901, 0.0, 0.0, 0.0, 0.0, 0.0, 1.602455854577876E9, 2020-10-11 17:37:34.577
16.0, -137.9817352294922, -77.14291381835938, -1140.5628662109375, -263.5975036621094, 0.0, 0.03200000151991844, 1.0240000486373901, 0.0, 0.0, 0.0, 0.0, 0.0, 1.6024558545917158E9, 2020-10-11 17:37:34.591
16.0, -9.710650444030762, 83.47456359863281, -1031.855224609375, -44.938636779785156, 0.0, 0.03200000151991844, 1.0240000486373901, 0.0, 0.0, 0.0, 0.0, 0.0, 1.6024558545917158E9, 2020-10-11 17:37:34.591
17.0, -76.66233825683594, -0.38894960284233093, -1089.6591796875, -207.32696533203125, 0.0, 0.03200000151991844, 1.0240000486373901, 0.0, 0.0, 0.0, 0.0, 0.0, 1.60245585460719E9, 2020-10-11 17:37:34.607
17.0, -176.72335815429688, -117.30570220947266, -1175.8787841796875, -145.4540557861328, 0.0, 0.03200000151991844, 1.0240000486373901, 0.0, 0.0, 0.0, 0.0, 0.0, 1.60245585460719E9, 2020-10-11 17:37:34.607
18.0, -57.40559387207031, 32.1481819152832, -1063.6181640625, 10.797091484069824, 0.0, 0.03200000151991844, 1.0240000486373901, 0.0, 0.0, 0.0, 0.0, 0.0, 1.6024558546078663E9, 2020-10-11 17:37:34.607
18.0, -46.720699310302734, 57.878692626953125, -1060.7197265625, 99.87028503417969, 0.0, 0.03200000151991844, 1.0240000486373901, 0.0, 0.0, 0.0, 0.0, 0.0, 1.6024558546078663E9, 2020-10-11 17:37:34.607
19.0, -177.4488983154297, -118.46133422851562, -1174.7642822265625, -66.88998413085938, 0.0, 0.03200000151991844, 1.0240000486373901, 0.0, 0.0, 0.0, 0.0, 0.0, 1.6024558546217237E9, 2020-10-11 17:37:34.621
19.0, -110.23168182373047, -31.826549530029297, -1114.615478515625, 97.55155181884766, 0.0, 0.03200000151991844, 1.0240000486373901, 0.0, 0.0, 0.0, 0.0, 0.0, 1.6024558546217237E9, 2020-10-11 17:37:34.621
20.0, -5.226510047912598, 100.69680786132812, -1014.8611450195312, -8.650388717651367, 0.0, 0.03200000151991844, 1.0240000486373901, 0.0, 0.0, 0.0, 0.0, 0.0, 1.60245585463723E9, 2020-10-11 17:37:34.637
20.0, -128.43003845214844, -55.425315856933594, -1126.942138671875, -63.75968551635742, 0.0, 0.03200000151991844, 1.0240000486373901, 0.0, 0.0, 0.0, 0.0, 0.0, 1.60245585463723E9, 2020-10-11 17:37:34.637
21.0, -129.11817932128906, -65.08547973632812, -1131.4300537109375, -252.1047821044922, 0.0, 0.03200000151991844, 1.0240000486373901, 0.0, 0.0, 0.0, 0.0, 0.0, 1.602455854637889E9, 2020-10-11 17:37:34.637
21.0, -6.053028106689453, 96.75121307373047, -1014.3861694335938, -28.628934860229492, 0.0, 0.03200000151991844, 1.0240000486373901, 0.0, 0.0, 0.0, 0.0, 0.0, 1.602455854637889E9, 2020-10-11 17:37:34.637
22.0, -69.89311981201172, 18.766817092895508, -1077.324951171875, -197.4237060546875, 0.0, 0.03200000151991844, 1.0240000486373901, 0.0, 0.0, 0.0, 0.0, 0.0, 1.6024558546516335E9, 2020-10-11 17:37:34.651
22.0, -155.59292602539062, -98.2434310913086, -1153.349609375, -125.78966522216797, 0.0, 0.03200000151991844, 1.0240000486373901, 0.0, 0.0, 0.0, 0.0, 0.0, 1.6024558546516335E9, 2020-10-11 17:37:34.651
23.0, -36.940860748291016, 54.11635208129883, -1050.4088134765625, 25.281723022460938, 0.0, 0.03200000151991844, 1.0240000486373901, 0.0, 0.0, 0.0, 0.0, 0.0, 1.6024558546671836E9, 2020-10-11 17:37:34.667
23.0, -8.693397521972656, 92.9851303100586, -1023.47412109375, 132.9871063232422, 0.0, 0.03200000151991844, 1.0240000486373901, 0.0, 0.0, 0.0, 0.0, 0.0, 1.6024558546671836E9, 2020-10-11 17:37:34.667
24.0, -150.77967834472656, -93.59473419189453, -1154.4715576171875, -42.73770523071289, 0.0, 0.03200000151991844, 1.0240000486373901, 0.0, 0.0, 0.0, 0.0, 0.0, 1.6024558546678383E9, 2020-10-11 17:37:34.667
24.0, -94.2174301147461, -15.75993824005127, -1096.656494140625, 111.59861755371094, 0.0, 0.03200000151991844, 1.0240000486373901, 0.0, 0.0, 0.0, 0.0, 0.0, 1.6024558546678383E9, 2020-10-11 17:37:34.667
25.0, -3.3378608226776123, 104.885498046875, -1009.9356689453125, -4.024132251739502, 0.0, 0.03200000151991844, 1.0240000486373901, 0.0, 0.0, 0.0, 0.0, 0.0, 1.6024558546815088E9, 2020-10-11 17:37:34.681
25.0, -111.9408187866211, -35.60384750366211, -1118.1571044921875, -53.074790954589844, 0.0, 0.03200000151991844, 1.0240000486373901, 0.0, 0.0, 0.0, 0.0, 0.0, 1.6024558546815088E9, 2020-10-11 17:37:34.681
26.0, -118.9119873046875, -54.64741897583008, -1125.954833984375, -247.1942901611328, 0.0, 0.03200000151991844, 1.0240000486373901, 0.0, 0.0, 0.0, 0.0, 0.0, 1.6024558546973307E9, 2020-10-11 17:37:34.697
26.0, 16.93613624572754, 114.27638244628906, -1006.8614501953125, -22.499238967895508, 0.0, 0.03200000151991844, 1.0240000486373901, 0.0, 0.0, 0.0, 0.0, 0.0, 1.6024558546973307E9, 2020-10-11 17:37:34.697
27.0, -42.52079391479492, 46.01198959350586, -1060.31591796875, -173.86981201171875, 0.0, 0.03200000151991844, 1.0240000486373901, 0.0, 0.0, 0.0, 0.0, 0.0, 1.6024558546978996E9, 2020-10-11 17:37:34.697
27.0, -140.38275146484375, -81.38770294189453, -1148.558837890625, -109.6557388305664, 0.0, 0.03200000151991844, 1.0240000486373901, 0.0, 0.0, 0.0, 0.0, 0.0, 1.6024558546978996E9, 2020-10-11 17:37:34.697
28.0, -25.691242218017578, 60.76963424682617, -1043.512451171875, 34.30984115600586, 0.0, 0.03200000151991844, 1.0240000486373901, 0.0, 0.0, 0.0, 0.0, 0.0, 1.6024558547114203E9, 2020-10-11 17:37:34.711
28.0, 5.129272937774658, 105.09867095947266, -1020.680419921875, 135.64991760253906, 0.0, 0.03200000151991844, 1.0240000486373901, 0.0, 0.0, 0.0, 0.0, 0.0, 1.6024558547114203E9, 2020-10-11 17:37:34.711
29.0, -145.4465789794922, -89.06571960449219, -1162.20947265625, -36.59305191040039, 0.0, 0.03200000151991844, 1.0240000486373901, 0.0, 0.0, 0.0, 0.0, 0.0, 1.6024558547271855E9, 2020-10-11 17:37:34.727
29.0, -86.98820495605469, -18.071197509765625, -1108.4222412109375, 114.31004333496094, 0.0, 0.03200000151991844, 1.0240000486373901, 0.0, 0.0, 0.0, 0.0, 0.0, 1.6024558547271855E9, 2020-10-11 17:37:34.727
30.0, 7.919238090515137, 105.00143432617188, -1016.49169921875, 0.2879723012447357, 0.0, 0.03200000151991844, 1.0240000486373901, 0.0, 0.0, 0.0, 0.0, 0.0, 1.6024558547278087E9, 2020-10-11 17:37:34.727
30.0, -119.28598022460938, -51.67793655395508, -1127.93701171875, -53.20942687988281, 0.0, 0.03200000151991844, 1.0240000486373901, 0.0, 0.0, 0.0, 0.0, 0.0, 1.6024558547278087E9, 2020-10-11 17:37:34.727
31.0, -110.71412658691406, -49.48261642456055, -1124.5487060546875, -234.6057891845703, 0.0, 0.03200000151991844, 1.0240000486373901, 0.0, 0.0, 0.0, 0.0, 0.0, 1.6024558547414367E9, 2020-10-11 17:37:34.741
31.0, 13.113959312438965, 112.26057434082031, -1005.66845703125, -20.894821166992188, 0.0, 0.03200000151991844, 1.0240000486373901, 0.0, 0.0, 0.0, 0.0, 0.0, 1.6024558547414367E9, 2020-10-11 17:37:34.741
32.0, -50.890689849853516, 35.401893615722656, -1061.7781982421875, -172.6655731201172, 0.0, 0.03200000151991844, 1.0240000486373901, 0.0, 0.0, 0.0, 0.0, 0.0, 1.6024558547570937E9, 2020-10-11 17:37:34.757
32.0, -143.14280700683594, -87.61463928222656, -1147.317138671875, -113.5302734375, 0.0, 0.03200000151991844, 1.0240000486373901, 0.0, 0.0, 0.0, 0.0, 0.0, 1.6024558547570937E9, 2020-10-11 17:37:34.757
33.0, -8.958930015563965, 73.48529052734375, -1031.6832275390625, 47.7884407043457, 0.0, 0.03200000151991844, 1.0240000486373901, 0.0, 0.0, 0.0, 0.0, 0.0, 1.6024558547579715E9, 2020-10-11 17:37:34.757
33.0, 16.73792266845703, 111.73699188232422, -1010.4293212890625, 150.83016967773438, 0.0, 0.03200000151991844, 1.0240000486373901, 0.0, 0.0, 0.0, 0.0, 0.0, 1.6024558547579715E9, 2020-10-11 17:37:34.757
34.0, -126.0177993774414, -70.65419006347656, -1137.7916259765625, -15.922623634338379, 0.0, 0.03200000151991844, 1.0240000486373901, 0.0, 0.0, 0.0, 0.0, 0.0, 1.602455854771432E9, 2020-10-11 17:37:34.771
34.0, -61.467124938964844, 6.2157135009765625, -1075.6793212890625, 137.03367614746094, 0.0, 0.03200000151991844, 1.0240000486373901, 0.0, 0.0, 0.0, 0.0, 0.0, 1.602455854771432E9, 2020-10-11 17:37:34.771
35.0, 30.71392822265625, 128.94053649902344, -992.1674194335938, 24.406587600708008, 0.0, 0.03200000151991844, 1.0240000486373901, 0.0, 0.0, 0.0, 0.0, 0.0, 1.6024558548035443E9, 2020-10-11 17:37:34.803
35.0, -103.013671875, -37.99364471435547, -1112.1845703125, -35.8525505065918, 0.0, 0.03200000151991844, 1.0240000486373901, 0.0, 0.0, 0.0, 0.0, 0.0, 1.6024558548035443E9, 2020-10-11 17:37:34.803
36.0, -92.69902801513672, -37.0960693359375, -1107.1319580078125, -218.2811279296875, 0.0, 0.03200000151991844, 1.0240000486373901, 0.0, 0.0, 0.0, 0.0, 0.0, 1.6024558548042552E9, 2020-10-11 17:37:34.804
36.0, 39.345619201660156, 136.1622772216797, -981.7218627929688, 2.0569450855255127, 0.0, 0.03200000151991844, 1.0240000486373901, 0.0, 0.0, 0.0, 0.0, 0.0, 1.6024558548042552E9, 2020-10-11 17:37:34.804
37.0, -30.504493713378906, 51.86119079589844, -1050.6146240234375, -163.7346954345703, 0.0, 0.03200000151991844, 1.0240000486373901, 0.0, 0.0, 0.0, 0.0, 0.0, 1.6024558548050072E9, 2020-10-11 17:37:34.805
37.0, -121.51122283935547, -69.16944885253906, -1129.5377197265625, -93.7162857055664, 0.0, 0.03200000151991844, 1.0240000486373901, 0.0, 0.0, 0.0, 0.0, 0.0, 1.6024558548050072E9, 2020-10-11 17:37:34.805
38.0, -10.724163055419922, 74.14351654052734, -1031.0736083984375, 52.15664291381836, 0.0, 0.03200000151991844, 1.0240000486373901, 0.0, 0.0, 0.0, 0.0, 0.0, 1.602455854805889E9, 2020-10-11 17:37:34.805
38.0, 6.157745361328125, 94.79524230957031, -1022.2286987304688, 143.0848388671875, 0.0, 0.03200000151991844, 1.0240000486373901, 0.0, 0.0, 0.0, 0.0, 0.0, 1.602455854805889E9, 2020-10-11 17:37:34.805
39.0, -140.25186157226562, -87.99236297607422, -1158.5892333984375, -28.75048065185547, 0.0, 0.03200000151991844, 1.0240000486373901, 0.0, 0.0, 0.0, 0.0, 0.0, 1.6024558548166845E9, 2020-10-11 17:37:34.816
39.0, -49.95197296142578, 10.052850723266602, -1074.3779296875, 145.67283630371094, 0.0, 0.03200000151991844, 1.0240000486373901, 0.0, 0.0, 0.0, 0.0, 0.0, 1.6024558548166845E9, 2020-10-11 17:37:34.816
40.0, 34.30423355102539, 127.2874984741211, -991.0117797851562, 20.442293167114258, 0.0, 0.03200000151991844, 1.0080000162124634, 0.0, 0.0, 0.0, 0.0, 0.0, 1.6024558548314378E9, 2020-10-11 17:37:34.831
40.0, -109.24434661865234, -38.18063735961914, -1112.775390625, -40.433929443359375, 0.0, 0.03200000151991844, 1.0080000162124634, 0.0, 0.0, 0.0, 0.0, 0.0, 1.6024558548314378E9, 2020-10-11 17:37:34.831
41.0, -104.87614440917969, -43.12852478027344, -1113.6693115234375, -226.39297485351562, 0.0, 0.03200000151991844, 1.0080000162124634, 0.0, 0.0, 0.0, 0.0, 0.0, 1.6024558548636968E9, 2020-10-11 17:37:34.863
41.0, 27.549972534179688, 120.13306427001953, -995.5445556640625, -12.24443244934082, 0.0, 0.03200000151991844, 1.0080000162124634, 0.0, 0.0, 0.0, 0.0, 0.0, 1.6024558548636968E9, 2020-10-11 17:37:34.863
42.0, -39.846763610839844, 37.08858871459961, -1064.590576171875, -174.9207305908203, 0.0, 0.03200000151991844, 1.0080000162124634, 0.0, 0.0, 0.0, 0.0, 0.0, 1.602455854864251E9, 2020-10-11 17:37:34.864
42.0, -131.90814208984375, -88.66181182861328, -1150.7467041015625, -103.46994018554688, 0.0, 0.03200000151991844, 1.0080000162124634, 0.0, 0.0, 0.0, 0.0, 0.0, 1.602455854864251E9, 2020-10-11 17:37:34.864
43.0, -27.557453155517578, 56.09101867675781, -1042.00537109375, 37.66453170776367, 0.0, 0.03200000151991844, 1.0080000162124634, 0.0, 0.0, 0.0, 0.0, 0.0, 1.6024558548649452E9, 2020-10-11 17:37:34.864
43.0, 5.305047988891602, 92.36431121826172, -1026.2379150390625, 139.19534301757812, 0.0, 0.03200000151991844, 1.0080000162124634, 0.0, 0.0, 0.0, 0.0, 0.0, 1.6024558548649452E9, 2020-10-11 17:37:34.864
44.0, -133.37417602539062, -83.09309387207031, -1143.5772705078125, -20.608718872070312, 0.0, 0.03200000151991844, 1.0080000162124634, 0.0, 0.0, 0.0, 0.0, 0.0, 1.6024558548658817E9, 2020-10-11 17:37:34.865
44.0, -58.50138473510742, 2.8909425735473633, -1081.210693359375, 140.09291076660156, 0.0, 0.03200000151991844, 1.0080000162124634, 0.0, 0.0, 0.0, 0.0, 0.0, 1.6024558548658817E9, 2020-10-11 17:37:34.865
45.0, 19.243656158447266, 118.02750396728516, -1014.8873291015625, 3.9755136966705322, 0.0, 0.03200000151991844, 1.0080000162124634, 0.0, 0.0, 0.0, 0.0, 0.0, 1.602455854876544E9, 2020-10-11 17:37:34.876
45.0, -108.74694061279297, -49.7257080078125, -1129.754638671875, -43.56422424316406, 0.0, 0.03200000151991844, 1.0080000162124634, 0.0, 0.0, 0.0, 0.0, 0.0, 1.602455854876544E9, 2020-10-11 17:37:34.876
46.0, -105.19403839111328, -50.21189498901367, -1123.9390869140625, -230.18148803710938, 0.0, 0.03200000151991844, 1.0080000162124634, 0.0, 0.0, 0.0, 0.0, 0.0, 1.6024558548915367E9, 2020-10-11 17:37:34.891
46.0, 17.01467514038086, 112.77667999267578, -1007.1531982421875, -22.170127868652344, 0.0, 0.03200000151991844, 1.0080000162124634, 0.0, 0.0, 0.0, 0.0, 0.0, 1.6024558548915367E9, 2020-10-11 17:37:34.891
47.0, -48.42609405517578, 31.160846710205078, -1060.9442138671875, -172.25791931152344, 0.0, 0.03200000151991844, 1.0080000162124634, 0.0, 0.0, 0.0, 0.0, 0.0, 1.6024558549073083E9, 2020-10-11 17:37:34.907
47.0, -139.88160705566406, -89.91841125488281, -1150.8214111328125, -102.08992004394531, 0.0, 0.03200000151991844, 1.0080000162124634, 0.0, 0.0, 0.0, 0.0, 0.0, 1.6024558549073083E9, 2020-10-11 17:37:34.907
48.0, -22.407609939575195, 55.242061614990234, -1042.2933349609375, 32.80640411376953, 0.0, 0.03200000151991844, 1.0080000162124634, 0.0, 0.0, 0.0, 0.0, 0.0, 1.602455854907905E9, 2020-10-11 17:37:34.907
48.0, -13.846979141235352, 79.1923828125, -1036.16357421875, 127.7138442993164, 0.0, 0.03200000151991844, 1.0080000162124634, 0.0, 0.0, 0.0, 0.0, 0.0, 1.602455854907905E9, 2020-10-11 17:37:34.907
49.0, -139.96388244628906, -88.80766296386719, -1146.5692138671875, -26.491580963134766, 0.0, 0.03200000151991844, 1.0080000162124634, 0.0, 0.0, 0.0, 0.0, 0.0, 1.6024558549215171E9, 2020-10-11 17:37:34.921
49.0, -73.28520965576172, 0.8265178799629211, -1082.42236328125, 128.43190002441406, 0.0, 0.03200000151991844, 1.0080000162124634, 0.0, 0.0, 0.0, 0.0, 0.0, 1.6024558549215171E9, 2020-10-11 17:37:34.921
50.0, 16.81645965576172, 121.1877212524414, -1001.9996337890625, 2.0606849193573, 0.0, 0.03200000151991844, 1.0080000162124634, 0.0, 0.0, 0.0, 0.0, 0.0, 1.602455854937225E9, 2020-10-11 17:37:34.937
50.0, -136.4708251953125, -66.80583190917969, -1141.213623046875, -63.79708480834961, 0.0, 0.03200000151991844, 1.0080000162124634, 0.0, 0.0, 0.0, 0.0, 0.0, 1.602455854937225E9, 2020-10-11 17:37:34.937
51.0, -104.457275390625, -55.16726303100586, -1124.7020263671875, -233.27813720703125, 0.0, 0.03200000151991844, 1.0080000162124634, 0.0, 0.0, 0.0, 0.0, 0.0, 1.6024558549380052E9, 2020-10-11 17:37:34.938
51.0, 30.710187911987305, 116.76715850830078, -1007.0709228515625, -16.881908416748047, 0.0, 0.03200000151991844, 1.0080000162124634, 0.0, 0.0, 0.0, 0.0, 0.0, 1.6024558549380052E9, 2020-10-11 17:37:34.938
52.0, -54.18553924560547, 24.02885627746582, -1082.7215576171875, -186.34986877441406, 0.0, 0.03200000151991844, 1.0080000162124634, 0.0, 0.0, 0.0, 0.0, 0.0, 1.602455854951389E9, 2020-10-11 17:37:34.951
52.0, -136.22024536132812, -89.18913269042969, -1166.92919921875, -106.15518951416016, 0.0, 0.03200000151991844, 1.0080000162124634, 0.0, 0.0, 0.0, 0.0, 0.0, 1.602455854951389E9, 2020-10-11 17:37:34.951
53.0, -1.3220546245574951, 70.62801361083984, -1041.7584228515625, 44.029842376708984, 0.0, 0.03200000151991844, 1.0080000162124634, 0.0, 0.0, 0.0, 0.0, 0.0, 1.6024558549835093E9, 2020-10-11 17:37:34.983
53.0, 10.077160835266113, 97.01300811767578, -1038.014892578125, 133.68272399902344, 0.0, 0.03200000151991844, 1.0080000162124634, 0.0, 0.0, 0.0, 0.0, 0.0, 1.6024558549835093E9, 2020-10-11 17:37:34.983
54.0, -128.3215789794922, -85.2360610961914, -1170.2315673828125, -23.68291664123535, 0.0, 0.03200000151991844, 1.0080000162124634, 0.0, 0.0, 0.0, 0.0, 0.0, 1.602455854984658E9, 2020-10-11 17:37:34.984
54.0, -51.28337860107422, 12.42394733428955, -1095.7027587890625, 135.4404754638672, 0.0, 0.03200000151991844, 1.0080000162124634, 0.0, 0.0, 0.0, 0.0, 0.0, 1.602455854984658E9, 2020-10-11 17:37:34.984
55.0, 29.719114303588867, 123.57003784179688, -1007.2279663085938, 3.66884183883667, 0.0, 0.03200000151991844, 1.0080000162124634, 0.0, 0.0, 0.0, 0.0, 0.0, 1.6024558549849696E9, 2020-10-11 17:37:34.984
55.0, -94.90930938720703, -38.13576126098633, -1133.1541748046875, -34.43512725830078, 0.0, 0.03200000151991844, 1.0080000162124634, 0.0, 0.0, 0.0, 0.0, 0.0, 1.6024558549849696E9, 2020-10-11 17:37:34.984
56.0, -91.75283813476562, -40.9406852722168, -1129.27587890625, -224.60903930664062, 0.0, 0.03200000151991844, 1.0080000162124634, 0.0, 0.0, 0.0, 0.0, 0.0, 1.602455854986128E9, 2020-10-11 17:37:34.986
56.0, 15.533674240112305, 107.01349639892578, -1025.5123291015625, -27.57054328918457, 0.0, 0.03200000151991844, 1.0080000162124634, 0.0, 0.0, 0.0, 0.0, 0.0, 1.602455854986128E9, 2020-10-11 17:37:34.986
57.0, -53.00747299194336, 26.40369415283203, -1087.05615234375, -181.08035278320312, 0.0, 0.03200000151991844, 1.0080000162124634, 0.0, 0.0, 0.0, 0.0, 0.0, 1.6024558549967947E9, 2020-10-11 17:37:34.996
57.0, -134.20443725585938, -92.10999298095703, -1169.603271484375, -107.90546417236328, 0.0, 0.03200000151991844, 1.0080000162124634, 0.0, 0.0, 0.0, 0.0, 0.0, 1.6024558549967947E9, 2020-10-11 17:37:34.996
58.0, -27.957622528076172, 43.981224060058594, -1069.026123046875, 22.850788116455078, 0.0, 0.03200000151991844, 1.0080000162124634, 0.0, 0.0, 0.0, 0.0, 0.0, 1.6024558550114295E9, 2020-10-11 17:37:35.011
58.0, 3.850227117538452, 87.08731079101562, -1042.42041015625, 124.83038330078125, 0.0, 0.03200000151991844, 1.0080000162124634, 0.0, 0.0, 0.0, 0.0, 0.0, 1.6024558550114295E9, 2020-10-11 17:37:35.011
59.0, -138.42678833007812, -88.64311218261719, -1169.45361328125, -28.006240844726562, 0.0, 0.03200000151991844, 1.0080000162124634, 0.0, 0.0, 0.0, 0.0, 0.0, 1.602455855027138E9, 2020-10-11 17:37:35.027
59.0, -76.18737030029297, -5.867903232574463, -1102.243896484375, 124.77428436279297, 0.0, 0.03200000151991844, 1.0080000162124634, 0.0, 0.0, 0.0, 0.0, 0.0, 1.602455855027138E9, 2020-10-11 17:37:35.027
60.0, 23.30892562866211, 118.3790512084961, -1020.2428588867188, -2.7039477825164795, 0.0, 0.03200000151991844, 1.0080000162124634, 0.0, 0.0, 0.0, 0.0, 0.0, 1.6024558550280173E9, 2020-10-11 17:37:35.028
60.0, -107.07146453857422, -43.854068756103516, -1136.9576416015625, -44.30098342895508, 0.0, 0.03200000151991844, 1.0080000162124634, 0.0, 0.0, 0.0, 0.0, 0.0, 1.6024558550280173E9, 2020-10-11 17:37:35.028
61.0, -108.36173248291016, -51.419883728027344, -1137.986083984375, -231.8532257080078, 0.0, 0.03200000151991844, 1.0080000162124634, 0.0, 0.0, 0.0, 0.0, 0.0, 1.6024558550414333E9, 2020-10-11 17:37:35.041
61.0, -3.7567296028137207, 88.0260238647461, -1037.2706298828125, -42.70591735839844, 0.0, 0.03200000151991844, 1.0080000162124634, 0.0, 0.0, 0.0, 0.0, 0.0, 1.6024558550414333E9, 2020-10-11 17:37:35.041
62.0, -65.23320770263672, 19.933666229248047, -1088.510986328125, -191.80264282226562, 0.0, 0.03200000151991844, 1.0080000162124634, 0.0, 0.0, 0.0, 0.0, 0.0, 1.6024558550572739E9, 2020-10-11 17:37:35.057
62.0, -142.0208282470703, -93.22822570800781, -1160.863037109375, -111.49576568603516, 0.0, 0.03200000151991844, 1.0080000162124634, 0.0, 0.0, 0.0, 0.0, 0.0, 1.6024558550572739E9, 2020-10-11 17:37:35.057
63.0, -33.1635627746582, 44.003662109375, -1064.590576171875, 18.94259262084961, 0.0, 0.03200000151991844, 1.0080000162124634, 0.0, 0.0, 0.0, 0.0, 0.0, 1.6024558550579069E9, 2020-10-11 17:37:35.057
63.0, -5.286348819732666, 88.92359924316406, -1039.7576904296875, 122.39570617675781, 0.0, 0.03200000151991844, 1.0080000162124634, 0.0, 0.0, 0.0, 0.0, 0.0, 1.6024558550579069E9, 2020-10-11 17:37:35.057
64.0, -154.740234375, -109.91565704345703, -1181.305419921875, -40.17213439941406, 0.0, 0.03200000151991844, 1.0080000162124634, 0.0, 0.0, 0.0, 0.0, 0.0, 1.6024558550714712E9, 2020-10-11 17:37:35.071
64.0, -83.81302642822266, -19.137067794799805, -1107.7677001953125, 115.08045959472656, 0.0, 0.03200000151991844, 1.0080000162124634, 0.0, 0.0, 0.0, 0.0, 0.0, 1.6024558550714712E9, 2020-10-11 17:37:35.071
65.0, 5.944571018218994, 103.31473541259766, -1023.2609252929688, -12.674520492553711, 0.0, 0.03200000151991844, 1.0080000162124634, 0.0, 0.0, 0.0, 0.0, 0.0, 1.6024558550870953E9, 2020-10-11 17:37:35.087
65.0, -113.5489730834961, -58.0245475769043, -1140.3011474609375, -51.223541259765625, 0.0, 0.03200000151991844, 1.0080000162124634, 0.0, 0.0, 0.0, 0.0, 0.0, 1.6024558550870953E9, 2020-10-11 17:37:35.087
66.0, -120.38176727294922, -69.2966079711914, -1152.8970947265625, -244.47164916992188, 0.0, 0.03200000151991844, 1.0080000162124634, 0.0, 0.0, 0.0, 0.0, 0.0, 1.6024558550878189E9, 2020-10-11 17:37:35.087
66.0, 4.583247184753418, 92.37178802490234, -1032.240478515625, -43.16218566894531, 0.0, 0.03200000151991844, 1.0080000162124634, 0.0, 0.0, 0.0, 0.0, 0.0, 1.6024558550878189E9, 2020-10-11 17:37:35.087
67.0, -65.13970947265625, 14.095683097839355, -1096.117919921875, -188.69851684570312, 0.0, 0.03200000151991844, 1.0080000162124634, 0.0, 0.0, 0.0, 0.0, 0.0, 1.602455855101423E9, 2020-10-11 17:37:35.101
67.0, -154.83746337890625, -111.38543701171875, -1186.3355712890625, -119.59638977050781, 0.0, 0.03200000151991844, 1.0080000162124634, 0.0, 0.0, 0.0, 0.0, 0.0, 1.602455855101423E9, 2020-10-11 17:37:35.101
68.0, -29.318944931030273, 43.19584274291992, -1064.6953125, 22.600215911865234, 0.0, 0.03200000151991844, 1.0080000162124634, 0.0, 0.0, 0.0, 0.0, 0.0, 1.6024558551172216E9, 2020-10-11 17:37:35.117
68.0, -0.6301731467247009, 87.74927520751953, -1041.9566650390625, 126.1468276977539, 0.0, 0.03200000151991844, 1.0080000162124634, 0.0, 0.0, 0.0, 0.0, 0.0, 1.6024558551172216E9, 2020-10-11 17:37:35.117
69.0, -143.6701202392578, -104.41053009033203, -1174.9998779296875, -30.91962242126465, 0.0, 0.03200000151991844, 1.0080000162124634, 0.0, 0.0, 0.0, 0.0, 0.0, 1.602455855118071E9, 2020-10-11 17:37:35.118
69.0, -64.12993621826172, 2.6216697692871094, -1089.53564453125, 134.45687866210938, 0.0, 0.03200000151991844, 1.0080000162124634, 0.0, 0.0, 0.0, 0.0, 0.0, 1.602455855118071E9, 2020-10-11 17:37:35.118
70.0, 27.680870056152344, 119.88997650146484, -1007.0372314453125, 2.718907356262207, 0.0, 0.03200000151991844, 1.0080000162124634, 0.0, 0.0, 0.0, 0.0, 0.0, 1.602455855131884E9, 2020-10-11 17:37:35.131
70.0, -106.49925994873047, -46.10922622680664, -1129.907958984375, -44.81709289550781, 0.0, 0.03200000151991844, 1.0080000162124634, 0.0, 0.0, 0.0, 0.0, 0.0, 1.602455855131884E9, 2020-10-11 17:37:35.131
71.0, -107.77830505371094, -51.29646682739258, -1124.0960693359375, -227.70193481445312, 0.0, 0.03200000151991844, 1.0080000162124634, 0.0, 0.0, 0.0, 0.0, 0.0, 1.6024558551475072E9, 2020-10-11 17:37:35.147
71.0, 8.00899600982666, 102.53683471679688, -1016.31591796875, -36.55004119873047, 0.0, 0.03200000151991844, 1.0080000162124634, 0.0, 0.0, 0.0, 0.0, 0.0, 1.6024558551475072E9, 2020-10-11 17:37:35.147
72.0, -63.778385162353516, 19.90374755859375, -1080.07373046875, -187.6251678466797, 0.0, 0.03200000151991844, 1.0080000162124634, 0.0, 0.0, 0.0, 0.0, 0.0, 1.6024558551481311E9, 2020-10-11 17:37:35.148
72.0, -150.56275939941406, -102.05065155029297, -1161.6185302734375, -107.56139373779297, 0.0, 0.03200000151991844, 1.0080000162124634, 0.0, 0.0, 0.0, 0.0, 0.0, 1.6024558551481311E9, 2020-10-11 17:37:35.148
73.0, -42.34501647949219, 40.211402893066406, -1062.440185546875, 17.55883026123047, 0.0, 0.03200000151991844, 1.0080000162124634, 0.0, 0.0, 0.0, 0.0, 0.0, 1.602455855161707E9, 2020-10-11 17:37:35.161
73.0, -19.456829071044922, 77.19901275634766, -1043.9613037109375, 112.43635559082031, 0.0, 0.03200000151991844, 1.0080000162124634, 0.0, 0.0, 0.0, 0.0, 0.0, 1.602455855161707E9, 2020-10-11 17:37:35.161
74.0, -171.771728515625, -115.08794403076172, -1180.5948486328125, -45.04896545410156, 0.0, 0.03200000151991844, 1.0080000162124634, 0.0, 0.0, 0.0, 0.0, 0.0, 1.6024558551771164E9, 2020-10-11 17:37:35.177
74.0, -82.5377197265625, -12.562323570251465, -1103.208740234375, 122.50416564941406, 0.0, 0.03200000151991844, 1.0080000162124634, 0.0, 0.0, 0.0, 0.0, 0.0, 1.6024558551771164E9, 2020-10-11 17:37:35.177
75.0, 10.649365425109863, 113.28904724121094, -1013.346435546875, -3.2013542652130127, 0.0, 0.03200000151991844, 1.0080000162124634, 0.0, 0.0, 0.0, 0.0, 0.0, 1.6024558551778567E9, 2020-10-11 17:37:35.177
75.0, -125.44933319091797, -57.75153350830078, -1141.32958984375, -52.05379867553711, 0.0, 0.03200000151991844, 1.0080000162124634, 0.0, 0.0, 0.0, 0.0, 0.0, 1.6024558551778567E9, 2020-10-11 17:37:35.177
76.0, -136.52691650390625, -78.9754638671875, -1146.5692138671875, -247.86000061035156, 0.0, 0.03200000151991844, 1.0080000162124634, 0.0, 0.0, 0.0, 0.0, 0.0, 1.6024558551914449E9, 2020-10-11 17:37:35.191
76.0, -16.977275848388672, 78.0704116821289, -1037.8465576171875, -50.17449951171875, 0.0, 0.03200000151991844, 1.0080000162124634, 0.0, 0.0, 0.0, 0.0, 0.0, 1.6024558551914449E9, 2020-10-11 17:37:35.191
77.0, -83.28944396972656, 7.838830471038818, -1097.030517578125, -198.0183563232422, 0.0, 0.03200000151991844, 1.0080000162124634, 0.0, 0.0, 0.0, 0.0, 0.0, 1.602455855207132E9, 2020-10-11 17:37:35.207
77.0, -171.9437713623047, -112.38399505615234, -1178.7958984375, -119.61882781982422, 0.0, 0.03200000151991844, 1.0080000162124634, 0.0, 0.0, 0.0, 0.0, 0.0, 1.602455855207132E9, 2020-10-11 17:37:35.207
78.0, -46.84037780761719, 43.25568389892578, -1069.9273681640625, 8.440954208374023, 0.0, 0.03200000151991844, 1.0080000162124634, 0.0, 0.0, 0.0, 0.0, 0.0, 1.602455855207838E9, 2020-10-11 17:37:35.207
78.0, -13.828280448913574, 82.40121459960938, -1038.026123046875, 118.60344696044922, 0.0, 0.03200000151991844, 1.0080000162124634, 0.0, 0.0, 0.0, 0.0, 0.0, 1.602455855207838E9, 2020-10-11 17:37:35.207
79.0, -153.64443969726562, -100.1507797241211, -1161.9215087890625, -32.217369079589844, 0.0, 0.03200000151991844, 1.0080000162124634, 0.0, 0.0, 0.0, 0.0, 0.0, 1.6024558552216685E9, 2020-10-11 17:37:35.221
79.0, -78.41635131835938, -2.932081460952759, -1095.613037109375, 125.23429107666016, 0.0, 0.03200000151991844, 1.0080000162124634, 0.0, 0.0, 0.0, 0.0, 0.0, 1.6024558552216685E9, 2020-10-11 17:37:35.221
80.0, 9.568533897399902, 111.62479400634766, -1010.2236328125, -5.501392841339111, 0.0, 0.03200000151991844, 1.0080000162124634, 0.0, 0.0, 0.0, 0.0, 0.0, 1.6024558552372577E9, 2020-10-11 17:37:35.237
80.0, -125.22493743896484, -53.87699890136719, -1138.2479248046875, -55.00083923339844, 0.0, 0.03200000151991844, 1.0080000162124634, 0.0, 0.0, 0.0, 0.0, 0.0, 1.6024558552372577E9, 2020-10-11 17:37:35.237
81.0, -132.99270629882812, -70.51207733154297, -1145.353759765625, -244.2734375, 0.0, 0.03200000151991844, 1.0080000162124634, 0.0, 0.0, 0.0, 0.0, 0.0, 1.602455855237822E9, 2020-10-11 17:37:35.237
81.0, -5.189111232757568, 97.34585571289062, -1021.1890258789062, -44.05602264404297, 0.0, 0.03200000151991844, 1.0080000162124634, 0.0, 0.0, 0.0, 0.0, 0.0, 1.602455855237822E9, 2020-10-11 17:37:35.237
82.0, -57.996498107910156, 25.898807525634766, -1073.1998291015625, -183.4776153564453, 0.0, 0.03200000151991844, 1.0080000162124634, 0.0, 0.0, 0.0, 0.0, 0.0, 1.6024558552515798E9, 2020-10-11 17:37:35.251
82.0, -158.0350799560547, -104.28337097167969, -1164.266357421875, -107.2098388671875, 0.0, 0.03200000151991844, 1.0080000162124634, 0.0, 0.0, 0.0, 0.0, 0.0, 1.6024558552515798E9, 2020-10-11 17:37:35.251
83.0, -26.031574249267578, 59.56912612915039, -1039.1966552734375, 28.43071937561035, 0.0, 0.03200000151991844, 1.0080000162124634, 0.0, 0.0, 0.0, 0.0, 0.0, 1.602455855267094E9, 2020-10-11 17:37:35.267
83.0, -14.983909606933594, 81.48493957519531, -1036.03271484375, 122.38448333740234, 0.0, 0.03200000151991844, 1.0080000162124634, 0.0, 0.0, 0.0, 0.0, 0.0, 1.602455855267094E9, 2020-10-11 17:37:35.267
84.0, -159.575927734375, -100.9959945678711, -1169.3115234375, -34.16211700439453, 0.0, 0.03200000151991844, 1.0080000162124634, 0.0, 0.0, 0.0, 0.0, 0.0, 1.602455855267822E9, 2020-10-11 17:37:35.267
84.0, -87.29861450195312, -17.596229553222656, -1109.742431640625, 117.24212646484375, 0.0, 0.03200000151991844, 1.0080000162124634, 0.0, 0.0, 0.0, 0.0, 0.0, 1.602455855267822E9, 2020-10-11 17:37:35.267
85.0, -0.31228163838386536, 104.47410583496094, -1022.842041015625, -20.397415161132812, 0.0, 0.03200000151991844, 1.0080000162124634, 0.0, 0.0, 0.0, 0.0, 0.0, 1.6024558552814074E9, 2020-10-11 17:37:35.281
85.0, -122.51725006103516, -59.12407684326172, -1142.36181640625, -50.03799057006836, 0.0, 0.03200000151991844, 1.0080000162124634, 0.0, 0.0, 0.0, 0.0, 0.0, 1.6024558552814074E9, 2020-10-11 17:37:35.281
86.0, -129.82501220703125, -76.00972747802734, -1155.35791015625, -249.5279998779297, 0.0, 0.03200000151991844, 1.0080000162124634, 0.0, 0.0, 0.0, 0.0, 0.0, 1.6024558552975132E9, 2020-10-11 17:37:35.297
86.0, -12.739969253540039, 79.14749908447266, -1041.021728515625, -53.83211898803711, 0.0, 0.03200000151991844, 1.0080000162124634, 0.0, 0.0, 0.0, 0.0, 0.0, 1.6024558552975132E9, 2020-10-11 17:37:35.297
87.0, -77.54121398925781, -2.4010157585144043, -1115.1165771484375, -200.2286376953125, 0.0, 0.03200000151991844, 1.0080000162124634, 0.0, 0.0, 0.0, 0.0, 0.0, 1.6024558552982907E9, 2020-10-11 17:37:35.298
87.0, -169.0977020263672, -119.6618423461914, -1193.5498046875, -126.0140609741211, 0.0, 0.03200000151991844, 1.0080000162124634, 0.0, 0.0, 0.0, 0.0, 0.0, 1.6024558552982907E9, 2020-10-11 17:37:35.298
88.0, -31.8433780670166, 49.29561996459961, -1065.0093994140625, 19.922447204589844, 0.0, 0.03200000151991844, 1.0080000162124634, 0.0, 0.0, 0.0, 0.0, 0.0, 1.6024558553117032E9, 2020-10-11 17:37:35.311
88.0, -10.720423698425293, 80.62476348876953, -1048.76708984375, 111.1124267578125, 0.0, 0.03200000151991844, 1.0080000162124634, 0.0, 0.0, 0.0, 0.0, 0.0, 1.6024558553117032E9, 2020-10-11 17:37:35.311
89.0, -150.05039978027344, -102.98188781738281, -1182.105712890625, -28.885116577148438, 0.0, 0.03200000151991844, 1.0080000162124634, 0.0, 0.0, 0.0, 0.0, 0.0, 1.6024558553274612E9, 2020-10-11 17:37:35.327
89.0, -65.25190734863281, -7.225486755371094, -1104.5028076171875, 123.80938720703125, 0.0, 0.03200000151991844, 1.0080000162124634, 0.0, 0.0, 0.0, 0.0, 0.0, 1.6024558553274612E9, 2020-10-11 17:37:35.327
90.0, 17.65793800354004, 104.50402069091797, -1027.3037109375, -14.970819473266602, 0.0, 0.03200000151991844, 1.0080000162124634, 0.0, 0.0, 0.0, 0.0, 0.0, 1.6024558553283188E9, 2020-10-11 17:37:35.328
90.0, -129.86988830566406, -70.62801361083984, -1157.867431640625, -60.894920349121094, 0.0, 0.03200000151991844, 1.0080000162124634, 0.0, 0.0, 0.0, 0.0, 0.0, 1.6024558553283188E9, 2020-10-11 17:37:35.328
91.0, -139.2196502685547, -90.00817108154297, -1165.8333740234375, -254.6927947998047, 0.0, 0.03200000151991844, 1.0080000162124634, 0.0, 0.0, 0.0, 0.0, 0.0, 1.6024558553414247E9, 2020-10-11 17:37:35.341
91.0, -14.220969200134277, 76.94096374511719, -1046.208984375, -61.932743072509766, 0.0, 0.03200000151991844, 1.0080000162124634, 0.0, 0.0, 0.0, 0.0, 0.0, 1.6024558553414247E9, 2020-10-11 17:37:35.341
92.0, -69.13018035888672, 6.387749195098877, -1103.72119140625, -200.41937255859375, 0.0, 0.03200000151991844, 1.0080000162124634, 0.0, 0.0, 0.0, 0.0, 0.0, 1.602455855357229E9, 2020-10-11 17:37:35.357
92.0, -163.7683563232422, -114.4446792602539, -1183.246337890625, -122.88002014160156, 0.0, 0.03200000151991844, 1.0080000162124634, 0.0, 0.0, 0.0, 0.0, 0.0, 1.602455855357229E9, 2020-10-11 17:37:35.357
93.0, -44.60017776489258, 33.520721435546875, -1076.4422607421875, 9.869595527648926, 0.0, 0.03200000151991844, 1.0080000162124634, 0.0, 0.0, 0.0, 0.0, 0.0, 1.6024558553581853E9, 2020-10-11 17:37:35.358
93.0, -29.43488311767578, 64.02334594726562, -1056.501220703125, 100.15826416015625, 0.0, 0.03200000151991844, 1.0080000162124634, 0.0, 0.0, 0.0, 0.0, 0.0, 1.6024558553581853E9, 2020-10-11 17:37:35.358
94.0, -179.43104553222656, -127.57172393798828, -1199.9862060546875, -50.408241271972656, 0.0, 0.03200000151991844, 1.0080000162124634, 0.0, 0.0, 0.0, 0.0, 0.0, 1.6024558553714173E9, 2020-10-11 17:37:35.371
94.0, -101.7271499633789, -27.963232040405273, -1123.7520751953125, 101.04461669921875, 0.0, 0.03200000151991844, 1.0080000162124634, 0.0, 0.0, 0.0, 0.0, 0.0, 1.6024558553714173E9, 2020-10-11 17:37:35.371
95.0, -5.106833457946777, 97.4393539428711, -1027.7301025390625, -22.054189682006836, 0.0, 0.03200000151991844, 1.0080000162124634, 0.0, 0.0, 0.0, 0.0, 0.0, 1.6024558553875608E9, 2020-10-11 17:37:35.387
95.0, -155.91830444335938, -83.39977264404297, -1158.3424072265625, -72.07347869873047, 0.0, 0.03200000151991844, 1.0080000162124634, 0.0, 0.0, 0.0, 0.0, 0.0, 1.6024558553875608E9, 2020-10-11 17:37:35.387
96.0, -164.72950744628906, -100.26671600341797, -1167.7071533203125, -266.67169189453125, 0.0, 0.03200000151991844, 1.0080000162124634, 0.0, 0.0, 0.0, 0.0, 0.0, 1.602455855388113E9, 2020-10-11 17:37:35.388
96.0, -18.510635375976562, 76.36127471923828, -1034.2113037109375, -63.234230041503906, 0.0, 0.03200000151991844, 1.0080000162124634, 0.0, 0.0, 0.0, 0.0, 0.0, 1.602455855388113E9, 2020-10-11 17:37:35.388
97.0, -78.6183090209961, 5.972620010375977, -1094.46484375, -202.4800567626953, 0.0, 0.03200000151991844, 1.0080000162124634, 0.0, 0.0, 0.0, 0.0, 0.0, 1.6024558554181964E9, 2020-10-11 17:37:35.418
97.0, -174.4420166015625, -120.32006072998047, -1193.0186767578125, -123.38117218017578, 0.0, 0.03200000151991844, 1.0080000162124634, 0.0, 0.0, 0.0, 0.0, 0.0, 1.6024558554181964E9, 2020-10-11 17:37:35.418
98.0, -40.3179931640625, 38.82390213012695, -1065.64892578125, 10.490419387817383, 0.0, 0.03200000151991844, 1.0080000162124634, 0.0, 0.0, 0.0, 0.0, 0.0, 1.6024558554190073E9, 2020-10-11 17:37:35.419
98.0, -7.096460342407227, 84.15896606445312, -1035.916748046875, 117.84798431396484, 0.0, 0.03200000151991844, 1.0080000162124634, 0.0, 0.0, 0.0, 0.0, 0.0, 1.6024558554190073E9, 2020-10-11 17:37:35.419
99.0, -163.66363525390625, -111.80805206298828, -1191.638671875, -45.90540313720703, 0.0, 0.03200000151991844, 1.0080000162124634, 0.0, 0.0, 0.0, 0.0, 0.0, 1.6024558554198377E9, 2020-10-11 17:37:35.419
99.0, -94.31466674804688, -20.782623291015625, -1115.6439208984375, 106.27299499511719, 0.0, 0.03200000151991844, 1.0080000162124634, 0.0, 0.0, 0.0, 0.0, 0.0, 1.6024558554198377E9, 2020-10-11 17:37:35.419
100.0, -7.264755725860596, 93.25066375732422, -1029.8917236328125, -30.180992126464844, 0.0, 0.03200000151991844, 1.0080000162124634, 0.0, 0.0, 0.0, 0.0, 0.0, 1.6024558554321816E9, 2020-10-11 17:37:35.432
100.0, -150.00177001953125, -87.14714813232422, -1165.21630859375, -74.18278503417969, 0.0, 0.03200000151991844, 1.0080000162124634, 0.0, 0.0, 0.0, 0.0, 0.0, 1.6024558554321816E9, 2020-10-11 17:37:35.432
0.0, -144.29095458984375, -88.50659942626953, -1163.361328125, -258.1297607421875, 0.0, 0.03200000151991844, 1.0080000162124634, 0.0, 0.0, 0.0, 0.0, 0.0, 1.602455855433117E9, 2020-10-11 17:37:35.433
1.0, -22.852659225463867, 70.43914794921875, -1055.895263671875, -68.2307357788086, 0.0, 0.03200000151991844, 1.0080000162124634, 0.0, 0.0, 0.0, 0.0, 0.0, 1.6024558554465177E9, 2020-10-11 17:37:35.446
1.0, -80.8472900390625, 2.4515044689178467, -1112.8951416015625, -208.05624389648438, 0.0, 0.03200000151991844, 1.0080000162124634, 0.0, 0.0, 0.0, 0.0, 0.0, 1.6024558554465177E9, 2020-10-11 17:37:35.446
2.0, -177.31053161621094, -128.69557189941406, -1194.0396728515625, -128.0223846435547, 0.0, 0.03200000151991844, 1.0080000162124634, 0.0, 0.0, 0.0, 0.0, 0.0, 1.602455855462356E9, 2020-10-11 17:37:35.462
2.0, -59.799129486083984, 20.578800201416016, -1090.3509521484375, -3.6763217449188232, 0.0, 0.03200000151991844, 1.0080000162124634, 0.0, 0.0, 0.0, 0.0, 0.0, 1.602455855462356E9, 2020-10-11 17:37:35.462
3.0, -26.237268447875977, 63.27723693847656, -1059.837158203125, 100.9137191772461, 0.0, 0.03200000151991844, 1.0080000162124634, 0.0, 0.0, 0.0, 0.0, 0.0, 1.6024558554629924E9, 2020-10-11 17:37:35.462
3.0, -185.9422149658203, -132.93661499023438, -1199.2718505859375, -53.418861389160156, 0.0, 0.03200000151991844, 1.0080000162124634, 0.0, 0.0, 0.0, 0.0, 0.0, 1.6024558554629924E9, 2020-10-11 17:37:35.462
4.0, -97.26171112060547, -33.784385681152344, -1122.6636962890625, 101.9795913696289, 0.0, 0.03200000151991844, 1.0080000162124634, 0.0, 0.0, 0.0, 0.0, 0.0, 1.602455855476437E9, 2020-10-11 17:37:35.476
4.0, 4.7814621925354, 93.72002410888672, -1028.582763671875, -22.01679039001465, 0.0, 0.03200000151991844, 1.0080000162124634, 0.0, 0.0, 0.0, 0.0, 0.0, 1.602455855476437E9, 2020-10-11 17:37:35.476
5.0, -147.42498779296875, -81.14273834228516, -1155.8216552734375, -69.62010955810547, 0.0, 0.03200000151991844, 1.0080000162124634, 0.0, 0.0, 0.0, 0.0, 0.0, 1.6024558554922123E9, 2020-10-11 17:37:35.492
5.0, -149.59039306640625, -96.31177520751953, -1166.09521484375, -262.0491943359375, 0.0, 0.03200000151991844, 1.0080000162124634, 0.0, 0.0, 0.0, 0.0, 0.0, 1.6024558554922123E9, 2020-10-11 17:37:35.492
6.0, -4.24665641784668, 78.14334106445312, -1044.099609375, -58.888465881347656, 0.0, 0.03200000151991844, 1.0080000162124634, 0.0, 0.0, 0.0, 0.0, 0.0, 1.6024558554929824E9, 2020-10-11 17:37:35.492
6.0, -76.50526428222656, -0.7909888625144958, -1109.80224609375, -206.81459045410156, 0.0, 0.03200000151991844, 1.0080000162124634, 0.0, 0.0, 0.0, 0.0, 0.0, 1.6024558554929824E9, 2020-10-11 17:37:35.492
7.0, -174.7898406982422, -125.07908630371094, -1192.85791015625, -130.43087768554688, 0.0, 0.03200000151991844, 1.0080000162124634, 0.0, 0.0, 0.0, 0.0, 0.0, 1.6024558555065837E9, 2020-10-11 17:37:35.506
7.0, -60.40125274658203, 21.596052169799805, -1094.449951171875, -8.878522872924805, 0.0, 0.03200000151991844, 1.0080000162124634, 0.0, 0.0, 0.0, 0.0, 0.0, 1.6024558555065837E9, 2020-10-11 17:37:35.506
8.0, -14.486502647399902, 76.85307312011719, -1052.7164306640625, 109.34719848632812, 0.0, 0.03200000151991844, 1.0080000162124634, 0.0, 0.0, 0.0, 0.0, 0.0, 1.6024558555221536E9, 2020-10-11 17:37:35.522
8.0, -171.92881774902344, -121.0362548828125, -1195.75634765625, -44.70863342285156, 0.0, 0.03200000151991844, 1.0080000162124634, 0.0, 0.0, 0.0, 0.0, 0.0, 1.6024558555221536E9, 2020-10-11 17:37:35.522
9.0, -99.4383316040039, -30.803686141967773, -1124.1634521484375, 97.97042083740234, 0.0, 0.03200000151991844, 1.0080000162124634, 0.0, 0.0, 0.0, 0.0, 0.0, 1.6024558555228412E9, 2020-10-11 17:37:35.522
9.0, -0.0018699499778449535, 97.27666473388672, -1033.7064208984375, -30.450265884399414, 0.0, 0.03200000151991844, 1.0080000162124634, 0.0, 0.0, 0.0, 0.0, 0.0, 1.6024558555228412E9, 2020-10-11 17:37:35.522
10.0, -130.64031982421875, -69.4667739868164, -1156.375244140625, -67.39486694335938, 0.0, 0.03200000151991844, 1.0080000162124634, 0.0, 0.0, 0.0, 0.0, 0.0, 1.602455855536545E9, 2020-10-11 17:37:35.536
10.0, -144.59014892578125, -89.15360260009766, -1164.135498046875, -257.80438232421875, 0.0, 0.03200000151991844, 1.0080000162124634, 0.0, 0.0, 0.0, 0.0, 0.0, 1.602455855536545E9, 2020-10-11 17:37:35.536
11.0, -5.914651870727539, 83.43155670166016, -1044.3277587890625, -57.94601058959961, 0.0, 0.03200000151991844, 1.0080000162124634, 0.0, 0.0, 0.0, 0.0, 0.0, 1.6024558555522249E9, 2020-10-11 17:37:35.552
11.0, -79.84125518798828, -5.020815849304199, -1114.49951171875, -210.67044067382812, 0.0, 0.03200000151991844, 1.0080000162124634, 0.0, 0.0, 0.0, 0.0, 0.0, 1.6024558555522249E9, 2020-10-11 17:37:35.552
12.0, -172.01109313964844, -129.90728759765625, -1196.212646484375, -134.75794982910156, -0.01600000075995922, 0.03200000151991844, 1.0080000162124634, 0.0, 0.0, 0.0, 0.0, 0.0, 1.6024558555528398E9, 2020-10-11 17:37:35.552
12.0, -46.88525390625, 31.170196533203125, -1076.2777099609375, 2.225240468978882, -0.01600000075995922, 0.03200000151991844, 1.0080000162124634, 0.0, 0.0, 0.0, 0.0, 0.0, 1.6024558555528398E9, 2020-10-11 17:37:35.552
13.0, -23.94470977783203, 57.8543815612793, -1061.7183837890625, 94.5110092163086, -0.01600000075995922, 0.03200000151991844, 1.0080000162124634, 0.0, 0.0, 0.0, 0.0, 0.0, 1.6024558555663958E9, 2020-10-11 17:37:35.566
13.0, -168.11036682128906, -120.08258056640625, -1191.118896484375, -47.075992584228516, -0.01600000075995922, 0.03200000151991844, 1.0080000162124634, 0.0, 0.0, 0.0, 0.0, 0.0, 1.6024558555663958E9, 2020-10-11 17:37:35.566
14.0, -88.22236633300781, -27.905263900756836, -1125.143310546875, 105.10614776611328, -0.01600000075995922, 0.03200000151991844, 1.0080000162124634, 0.0, 0.0, 0.0, 0.0, 0.0, 1.6024558555820985E9, 2020-10-11 17:37:35.582
14.0, 0.787248969078064, 93.4993667602539, -1037.19580078125, -29.870580673217773, -0.01600000075995922, 0.03200000151991844, 1.0080000162124634, 0.0, 0.0, 0.0, 0.0, 0.0, 1.6024558555820985E9, 2020-10-11 17:37:35.582
15.0, -141.36634826660156, -83.05382537841797, -1168.230712890625, -77.84788513183594, -0.01600000075995922, 0.03200000151991844, 1.0080000162124634, 0.0, 0.0, 0.0, 0.0, 0.0, 1.602455855582822E9, 2020-10-11 17:37:35.582
15.0, -144.0179443359375, -88.17001342773438, -1162.99853515625, -258.4214782714844, -0.01600000075995922, 0.03200000151991844, 1.0080000162124634, 0.0, 0.0, 0.0, 0.0, 0.0, 1.602455855582822E9, 2020-10-11 17:37:35.582
16.0, -8.801854133605957, 78.6183090209961, -1042.57373046875, -54.69977569580078, -0.01600000075995922, 0.03200000151991844, 1.0080000162124634, 0.0, 0.0, 0.0, 0.0, 0.0, 1.602455855596533E9, 2020-10-11 17:37:35.596
16.0, -77.30560302734375, -4.108280181884766, -1108.7662353515625, -211.90834045410156, -0.01600000075995922, 0.03200000151991844, 1.0080000162124634, 0.0, 0.0, 0.0, 0.0, 0.0, 1.602455855596533E9, 2020-10-11 17:37:35.596
17.0, -170.52635192871094, -127.36416625976562, -1189.58544921875, -127.82417297363281, -0.01600000075995922, 0.03200000151991844, 1.0080000162124634, 0.0, 0.0, 0.0, 0.0, 0.0, 1.6024558556121743E9, 2020-10-11 17:37:35.612
17.0, -49.37976837158203, 29.31520652770996, -1072.52294921875, 0.9611542820930481, -0.01600000075995922, 0.03200000151991844, 1.0080000162124634, 0.0, 0.0, 0.0, 0.0, 0.0, 1.6024558556121743E9, 2020-10-11 17:37:35.612
18.0, -20.571319580078125, 67.1779556274414, -1050.9698486328125, 108.4608383178711, -0.01600000075995922, 0.03200000151991844, 1.0080000162124634, 0.0, 0.0, 0.0, 0.0, 0.0, 1.6024558556129117E9, 2020-10-11 17:37:35.612
18.0, -160.8400115966797, -114.79435729980469, -1184.1402587890625, -48.54951095581055, -0.01600000075995922, 0.03200000151991844, 1.0080000162124634, 0.0, 0.0, 0.0, 0.0, 0.0, 1.6024558556129117E9, 2020-10-11 17:37:35.612
19.0, -99.60662841796875, -35.20928955078125, -1117.04638671875, 100.25923919677734, -0.01600000075995922, 0.03200000151991844, 1.0080000162124634, 0.0, 0.0, 0.0, 0.0, 0.0, 1.6024558556264307E9, 2020-10-11 17:37:35.626
19.0, 13.315914154052734, 104.18052673339844, -1026.6492919921875, -23.46413230895996, -0.01600000075995922, 0.03200000151991844, 1.0080000162124634, 0.0, 0.0, 0.0, 0.0, 0.0, 1.6024558556264307E9, 2020-10-11 17:37:35.626
20.0, -139.6833953857422, -73.82001495361328, -1155.3990478515625, -66.64688873291016, -0.01600000075995922, 0.03200000151991844, 1.0080000162124634, 0.0, 0.0, 0.0, 0.0, 0.0, 1.602455855642096E9, 2020-10-11 17:37:35.642
20.0, -141.0334930419922, -78.22935485839844, -1149.91259765625, -257.0264892578125, -0.01600000075995922, 0.03200000151991844, 1.0080000162124634, 0.0, 0.0, 0.0, 0.0, 0.0, 1.602455855642096E9, 2020-10-11 17:37:35.642
21.0, -3.607133388519287, 90.27557373046875, -1029.087646484375, -49.87156677246094, -0.01600000075995922, 0.03200000151991844, 1.0080000162124634, 0.0, 0.0, 0.0, 0.0, 0.0, 1.6024558556427982E9, 2020-10-11 17:37:35.642
21.0, -60.29653549194336, 16.902477264404297, -1087.534912109375, -194.1625213623047, -0.01600000075995922, 0.03200000151991844, 1.0080000162124634, 0.0, 0.0, 0.0, 0.0, 0.0, 1.6024558556427982E9, 2020-10-11 17:37:35.642
22.0, -142.17042541503906, -88.9628677368164, -1161.3941650390625, -107.849365234375, 0.0, 0.03200000151991844, 1.0080000162124634, 0.0, 0.0, 0.0, 0.0, 0.0, 1.6024558556563985E9, 2020-10-11 17:37:35.656
22.0, -50.591495513916016, 38.78089141845703, -1067.9453125, 9.701300621032715, 0.0, 0.03200000151991844, 1.0080000162124634, 0.0, 0.0, 0.0, 0.0, 0.0, 1.6024558556563985E9, 2020-10-11 17:37:35.656
23.0, -18.293720245361328, 79.77019500732422, -1038.2017822265625, 112.02122497558594, 0.0, 0.03200000151991844, 1.0080000162124634, 0.0, 0.0, 0.0, 0.0, 0.0, 1.6024558556721027E9, 2020-10-11 17:37:35.672
23.0, -146.54237365722656, -96.54364776611328, -1160.511474609375, -27.938922882080078, 0.0, 0.03200000151991844, 1.0080000162124634, 0.0, 0.0, 0.0, 0.0, 0.0, 1.6024558556721027E9, 2020-10-11 17:37:35.672
24.0, -74.10050964355469, 4.938538074493408, -1090.1864013671875, 122.42562866210938, 0.0, 0.03200000151991844, 1.0080000162124634, 0.0, 0.0, 0.0, 0.0, 0.0, 1.602455855673084E9, 2020-10-11 17:37:35.673
24.0, 24.382278442382812, 126.94529724121094, -1000.8589477539062, -3.773559093475342, 0.0, 0.03200000151991844, 1.0080000162124634, 0.0, 0.0, 0.0, 0.0, 0.0, 1.602455855673084E9, 2020-10-11 17:37:35.673
25.0, -114.86167907714844, -44.70115280151367, -1129.4554443359375, -48.878623962402344, 0.0, 0.03200000151991844, 1.0080000162124634, 0.0, 0.0, 0.0, 0.0, 0.0, 1.6024558556864128E9, 2020-10-11 17:37:35.686
25.0, -121.12226867675781, -53.63203430175781, -1132.2491455078125, -234.5609130859375, 0.0, 0.03200000151991844, 1.0080000162124634, 0.0, 0.0, 0.0, 0.0, 0.0, 1.6024558556864128E9, 2020-10-11 17:37:35.686
26.0, 5.443424224853516, 102.50130462646484, -1021.1703491210938, -42.702178955078125, 0.0, 0.03200000151991844, 1.0080000162124634, 0.0, 0.0, 0.0, 0.0, 0.0, 1.602455855702351E9, 2020-10-11 17:37:35.702
26.0, -65.33792114257812, 19.034221649169922, -1079.76708984375, -192.04946899414062, 0.0, 0.03200000151991844, 1.0080000162124634, 0.0, 0.0, 0.0, 0.0, 0.0, 1.602455855702351E9, 2020-10-11 17:37:35.702
27.0, -157.47035217285156, -103.90003204345703, -1164.1168212890625, -112.10163116455078, 0.0, 0.03200000151991844, 1.0080000162124634, 0.0, 0.0, 0.0, 0.0, 0.0, 1.6024558557028108E9, 2020-10-11 17:37:35.702
27.0, -45.66230773925781, 40.037498474121094, -1067.0738525390625, 6.907595157623291, 0.0, 0.03200000151991844, 1.0080000162124634, 0.0, 0.0, 0.0, 0.0, 0.0, 1.6024558557028108E9, 2020-10-11 17:37:35.702
28.0, -23.518360137939453, 77.66837310791016, -1042.5662841796875, 110.4504623413086, 0.0, 0.03200000151991844, 1.0080000162124634, 0.0, 0.0, 0.0, 0.0, 0.0, 1.6024558557164016E9, 2020-10-11 17:37:35.716
28.0, -166.28530883789062, -110.74404907226562, -1180.183349609375, -42.69656753540039, 0.0, 0.03200000151991844, 1.0080000162124634, 0.0, 0.0, 0.0, 0.0, 0.0, 1.6024558557164016E9, 2020-10-11 17:37:35.716
29.0, -89.36678314208984, -24.22146224975586, -1110.0677490234375, 106.56845092773438, 0.0, 0.03200000151991844, 1.0080000162124634, 0.0, 0.0, 0.0, 0.0, 0.0, 1.6024558557322748E9, 2020-10-11 17:37:35.732
29.0, -2.133612871170044, 102.66212463378906, -1023.7845458984375, -24.208372116088867, 0.0, 0.03200000151991844, 1.0080000162124634, 0.0, 0.0, 0.0, 0.0, 0.0, 1.6024558557322748E9, 2020-10-11 17:37:35.732
30.0, -112.96180725097656, -44.27854537963867, -1129.0140380859375, -47.89502716064453, 0.0, 0.03200000151991844, 1.0080000162124634, 0.0, 0.0, 0.0, 0.0, 0.0, 1.602455855733149E9, 2020-10-11 17:37:35.733
30.0, -129.69412231445312, -71.42273712158203, -1146.1241455078125, -247.572021484375, 0.0, 0.03200000151991844, 1.0080000162124634, 0.0, 0.0, 0.0, 0.0, 0.0, 1.602455855733149E9, 2020-10-11 17:37:35.733
31.0, -21.801746368408203, 74.22392272949219, -1045.1842041015625, -60.39564514160156, 0.0, 0.03200000151991844, 1.0080000162124634, 0.0, 0.0, 0.0, 0.0, 0.0, 1.602455855746461E9, 2020-10-11 17:37:35.746
31.0, -77.39910125732422, 3.2069642543792725, -1090.410888671875, -204.2490234375, 0.0, 0.03200000151991844, 1.0080000162124634, 0.0, 0.0, 0.0, 0.0, 0.0, 1.602455855746461E9, 2020-10-11 17:37:35.746
32.0, -165.4662628173828, -110.69542694091797, -1175.5458984375, -121.54487609863281, 0.0, 0.03200000151991844, 1.0080000162124634, 0.0, 0.0, 0.0, 0.0, 0.0, 1.6024558557622304E9, 2020-10-11 17:37:35.762
32.0, -48.17177963256836, 34.405208587646484, -1075.6494140625, 4.629996299743652, 0.0, 0.03200000151991844, 1.0080000162124634, 0.0, 0.0, 0.0, 0.0, 0.0, 1.6024558557622304E9, 2020-10-11 17:37:35.762
33.0, -26.364425659179688, 69.40693664550781, -1052.570556640625, 105.14354705810547, 0.0, 0.03200000151991844, 1.0080000162124634, 0.0, 0.0, 0.0, 0.0, 0.0, 1.6024558557629552E9, 2020-10-11 17:37:35.762
33.0, -167.28012084960938, -109.94371032714844, -1177.1951904296875, -42.30013656616211, 0.0, 0.03200000151991844, 1.0080000162124634, 0.0, 0.0, 0.0, 0.0, 0.0, 1.6024558557629552E9, 2020-10-11 17:37:35.762
34.0, -95.03273010253906, -20.24968910217285, -1112.465087890625, 108.32246398925781, 0.0, 0.03200000151991844, 1.0080000162124634, 0.0, 0.0, 0.0, 0.0, 0.0, 1.602455855776407E9, 2020-10-11 17:37:35.776
34.0, 3.9923431873321533, 107.87928771972656, -1025.6881103515625, -17.21101951599121, 0.0, 0.03200000151991844, 1.0080000162124634, 0.0, 0.0, 0.0, 0.0, 0.0, 1.602455855776407E9, 2020-10-11 17:37:35.776
35.0, -125.78592681884766, -47.26298522949219, -1132.4249267578125, -47.61453628540039, 0.0, 0.03200000151991844, 1.0080000162124634, 0.0, 0.0, 0.0, 0.0, 0.0, 1.602455855792254E9, 2020-10-11 17:37:35.792
35.0, -139.66094970703125, -74.30994415283203, -1153.0504150390625, -248.1330108642578, 0.0, 0.03200000151991844, 1.0080000162124634, 0.0, 0.0, 0.0, 0.0, 0.0, 1.602455855792254E9, 2020-10-11 17:37:35.792
36.0, -14.71463680267334, 81.68128204345703, -1035.5950927734375, -55.65345001220703, 0.0, 0.03200000151991844, 1.0080000162124634, 0.0, 0.0, 0.0, 0.0, 0.0, 1.6024558557930293E9, 2020-10-11 17:37:35.793
36.0, -67.54820251464844, 13.772181510925293, -1091.2373046875, -202.9026641845703, 0.0, 0.03200000151991844, 1.0080000162124634, 0.0, 0.0, 0.0, 0.0, 0.0, 1.6024558557930293E9, 2020-10-11 17:37:35.793
37.0, -145.22592163085938, -91.15444946289062, -1152.0107421875, -101.61495208740234, 0.0, 0.03200000151991844, 1.0080000162124634, 0.0, 0.0, 0.0, 0.0, 0.0, 1.6024558558064773E9, 2020-10-11 17:37:35.806
37.0, -43.94943618774414, 46.57484436035156, -1066.7447509765625, 17.046464920043945, 0.0, 0.03200000151991844, 1.0080000162124634, 0.0, 0.0, 0.0, 0.0, 0.0, 1.6024558558064773E9, 2020-10-11 17:37:35.806
38.0, -4.523408889770508, 100.59770202636719, -1022.4568481445312, 128.22621154785156, 0.0, 0.03200000151991844, 1.0080000162124634, 0.0, 0.0, 0.0, 0.0, 0.0, 1.6024558558221788E9, 2020-10-11 17:37:35.822
38.0, -155.23016357421875, -93.42082977294922, -1162.7554931640625, -26.570119857788086, 0.0, 0.03200000151991844, 1.0080000162124634, 0.0, 0.0, 0.0, 0.0, 0.0, 1.6024558558221788E9, 2020-10-11 17:37:35.822
39.0, -75.02799987792969, -1.8007618188858032, -1092.34814453125, 122.07781219482422, 0.0, 0.03200000151991844, 1.0080000162124634, 0.0, 0.0, 0.0, 0.0, 0.0, 1.6024558558228538E9, 2020-10-11 17:37:35.822
39.0, 20.283348083496094, 124.14411163330078, -1007.8936767578125, -5.826764106750488, 0.0, 0.03200000151991844, 1.0080000162124634, 0.0, 0.0, 0.0, 0.0, 0.0, 1.6024558558228538E9, 2020-10-11 17:37:35.822
40.0, -115.42639923095703, -42.532012939453125, -1134.945556640625, -47.46120071411133, 0.0, 0.03200000151991844, 1.0240000486373901, 0.0, 0.0, 0.0, 0.0, 0.0, 1.6024558558366935E9, 2020-10-11 17:37:35.836
40.0, -117.7077407836914, -44.42066192626953, -1126.1717529296875, -231.292236328125, 0.0, 0.03200000151991844, 1.0240000486373901, 0.0, 0.0, 0.0, 0.0, 0.0, 1.6024558558366935E9, 2020-10-11 17:37:35.836
41.0, -0.5852943658828735, 103.43254089355469, -1024.2108154296875, -44.81148147583008, 0.0, 0.03200000151991844, 1.0240000486373901, 0.0, 0.0, 0.0, 0.0, 0.0, 1.6024558558522773E9, 2020-10-11 17:37:35.852
41.0, -71.557373046875, 17.298906326293945, -1090.8782958984375, -195.2321319580078, 0.0, 0.03200000151991844, 1.0240000486373901, 0.0, 0.0, 0.0, 0.0, 0.0, 1.6024558558522773E9, 2020-10-11 17:37:35.852
42.0, -158.86907958984375, -95.0028076171875, -1164.84228515625, -110.16436004638672, 0.0, 0.03200000151991844, 1.0240000486373901, 0.0, 0.0, 0.0, 0.0, 0.0, 1.602455855852882E9, 2020-10-11 17:37:35.852
42.0, -46.122314453125, 36.52199172973633, -1075.1483154296875, 10.097729682922363, 0.0, 0.03200000151991844, 1.0240000486373901, 0.0, 0.0, 0.0, 0.0, 0.0, 1.602455855852882E9, 2020-10-11 17:37:35.852
43.0, -14.292027473449707, 85.1481704711914, -1044.533447265625, 114.22028350830078, 0.0, 0.03200000151991844, 1.0240000486373901, 0.0, 0.0, 0.0, 0.0, 0.0, 1.602455855866674E9, 2020-10-11 17:37:35.866
43.0, -155.9631805419922, -96.8054428100586, -1169.3564453125, -34.87269592285156, 0.0, 0.03200000151991844, 1.0240000486373901, 0.0, 0.0, 0.0, 0.0, 0.0, 1.602455855866674E9, 2020-10-11 17:37:35.866
44.0, -83.03887176513672, -10.088379859924316, -1110.1275634765625, 114.08564758300781, 0.0, 0.03200000151991844, 1.0240000486373901, 0.0, 0.0, 0.0, 0.0, 0.0, 1.6024558558821888E9, 2020-10-11 17:37:35.882
44.0, 2.4702038764953613, 105.36233520507812, -1033.3961181640625, -20.494651794433594, 0.0, 0.03200000151991844, 1.0240000486373901, 0.0, 0.0, 0.0, 0.0, 0.0, 1.6024558558821888E9, 2020-10-11 17:37:35.882
45.0, -124.22264862060547, -63.636268615722656, -1151.2626953125, -60.337677001953125, 0.0, 0.03200000151991844, 1.0240000486373901, 0.0, 0.0, 0.0, 0.0, 0.0, 1.6024558558828635E9, 2020-10-11 17:37:35.882
45.0, -122.52099609375, -61.100616455078125, -1144.0709228515625, -238.78700256347656, 0.0, 0.03200000151991844, 1.0240000486373901, 0.0, 0.0, 0.0, 0.0, 0.0, 1.6024558558828635E9, 2020-10-11 17:37:35.882
46.0, -16.868818283081055, 80.15914916992188, -1049.275634765625, -58.03950881958008, 0.0, 0.03200000151991844, 1.0240000486373901, 0.0, 0.0, 0.0, 0.0, 0.0, 1.602455855896695E9, 2020-10-11 17:37:35.896
46.0, -63.26227951049805, 22.7703800201416, -1088.7764892578125, -191.81759643554688, 0.0, 0.03200000151991844, 1.0240000486373901, 0.0, 0.0, 0.0, 0.0, 0.0, 1.602455855896695E9, 2020-10-11 17:37:35.896
47.0, -151.07513427734375, -94.4792251586914, -1166.342041015625, -109.92501068115234, 0.0, 0.03200000151991844, 1.0240000486373901, 0.0, 0.0, 0.0, 0.0, 0.0, 1.6024558559122086E9, 2020-10-11 17:37:35.912
47.0, -41.529720306396484, 43.7400016784668, -1072.582763671875, 16.4966983795166, 0.0, 0.03200000151991844, 1.0240000486373901, 0.0, 0.0, 0.0, 0.0, 0.0, 1.6024558559122086E9, 2020-10-11 17:37:35.912
48.0, -23.731534957885742, 70.05393981933594, -1059.23876953125, 103.21002197265625, 0.0, 0.03200000151991844, 1.0240000486373901, 0.0, 0.0, 0.0, 0.0, 0.0, 1.602455855912882E9, 2020-10-11 17:37:35.912
48.0, -146.86399841308594, -92.85236358642578, -1169.7640380859375, -31.319791793823242, 0.0, 0.03200000151991844, 1.0240000486373901, 0.0, 0.0, 0.0, 0.0, 0.0, 1.602455855912882E9, 2020-10-11 17:37:35.912
49.0, -76.85307312011719, -13.521608352661133, -1116.3807373046875, 114.41101837158203, 0.0, 0.03200000151991844, 1.0240000486373901, 0.0, 0.0, 0.0, 0.0, 0.0, 1.6024558559266737E9, 2020-10-11 17:37:35.926
49.0, 5.858553409576416, 107.47537231445312, -1027.572998046875, -19.383901596069336, 0.0, 0.03200000151991844, 1.0240000486373901, 0.0, 0.0, 0.0, 0.0, 0.0, 1.6024558559266737E9, 2020-10-11 17:37:35.926
50.0, -117.6217269897461, -53.04487228393555, -1134.72119140625, -47.40884017944336, 0.0, 0.03200000151991844, 1.0240000486373901, 0.0, 0.0, 0.0, 0.0, 0.0, 1.6024558559422116E9, 2020-10-11 17:37:35.942
50.0, -133.26573181152344, -67.3387680053711, -1148.196044921875, -247.97593688964844, 0.0, 0.03200000151991844, 1.0240000486373901, 0.0, 0.0, 0.0, 0.0, 0.0, 1.6024558559422116E9, 2020-10-11 17:37:35.942
51.0, -7.9678568840026855, 90.05866241455078, -1040.984375, -58.02828598022461, 0.0, 0.03200000151991844, 1.0240000486373901, 0.0, 0.0, 0.0, 0.0, 0.0, 1.6024558559427907E9, 2020-10-11 17:37:35.942
51.0, -57.858123779296875, 28.309173583984375, -1077.302490234375, -190.67318725585938, 0.0, 0.03200000151991844, 1.0240000486373901, 0.0, 0.0, 0.0, 0.0, 0.0, 1.6024558559427907E9, 2020-10-11 17:37:35.942
52.0, -147.03977966308594, -85.99713134765625, -1157.572021484375, -108.88157653808594, 0.0, 0.03200000151991844, 1.0240000486373901, 0.0, 0.0, 0.0, 0.0, 0.0, 1.6024558559728684E9, 2020-10-11 17:37:35.972
52.0, -29.778953552246094, 60.1245002746582, -1051.7626953125, 27.462085723876953, 0.0, 0.03200000151991844, 1.0240000486373901, 0.0, 0.0, 0.0, 0.0, 0.0, 1.6024558559728684E9, 2020-10-11 17:37:35.972
53.0, 0.7722893357276917, 92.72895050048828, -1030.9688720703125, 121.03812408447266, 0.0, 0.03200000151991844, 1.0240000486373901, 0.0, 0.0, 0.0, 0.0, 0.0, 1.602455855973514E9, 2020-10-11 17:37:35.973
53.0, -140.16209411621094, -88.5589599609375, -1155.6907958984375, -21.6259708404541, 0.0, 0.03200000151991844, 1.0240000486373901, 0.0, 0.0, 0.0, 0.0, 0.0, 1.602455855973514E9, 2020-10-11 17:37:35.973
54.0, -73.52082061767578, 2.9115121364593506, -1098.9154052734375, 127.19400024414062, 0.0, 0.03200000151991844, 1.0240000486373901, 0.0, 0.0, 0.0, 0.0, 0.0, 1.602455855974315E9, 2020-10-11 17:37:35.974
54.0, 18.47697639465332, 126.30950927734375, -1000.503662109375, -6.903855323791504, 0.0, 0.03200000151991844, 1.0240000486373901, 0.0, 0.0, 0.0, 0.0, 0.0, 1.602455855974315E9, 2020-10-11 17:37:35.974
55.0, -116.39877319335938, -40.55360412597656, -1118.501220703125, -47.88380813598633, 0.0, 0.03200000151991844, 1.0240000486373901, 0.0, 0.0, 0.0, 0.0, 0.0, 1.6024558559864213E9, 2020-10-11 17:37:35.986
55.0, -113.9304428100586, -47.48738098144531, -1123.9166259765625, -226.61363220214844, 0.0, 0.03200000151991844, 1.0240000486373901, 0.0, 0.0, 0.0, 0.0, 0.0, 1.6024558559864213E9, 2020-10-11 17:37:35.986
56.0, 0.869526743888855, 100.72111511230469, -1022.3858032226562, -47.526649475097656, 0.0, 0.03200000151991844, 1.0240000486373901, 0.0, 0.0, 0.0, 0.0, 0.0, 1.60245585600265E9, 2020-10-11 17:37:36.002
56.0, -61.2876091003418, 20.930349349975586, -1085.7135009765625, -191.60816955566406, 0.0, 0.03200000151991844, 1.0240000486373901, 0.0, 0.0, 0.0, 0.0, 0.0, 1.60245585600265E9, 2020-10-11 17:37:36.002
57.0, -155.39097595214844, -98.32758331298828, -1169.67431640625, -113.49661254882812, 0.0, 0.03200000151991844, 1.0240000486373901, 0.0, 0.0, 0.0, 0.0, 0.0, 1.6024558560029747E9, 2020-10-11 17:37:36.002
57.0, -44.431880950927734, 48.99829864501953, -1053.3746337890625, 15.232612609863281, 0.0, 0.03200000151991844, 1.0240000486373901, 0.0, 0.0, 0.0, 0.0, 0.0, 1.6024558560029747E9, 2020-10-11 17:37:36.002
58.0, -18.11046600341797, 78.80530548095703, -1044.1707763671875, 110.0278549194336, 0.0, 0.03200000151991844, 1.0240000486373901, 0.0, 0.0, 0.0, 0.0, 0.0, 1.6024558560164387E9, 2020-10-11 17:37:36.016
58.0, -168.40582275390625, -113.73223114013672, -1176.798828125, -42.913482666015625, 0.0, 0.03200000151991844, 1.0240000486373901, 0.0, 0.0, 0.0, 0.0, 0.0, 1.6024558560164387E9, 2020-10-11 17:37:36.016
59.0, -111.1778793334961, -39.85050582885742, -1125.73046875, 97.65252685546875, 0.0, 0.03200000151991844, 1.0240000486373901, 0.0, 0.0, 0.0, 0.0, 0.0, 1.60245585603258E9, 2020-10-11 17:37:36.032
59.0, -12.624032020568848, 89.93524169921875, -1035.598876953125, -32.98591613769531, 0.0, 0.03200000151991844, 1.0240000486373901, 0.0, 0.0, 0.0, 0.0, 0.0, 1.60245585603258E9, 2020-10-11 17:37:36.032
60.0, -130.5168914794922, -71.64713287353516, -1148.973876953125, -63.68862533569336, 0.0, 0.03200000151991844, 1.0080000162124634, 0.0, 0.0, 0.0, 0.0, 0.0, 1.6024558560328405E9, 2020-10-11 17:37:36.032
60.0, -132.3195343017578, -77.36170196533203, -1151.3150634765625, -249.614013671875, 0.0, 0.03200000151991844, 1.0080000162124634, 0.0, 0.0, 0.0, 0.0, 0.0, 1.6024558560328405E9, 2020-10-11 17:37:36.032
61.0, -19.94675636291504, 67.33129119873047, -1043.2955322265625, -62.14591598510742, 0.0, 0.03200000151991844, 1.0080000162124634, 0.0, 0.0, 0.0, 0.0, 0.0, 1.6024558560465465E9, 2020-10-11 17:37:36.046
61.0, -85.41744232177734, -3.2406232357025146, -1098.12255859375, -209.9822998046875, 0.0, 0.03200000151991844, 1.0080000162124634, 0.0, 0.0, 0.0, 0.0, 0.0, 1.6024558560465465E9, 2020-10-11 17:37:36.046
62.0, -183.6085205078125, -128.5010986328125, -1182.259033203125, -131.23121643066406, -0.01600000075995922, 0.03200000151991844, 1.0080000162124634, 0.0, 0.0, 0.0, 0.0, 0.0, 1.602455856062333E9, 2020-10-11 17:37:36.062
62.0, -60.767765045166016, 18.551773071289062, -1076.8126220703125, 1.2192074060440063, -0.01600000075995922, 0.03200000151991844, 1.0080000162124634, 0.0, 0.0, 0.0, 0.0, 0.0, 1.602455856062333E9, 2020-10-11 17:37:36.062
63.0, -40.47132873535156, 53.61333465576172, -1064.6953125, 95.05703735351562, -0.01600000075995922, 0.03200000151991844, 1.0080000162124634, 0.0, 0.0, 0.0, 0.0, 0.0, 1.6024558560628552E9, 2020-10-11 17:37:36.062
63.0, -175.4181365966797, -129.24159240722656, -1197.9703369140625, -53.164546966552734, -0.01600000075995922, 0.03200000151991844, 1.0080000162124634, 0.0, 0.0, 0.0, 0.0, 0.0, 1.6024558560628552E9, 2020-10-11 17:37:36.062
64.0, -98.10318756103516, -27.419076919555664, -1117.1585693359375, 102.20772552490234, -0.01600000075995922, 0.03200000151991844, 1.0080000162124634, 0.0, 0.0, 0.0, 0.0, 0.0, 1.602455856076463E9, 2020-10-11 17:37:36.076
64.0, -9.950003623962402, 94.86443328857422, -1024.1510009765625, -24.032596588134766, -0.01600000075995922, 0.03200000151991844, 1.0080000162124634, 0.0, 0.0, 0.0, 0.0, 0.0, 1.602455856076463E9, 2020-10-11 17:37:36.076
65.0, -144.27598571777344, -76.6735610961914, -1136.448974609375, -64.01025390625, -0.01600000075995922, 0.03200000151991844, 1.0080000162124634, 0.0, 0.0, 0.0, 0.0, 0.0, 1.6024558560923848E9, 2020-10-11 17:37:36.092
65.0, -140.30047607421875, -87.41828918457031, -1153.3795166015625, -253.69798278808594, -0.01600000075995922, 0.03200000151991844, 1.0080000162124634, 0.0, 0.0, 0.0, 0.0, 0.0, 1.6024558560923848E9, 2020-10-11 17:37:36.092
66.0, -21.300600051879883, 66.63566589355469, -1044.1033935546875, -62.31795120239258, -0.01600000075995922, 0.03200000151991844, 1.0080000162124634, 0.0, 0.0, 0.0, 0.0, 0.0, 1.602455856092848E9, 2020-10-11 17:37:36.092
66.0, -73.09073638916016, 3.8577067852020264, -1084.322265625, -200.41563415527344, -0.01600000075995922, 0.03200000151991844, 1.0080000162124634, 0.0, 0.0, 0.0, 0.0, 0.0, 1.602455856092848E9, 2020-10-11 17:37:36.092
67.0, -168.42453002929688, -113.9753189086914, -1172.718505859375, -122.39383697509766, -0.01600000075995922, 0.03200000151991844, 1.0080000162124634, 0.0, 0.0, 0.0, 0.0, 0.0, 1.6024558561064868E9, 2020-10-11 17:37:36.106
67.0, -55.9171142578125, 30.829864501953125, -1064.33251953125, 5.2882184982299805, -0.01600000075995922, 0.03200000151991844, 1.0080000162124634, 0.0, 0.0, 0.0, 0.0, 0.0, 1.6024558561064868E9, 2020-10-11 17:37:36.106
68.0, -24.894643783569336, 66.72168731689453, -1054.3619384765625, 104.92288970947266, -0.01600000075995922, 0.03200000151991844, 1.0080000162124634, 0.0, 0.0, 0.0, 0.0, 0.0, 1.6024558561220846E9, 2020-10-11 17:37:36.122
68.0, -163.3943634033203, -112.95059204101562, -1178.668701171875, -44.14017105102539, -0.01600000075995922, 0.03200000151991844, 1.0080000162124634, 0.0, 0.0, 0.0, 0.0, 0.0, 1.6024558561220846E9, 2020-10-11 17:37:36.122
69.0, -96.04998016357422, -27.407855987548828, -1110.15380859375, 110.18867492675781, -0.01600000075995922, 0.03200000151991844, 1.0080000162124634, 0.0, 0.0, 0.0, 0.0, 0.0, 1.6024558561228552E9, 2020-10-11 17:37:36.122
69.0, -3.0424087047576904, 96.31551361083984, -1023.7172241210938, -23.17616081237793, -0.01600000075995922, 0.03200000151991844, 1.0080000162124634, 0.0, 0.0, 0.0, 0.0, 0.0, 1.6024558561228552E9, 2020-10-11 17:37:36.122
70.0, -150.90309143066406, -86.56185150146484, -1159.3035888671875, -75.9106216430664, -0.01600000075995922, 0.03200000151991844, 1.0080000162124634, 0.0, 0.0, 0.0, 0.0, 0.0, 1.6024558561364555E9, 2020-10-11 17:37:36.136
70.0, -139.0887451171875, -83.33432006835938, -1155.75439453125, -256.4991760253906, -0.01600000075995922, 0.03200000151991844, 1.0080000162124634, 0.0, 0.0, 0.0, 0.0, 0.0, 1.6024558561364555E9, 2020-10-11 17:37:36.136
71.0, 1.0527818202972412, 89.20222473144531, -1025.0523681640625, -47.795921325683594, -0.01600000075995922, 0.03200000151991844, 1.0080000162124634, 0.0, 0.0, 0.0, 0.0, 0.0, 1.6024558561520488E9, 2020-10-11 17:37:36.152
71.0, -71.67330932617188, 7.795821666717529, -1092.1162109375, -201.455322265625, -0.01600000075995922, 0.03200000151991844, 1.0080000162124634, 0.0, 0.0, 0.0, 0.0, 0.0, 1.6024558561520488E9, 2020-10-11 17:37:36.152
72.0, -162.38084411621094, -113.72848510742188, -1175.706787109375, -121.4775619506836, 0.0, 0.03200000151991844, 1.0080000162124634, 0.0, 0.0, 0.0, 0.0, 0.0, 1.602455856153232E9, 2020-10-11 17:37:36.153
72.0, -53.688133239746094, 29.2142276763916, -1077.9981689453125, 5.437814712524414, 0.0, 0.03200000151991844, 1.0080000162124634, 0.0, 0.0, 0.0, 0.0, 0.0, 1.602455856153232E9, 2020-10-11 17:37:36.153
73.0, -33.324378967285156, 59.09602737426758, -1057.9635009765625, 96.52681732177734, 0.0, 0.03200000151991844, 1.0080000162124634, 0.0, 0.0, 0.0, 0.0, 0.0, 1.6024558561667173E9, 2020-10-11 17:37:36.166
73.0, -175.4592742919922, -121.20829010009766, -1184.7872314453125, -54.166839599609375, 0.0, 0.03200000151991844, 1.0080000162124634, 0.0, 0.0, 0.0, 0.0, 0.0, 1.6024558561667173E9, 2020-10-11 17:37:36.166
74.0, -99.43084716796875, -28.223154067993164, -1116.691162109375, 102.63407135009766, 0.0, 0.03200000151991844, 1.0080000162124634, 0.0, 0.0, 0.0, 0.0, 0.0, 1.6024558561820953E9, 2020-10-11 17:37:36.182
74.0, -15.563593864440918, 82.42552185058594, -1042.326904296875, -34.77732849121094, 0.0, 0.03200000151991844, 1.0080000162124634, 0.0, 0.0, 0.0, 0.0, 0.0, 1.6024558561820953E9, 2020-10-11 17:37:36.182
75.0, -145.98886108398438, -84.84149932861328, -1158.8023681640625, -77.9600830078125, 0.0, 0.03200000151991844, 1.0080000162124634, 0.0, 0.0, 0.0, 0.0, 0.0, 1.6024558561828568E9, 2020-10-11 17:37:36.182
75.0, -150.59268188476562, -86.651611328125, -1152.994384765625, -255.96810913085938, 0.0, 0.03200000151991844, 1.0080000162124634, 0.0, 0.0, 0.0, 0.0, 0.0, 1.6024558561828568E9, 2020-10-11 17:37:36.182
76.0, -37.7411994934082, 58.179752349853516, -1057.312744140625, -69.34896850585938, 0.0, 0.03200000151991844, 1.0080000162124634, 0.0, 0.0, 0.0, 0.0, 0.0, 1.6024558561967354E9, 2020-10-11 17:37:36.196
76.0, -98.6529541015625, -11.730195999145508, -1115.4681396484375, -214.32057189941406, 0.0, 0.03200000151991844, 1.0080000162124634, 0.0, 0.0, 0.0, 0.0, 0.0, 1.6024558561967354E9, 2020-10-11 17:37:36.196
77.0, -189.2071533203125, -134.2493133544922, -1198.3817138671875, -137.05050659179688, 0.0, 0.03200000151991844, 1.0080000162124634, 0.0, 0.0, 0.0, 0.0, 0.0, 1.6024558562120848E9, 2020-10-11 17:37:36.212
77.0, -72.95236206054688, 7.216136932373047, -1096.316162109375, -7.606956481933594, 0.0, 0.03200000151991844, 1.0080000162124634, 0.0, 0.0, 0.0, 0.0, 0.0, 1.6024558562120848E9, 2020-10-11 17:37:36.212
78.0, -38.25730514526367, 61.706478118896484, -1057.4847412109375, 99.44767761230469, 0.0, 0.03200000151991844, 1.0080000162124634, 0.0, 0.0, 0.0, 0.0, 0.0, 1.602455856212843E9, 2020-10-11 17:37:36.212
78.0, -165.79537963867188, -113.13758087158203, -1178.17138671875, -44.016754150390625, 0.0, 0.03200000151991844, 1.0080000162124634, 0.0, 0.0, 0.0, 0.0, 0.0, 1.602455856212843E9, 2020-10-11 17:37:36.212
79.0, -99.72630310058594, -30.018306732177734, -1119.0098876953125, 98.68099975585938, 0.0, 0.03200000151991844, 1.0080000162124634, 0.0, 0.0, 0.0, 0.0, 0.0, 1.6024558562268252E9, 2020-10-11 17:37:36.226
79.0, -13.742262840270996, 86.27761840820312, -1044.2081298828125, -34.160247802734375, 0.0, 0.03200000151991844, 1.0080000162124634, 0.0, 0.0, 0.0, 0.0, 0.0, 1.6024558562268252E9, 2020-10-11 17:37:36.226
80.0, -145.64105224609375, -78.62952423095703, -1162.5010986328125, -75.82460021972656, 0.0, 0.03200000151991844, 1.0080000162124634, 0.0, 0.0, 0.0, 0.0, 0.0, 1.6024558562420866E9, 2020-10-11 17:37:36.242
80.0, -140.6595001220703, -78.07975769042969, -1156.001220703125, -255.09671020507812, 0.0, 0.03200000151991844, 1.0080000162124634, 0.0, 0.0, 0.0, 0.0, 0.0, 1.6024558562420866E9, 2020-10-11 17:37:36.242
81.0, -23.166810989379883, 77.79178619384766, -1047.1888427734375, -58.13300323486328, 0.0, 0.03200000151991844, 1.0080000162124634, 0.0, 0.0, 0.0, 0.0, 0.0, 1.6024558562428308E9, 2020-10-11 17:37:36.242
81.0, -81.94307708740234, 4.388772487640381, -1112.0050048828125, -210.72653198242188, 0.0, 0.03200000151991844, 1.0080000162124634, 0.0, 0.0, 0.0, 0.0, 0.0, 1.6024558562428308E9, 2020-10-11 17:37:36.242
82.0, -156.09033203125, -102.4900894165039, -1176.6641845703125, -118.2088851928711, 0.0, 0.03200000151991844, 1.0080000162124634, 0.0, 0.0, 0.0, 0.0, 0.0, 1.6024558562564507E9, 2020-10-11 17:37:36.256
82.0, -33.990081787109375, 48.72528839111328, -1058.95458984375, 23.187379837036133, 0.0, 0.03200000151991844, 1.0080000162124634, 0.0, 0.0, 0.0, 0.0, 0.0, 1.6024558562564507E9, 2020-10-11 17:37:36.256
83.0, -2.7544362545013428, 90.12223815917969, -1028.0517578125, 125.41754150390625, 0.0, 0.03200000151991844, 1.0080000162124634, 0.0, 0.0, 0.0, 0.0, 0.0, 1.602455856272113E9, 2020-10-11 17:37:36.272
83.0, -157.95654296875, -99.41963195800781, -1165.695068359375, -34.59220504760742, 0.0, 0.03200000151991844, 1.0080000162124634, 0.0, 0.0, 0.0, 0.0, 0.0, 1.602455856272113E9, 2020-10-11 17:37:36.272
84.0, -79.92353057861328, -7.807041168212891, -1098.5787353515625, 119.73663330078125, 0.0, 0.03200000151991844, 1.0080000162124634, 0.0, 0.0, 0.0, 0.0, 0.0, 1.6024558562728856E9, 2020-10-11 17:37:36.272
84.0, -2.9975297451019287, 110.1606216430664, -1014.6965942382812, -15.752458572387695, 0.0, 0.03200000151991844, 1.0080000162124634, 0.0, 0.0, 0.0, 0.0, 0.0, 1.6024558562728856E9, 2020-10-11 17:37:36.272
85.0, -114.6111068725586, -52.21461486816406, -1136.800537109375, -56.01809310913086, 0.0, 0.03200000151991844, 1.0080000162124634, 0.0, 0.0, 0.0, 0.0, 0.0, 1.6024558562864156E9, 2020-10-11 17:37:36.286
85.0, -99.66646575927734, -25.57904624938965, -1129.0216064453125, -225.25978088378906, 0.0, 0.03200000151991844, 1.0080000162124634, 0.0, 0.0, 0.0, 0.0, 0.0, 1.6024558562864156E9, 2020-10-11 17:37:36.286
86.0, -316.5713195800781, 162.10035705566406, -985.8170776367188, -463.2745056152344, 0.0, 0.03200000151991844, 1.0080000162124634, 0.0, 0.0, 0.0, 0.0, 0.0, 1.6024558563021276E9, 2020-10-11 17:37:36.302
86.0, -526.4320678710938, 51.01410675048828, -1047.3720703125, -659.2134399414062, 0.0, 0.03200000151991844, 1.0080000162124634, 0.0, 0.0, 0.0, 0.0, 0.0, 1.6024558563021276E9, 2020-10-11 17:37:36.302
87.0, -633.4904174804688, -68.24382781982422, -1116.2386474609375, -579.041259765625, 0.0, 0.03200000151991844, 1.0080000162124634, 0.0, 0.0, 0.0, 0.0, 0.0, 1.6024558563028188E9, 2020-10-11 17:37:36.302
87.0, -474.5334777832031, 94.6400375366211, -1022.4082641601562, -434.8063659667969, 0.0, 0.03200000151991844, 1.0080000162124634, 0.0, 0.0, 0.0, 0.0, 0.0, 1.6024558563028188E9, 2020-10-11 17:37:36.302
88.0, -343.92120361328125, 195.84921264648438, -927.48583984375, -279.8623352050781, 0.0, 0.03200000151991844, 1.0080000162124634, 0.0, 0.0, 0.0, 0.0, 0.0, 1.6024558563164248E9, 2020-10-11 17:37:36.316
88.0, -411.0860595703125, 55.55060577392578, -976.1755981445312, -383.9718017578125, 0.0, 0.03200000151991844, 1.0080000162124634, 0.0, 0.0, 0.0, 0.0, 0.0, 1.6024558563164248E9, 2020-10-11 17:37:36.316
89.0, -341.18359375, 162.5790557861328, -986.2845458984375, -243.5965118408203, 0.0, 0.03200000151991844, 1.0080000162124634, 0.0, 0.0, 0.0, 0.0, 0.0, 1.6024558563321776E9, 2020-10-11 17:37:36.332
