%OpenBCI Raw EEG Data
%Number of channels = 4
%Sample Rate = 200 Hz
%Board = OpenBCI_GUI$BoardGanglionBLE
Sample Index, EXG Channel 0, EXG Channel 1, EXG Channel 2, EXG Channel 3, Accel Channel 0, Accel Channel 1, Accel Channel 2, Other, Other, Other, Other, Other, Timestamp, Timestamp (Formatted)
0.0, 209.90000915527344, 224.87831115722656, -762.0850219726562, -21.803617477416992, 0.0, 0.0, 0.0, 0.0, 0.0, 0.0, 0.0, 0.0, 1.6024561620789459E9, 2020-10-11 17:42:42.078
1.0, 341.0545654296875, 358.1010437011719, -649.7234497070312, -128.58523559570312, 0.0, 0.03200000151991844, 0.0, 0.0, 0.0, 0.0, 0.0, 0.0, 1.6024561620923276E9, 2020-10-11 17:42:42.092
1.0, 405.47808837890625, 429.7051696777344, -602.08837890625, -50.22685623168945, 0.0, 0.03200000151991844, 0.0, 0.0, 0.0, 0.0, 0.0, 0.0, 1.6024561620923276E9, 2020-10-11 17:42:42.092
2.0, 214.09243774414062, 230.94442749023438, -757.9187622070312, 26.310195922851562, 0.0, 0.03200000151991844, 0.0, 0.0, 0.0, 0.0, 0.0, 0.0, 1.602456162108742E9, 2020-10-11 17:42:42.108
2.0, 281.50787353515625, 299.2948303222656, -697.2314453125, -111.00022888183594, 0.0, 0.03200000151991844, 0.0, 0.0, 0.0, 0.0, 0.0, 0.0, 1.602456162108742E9, 2020-10-11 17:42:42.108
3.0, 415.91241455078125, 442.8172302246094, -582.8727416992188, -97.49171447753906, 0.0, 0.03200000151991844, 0.0, 0.0, 0.0, 0.0, 0.0, 0.0, 1.6024561621095335E9, 2020-10-11 17:42:42.109
3.0, 272.2628479003906, 295.214599609375, -714.9921875, 32.72786331176758, 0.0, 0.03200000151991844, 0.0, 0.0, 0.0, 0.0, 0.0, 0.0, 1.6024561621095335E9, 2020-10-11 17:42:42.109
4.0, 225.51036071777344, 252.89016723632812, -757.0548706054688, -69.85011291503906, 0.0, 0.03200000151991844, 0.0, 0.0, 0.0, 0.0, 0.0, 0.0, 1.602456162121894E9, 2020-10-11 17:42:42.121
4.0, 392.2164001464844, 415.299072265625, -605.3607788085938, -120.36493682861328, 0.0, 0.03200000151991844, 0.0, 0.0, 0.0, 0.0, 0.0, 0.0, 1.602456162121894E9, 2020-10-11 17:42:42.121
5.0, 347.03466796875, 370.1285400390625, -651.3652954101562, 4.140069484710693, 0.0, 0.03200000151991844, 0.0, 0.0, 0.0, 0.0, 0.0, 0.0, 1.6024561621374347E9, 2020-10-11 17:42:42.137
5.0, 203.64315795898438, 220.21839904785156, -774.4117431640625, -22.173866271972656, 0.0, 0.03200000151991844, 0.0, 0.0, 0.0, 0.0, 0.0, 0.0, 1.6024561621374347E9, 2020-10-11 17:42:42.137
6.0, 339.9550476074219, 365.9922180175781, -649.2410278320312, -126.70780944824219, 0.0, 0.03200000151991844, 0.0, 0.0, 0.0, 0.0, 0.0, 0.0, 1.6024561621384144E9, 2020-10-11 17:42:42.138
6.0, 403.256591796875, 430.24371337890625, -595.6370239257812, -44.16447830200195, 0.0, 0.03200000151991844, 0.0, 0.0, 0.0, 0.0, 0.0, 0.0, 1.6024561621384144E9, 2020-10-11 17:42:42.138
7.0, 223.1990966796875, 241.29647827148438, -763.2631225585938, 29.15999984741211, 0.0, 0.03200000151991844, 0.0, 0.0, 0.0, 0.0, 0.0, 0.0, 1.602456162152253E9, 2020-10-11 17:42:42.152
7.0, 291.1717834472656, 310.9969787597656, -683.6742553710938, -95.25899505615234, 0.0, 0.03200000151991844, 0.0, 0.0, 0.0, 0.0, 0.0, 0.0, 1.602456162152253E9, 2020-10-11 17:42:42.152
8.0, 420.3367004394531, 451.2207946777344, -571.06591796875, -92.0389404296875, 0.0, 0.03200000151991844, 0.0, 0.0, 0.0, 0.0, 0.0, 0.0, 1.6024561621675189E9, 2020-10-11 17:42:42.167
8.0, 269.3606872558594, 302.06610107421875, -707.8938598632812, 42.4067268371582, 0.0, 0.03200000151991844, 0.0, 0.0, 0.0, 0.0, 0.0, 0.0, 1.6024561621675189E9, 2020-10-11 17:42:42.167
9.0, 233.40528869628906, 253.40252685546875, -742.3046875, -62.80788040161133, 0.0, 0.03200000151991844, 0.0, 0.0, 0.0, 0.0, 0.0, 0.0, 1.6024561621682136E9, 2020-10-11 17:42:42.168
9.0, 396.6781005859375, 417.1353454589844, -608.9061889648438, -118.87645721435547, 0.0, 0.03200000151991844, 0.0, 0.0, 0.0, 0.0, 0.0, 0.0, 1.6024561621682136E9, 2020-10-11 17:42:42.168
10.0, 352.3827209472656, 371.8638610839844, -640.1942138671875, 9.75365924835205, 0.0, 0.03200000151991844, 1.0080000162124634, 0.0, 0.0, 0.0, 0.0, 0.0, 1.6024561621822681E9, 2020-10-11 17:42:42.182
10.0, 204.21910095214844, 224.45570373535156, -777.8711547851562, -16.75849151611328, 0.0, 0.03200000151991844, 1.0080000162124634, 0.0, 0.0, 0.0, 0.0, 0.0, 1.6024561621822681E9, 2020-10-11 17:42:42.182
11.0, 352.64453125, 367.8060607910156, -660.0867309570312, -116.56520080566406, 0.0, 0.01600000075995922, 1.0080000162124634, 0.0, 0.0, 0.0, 0.0, 0.0, 1.6024561621974955E9, 2020-10-11 17:42:42.197
11.0, 404.8946533203125, 425.7408752441406, -609.2913818359375, -44.63570785522461, 0.0, 0.01600000075995922, 1.0080000162124634, 0.0, 0.0, 0.0, 0.0, 0.0, 1.6024561621974955E9, 2020-10-11 17:42:42.197
12.0, 205.6888885498047, 222.62315368652344, -776.5958251953125, 27.693958282470703, 0.0, 0.01600000075995922, 1.0080000162124634, 0.0, 0.0, 0.0, 0.0, 0.0, 1.6024561621982224E9, 2020-10-11 17:42:42.198
12.0, 276.915283203125, 298.23272705078125, -704.2811279296875, -107.62310028076172, 0.0, 0.01600000075995922, 1.0080000162124634, 0.0, 0.0, 0.0, 0.0, 0.0, 1.6024561621982224E9, 2020-10-11 17:42:42.198
13.0, 420.0935974121094, 438.8117980957031, -591.8822021484375, -96.85592651367188, 0.0, 0.01600000075995922, 1.0080000162124634, 0.0, 0.0, 0.0, 0.0, 0.0, 1.6024561622122338E9, 2020-10-11 17:42:42.212
13.0, 257.8717041015625, 285.8050231933594, -727.8462524414062, 41.18751907348633, 0.0, 0.01600000075995922, 1.0080000162124634, 0.0, 0.0, 0.0, 0.0, 0.0, 1.6024561622122338E9, 2020-10-11 17:42:42.212
14.0, 231.79339599609375, 250.91175842285156, -753.5094604492188, -58.162925720214844, 0.0, 0.01600000075995922, 1.0080000162124634, 0.0, 0.0, 0.0, 0.0, 0.0, 1.6024561622274852E9, 2020-10-11 17:42:42.227
14.0, 384.3439025878906, 407.68463134765625, -611.1950073242188, -117.36553955078125, 0.0, 0.01600000075995922, 1.0080000162124634, 0.0, 0.0, 0.0, 0.0, 0.0, 1.6024561622274852E9, 2020-10-11 17:42:42.227
15.0, 346.49237060546875, 361.47442626953125, -662.5550537109375, 9.31235122680664, 0.0, 0.01600000075995922, 1.0080000162124634, 0.0, 0.0, 0.0, 0.0, 0.0, 1.6024561622283297E9, 2020-10-11 17:42:42.228
15.0, 209.73545837402344, 225.51783752441406, -782.0261840820312, -9.761138916015625, 0.0, 0.01600000075995922, 1.0080000162124634, 0.0, 0.0, 0.0, 0.0, 0.0, 1.6024561622283297E9, 2020-10-11 17:42:42.228
16.0, 343.1077575683594, 353.9235534667969, -652.1656494140625, -112.2156982421875, 0.0, 0.01600000075995922, 1.0080000162124634, 0.0, 0.0, 0.0, 0.0, 0.0, 1.6024561622417922E9, 2020-10-11 17:42:42.241
16.0, 405.34344482421875, 425.7820129394531, -607.6271362304688, -40.37969970703125, 0.0, 0.01600000075995922, 1.0080000162124634, 0.0, 0.0, 0.0, 0.0, 0.0, 1.6024561622417922E9, 2020-10-11 17:42:42.241
17.0, 219.79205322265625, 237.86325073242188, -779.2511596679688, 38.01234436035156, 0.0, 0.01600000075995922, 1.0080000162124634, 0.0, 0.0, 0.0, 0.0, 0.0, 1.6024561622574646E9, 2020-10-11 17:42:42.257
17.0, 293.7298583984375, 301.39666748046875, -716.7275390625, -93.95002746582031, 0.0, 0.01600000075995922, 1.0080000162124634, 0.0, 0.0, 0.0, 0.0, 0.0, 1.6024561622574646E9, 2020-10-11 17:42:42.257
18.0, 419.0389709472656, 437.8768310546875, -602.3912963867188, -89.110595703125, 0.0, 0.01600000075995922, 1.0080000162124634, 0.0, 0.0, 0.0, 0.0, 0.0, 1.6024561622582297E9, 2020-10-11 17:42:42.258
18.0, 280.9468994140625, 294.0178527832031, -724.779541015625, 54.767093658447266, 0.0, 0.01600000075995922, 1.0080000162124634, 0.0, 0.0, 0.0, 0.0, 0.0, 1.6024561622582297E9, 2020-10-11 17:42:42.258
19.0, 235.0620574951172, 255.35101318359375, -745.603271484375, -50.06230163574219, 0.0, 0.01600000075995922, 1.0080000162124634, 0.0, 0.0, 0.0, 0.0, 0.0, 1.6024561622720797E9, 2020-10-11 17:42:42.272
19.0, 398.0992736816406, 416.967041015625, -604.1453247070312, -110.11761474609375, 0.0, 0.01600000075995922, 1.0080000162124634, 0.0, 0.0, 0.0, 0.0, 0.0, 1.6024561622720797E9, 2020-10-11 17:42:42.272
20.0, 351.4888916015625, 371.7516784667969, -654.2599487304688, 15.95067310333252, 0.0, 0.01600000075995922, 0.5120000243186951, 0.0, 0.0, 0.0, 0.0, 0.0, 1.6024561622874944E9, 2020-10-11 17:42:42.287
20.0, 202.0163116455078, 218.14649963378906, -782.5385131835938, -8.115582466125488, 0.0, 0.01600000075995922, 0.5120000243186951, 0.0, 0.0, 0.0, 0.0, 0.0, 1.6024561622874944E9, 2020-10-11 17:42:42.287
21.0, 350.9353942871094, 356.3731994628906, -652.60693359375, -109.67256927490234, 0.0, 0.03200000151991844, 0.5120000243186951, 0.0, 0.0, 0.0, 0.0, 0.0, 1.6024561622882195E9, 2020-10-11 17:42:42.288
21.0, 401.74566650390625, 421.5222473144531, -614.3701782226562, -34.96806335449219, 0.0, 0.03200000151991844, 0.5120000243186951, 0.0, 0.0, 0.0, 0.0, 0.0, 1.6024561622882195E9, 2020-10-11 17:42:42.288
22.0, 218.91317749023438, 231.8943634033203, -765.7014770507812, 37.32419967651367, 0.0, 0.03200000151991844, 0.5120000243186951, 0.0, 0.0, 0.0, 0.0, 0.0, 1.6024561623019152E9, 2020-10-11 17:42:42.301
22.0, 287.6600036621094, 300.6972961425781, -705.7060546875, -95.1093978881836, 0.0, 0.03200000151991844, 0.5120000243186951, 0.0, 0.0, 0.0, 0.0, 0.0, 1.6024561623019152E9, 2020-10-11 17:42:42.301
23.0, 427.1844482421875, 443.9429626464844, -585.95068359375, -77.326171875, 0.0, 0.03200000151991844, 0.5120000243186951, 0.0, 0.0, 0.0, 0.0, 0.0, 1.6024561623348076E9, 2020-10-11 17:42:42.334
23.0, 277.03497314453125, 295.5175476074219, -714.8201904296875, 54.06025314331055, 0.0, 0.03200000151991844, 0.5120000243186951, 0.0, 0.0, 0.0, 0.0, 0.0, 1.6024561623348076E9, 2020-10-11 17:42:42.334
24.0, 239.8154754638672, 254.8685760498047, -747.174072265625, -51.128173828125, 0.0, 0.03200000151991844, 0.5120000243186951, 0.0, 0.0, 0.0, 0.0, 0.0, 1.6024561623356605E9, 2020-10-11 17:42:42.335
24.0, 388.5550231933594, 411.9144592285156, -608.2554321289062, -105.67835235595703, 0.0, 0.03200000151991844, 0.5120000243186951, 0.0, 0.0, 0.0, 0.0, 0.0, 1.6024561623356605E9, 2020-10-11 17:42:42.335
25.0, 348.2725830078125, 376.1497802734375, -654.544189453125, 29.42179298400879, 0.0, 0.03200000151991844, 0.5120000243186951, 0.0, 0.0, 0.0, 0.0, 0.0, 1.6024561623360853E9, 2020-10-11 17:42:42.336
25.0, 205.24009704589844, 230.6190643310547, -756.5537109375, 3.8520970344543457, 0.0, 0.03200000151991844, 0.5120000243186951, 0.0, 0.0, 0.0, 0.0, 0.0, 1.6024561623360853E9, 2020-10-11 17:42:42.336
26.0, 348.2837829589844, 368.9766540527344, -641.1815185546875, -97.97042083740234, 0.0, 0.03200000151991844, 0.5120000243186951, 0.0, 0.0, 0.0, 0.0, 0.0, 1.6024561623369815E9, 2020-10-11 17:42:42.336
26.0, 398.1815490722656, 430.11279296875, -607.48876953125, -25.954906463623047, 0.0, 0.03200000151991844, 0.5120000243186951, 0.0, 0.0, 0.0, 0.0, 0.0, 1.6024561623369815E9, 2020-10-11 17:42:42.336
27.0, 214.53375244140625, 240.30166625976562, -757.5485229492188, 53.09162139892578, 0.0, 0.03200000151991844, 0.5120000243186951, 0.0, 0.0, 0.0, 0.0, 0.0, 1.602456162347265E9, 2020-10-11 17:42:42.347
27.0, 283.9799499511719, 304.1679382324219, -688.0723876953125, -88.25415802001953, 0.0, 0.03200000151991844, 0.5120000243186951, 0.0, 0.0, 0.0, 0.0, 0.0, 1.602456162347265E9, 2020-10-11 17:42:42.347
28.0, 419.9552307128906, 445.6707763671875, -587.9627685546875, -77.83853912353516, 0.0, 0.03200000151991844, 0.5120000243186951, 0.0, 0.0, 0.0, 0.0, 0.0, 1.602456162361849E9, 2020-10-11 17:42:42.361
28.0, 268.83709716796875, 294.8667907714844, -710.7362060546875, 56.13216018676758, 0.0, 0.03200000151991844, 0.5120000243186951, 0.0, 0.0, 0.0, 0.0, 0.0, 1.602456162361849E9, 2020-10-11 17:42:42.361
29.0, 229.82620239257812, 255.45199584960938, -749.80322265625, -52.87096405029297, 0.0, 0.03200000151991844, 0.5120000243186951, 0.0, 0.0, 0.0, 0.0, 0.0, 1.6024561623778937E9, 2020-10-11 17:42:42.377
29.0, 393.6861877441406, 414.0611572265625, -613.427734375, -101.14185333251953, 0.0, 0.03200000151991844, 0.5120000243186951, 0.0, 0.0, 0.0, 0.0, 0.0, 1.6024561623778937E9, 2020-10-11 17:42:42.377
30.0, 345.5611572265625, 374.47430419921875, -657.1060180664062, 26.09328269958496, 0.0, 0.03200000151991844, 0.7680000066757202, 0.0, 0.0, 0.0, 0.0, 0.0, 1.6024561623786683E9, 2020-10-11 17:42:42.378
30.0, 205.74497985839844, 227.79544067382812, -758.8275756835938, 6.234413146972656, 0.0, 0.03200000151991844, 0.7680000066757202, 0.0, 0.0, 0.0, 0.0, 0.0, 1.6024561623786683E9, 2020-10-11 17:42:42.378
31.0, 340.4636535644531, 367.95941162109375, -644.4913330078125, -108.4197006225586, 0.0, 0.03200000151991844, 0.7680000066757202, 0.0, 0.0, 0.0, 0.0, 0.0, 1.6024561623918178E9, 2020-10-11 17:42:42.391
31.0, 399.864501953125, 425.64361572265625, -602.8699951171875, -27.140453338623047, 0.0, 0.03200000151991844, 0.7680000066757202, 0.0, 0.0, 0.0, 0.0, 0.0, 1.6024561623918178E9, 2020-10-11 17:42:42.391
32.0, 208.67706298828125, 233.91390991210938, -765.5968017578125, 47.24615478515625, 0.0, 0.03200000151991844, 0.7680000066757202, 0.0, 0.0, 0.0, 0.0, 0.0, 1.602456162407926E9, 2020-10-11 17:42:42.407
32.0, 282.0426940917969, 304.8635559082031, -711.2373657226562, -89.74637603759766, 0.0, 0.03200000151991844, 0.7680000066757202, 0.0, 0.0, 0.0, 0.0, 0.0, 1.602456162407926E9, 2020-10-11 17:42:42.407
33.0, 427.29290771484375, 448.83099365234375, -582.39404296875, -76.80258178710938, 0.0, 0.03200000151991844, 0.7680000066757202, 0.0, 0.0, 0.0, 0.0, 0.0, 1.602456162408677E9, 2020-10-11 17:42:42.408
33.0, 271.53729248046875, 290.8052673339844, -717.8756713867188, 59.486846923828125, 0.0, 0.03200000151991844, 0.7680000066757202, 0.0, 0.0, 0.0, 0.0, 0.0, 1.602456162408677E9, 2020-10-11 17:42:42.408
34.0, 238.61122131347656, 250.3208465576172, -747.4956665039062, -46.707611083984375, 0.0, 0.03200000151991844, 0.7680000066757202, 0.0, 0.0, 0.0, 0.0, 0.0, 1.602456162421845E9, 2020-10-11 17:42:42.421
34.0, 391.48712158203125, 417.4308166503906, -608.5247192382812, -95.77883911132812, 0.0, 0.03200000151991844, 0.7680000066757202, 0.0, 0.0, 0.0, 0.0, 0.0, 1.602456162421845E9, 2020-10-11 17:42:42.421
35.0, 348.0519104003906, 370.6259460449219, -657.1284790039062, 28.082908630371094, 0.0, 0.03200000151991844, 0.7680000066757202, 0.0, 0.0, 0.0, 0.0, 0.0, 1.6024561624375296E9, 2020-10-11 17:42:42.437
35.0, 211.1566162109375, 226.09751892089844, -778.1665649414062, 7.105809688568115, 0.0, 0.03200000151991844, 0.7680000066757202, 0.0, 0.0, 0.0, 0.0, 0.0, 1.6024561624375296E9, 2020-10-11 17:42:42.437
36.0, 343.1376953125, 364.6832580566406, -650.8865966796875, -101.32137298583984, 0.0, 0.03200000151991844, 0.7680000066757202, 0.0, 0.0, 0.0, 0.0, 0.0, 1.6024561624386299E9, 2020-10-11 17:42:42.438
36.0, 409.0833435058594, 432.3904113769531, -592.334716796875, -20.509611129760742, 0.0, 0.03200000151991844, 0.7680000066757202, 0.0, 0.0, 0.0, 0.0, 0.0, 1.6024561624386299E9, 2020-10-11 17:42:42.438
37.0, 224.10415649414062, 241.77517700195312, -769.2319946289062, 52.89714431762695, 0.0, 0.03200000151991844, 0.7680000066757202, 0.0, 0.0, 0.0, 0.0, 0.0, 1.6024561624520416E9, 2020-10-11 17:42:42.452
37.0, 289.3168029785156, 316.599365234375, -691.3934326171875, -80.4377670288086, 0.0, 0.03200000151991844, 0.7680000066757202, 0.0, 0.0, 0.0, 0.0, 0.0, 1.6024561624520416E9, 2020-10-11 17:42:42.452
38.0, 424.5740051269531, 445.4314270019531, -594.8255004882812, -70.53451538085938, 0.0, 0.03200000151991844, 0.7680000066757202, 0.0, 0.0, 0.0, 0.0, 0.0, 1.602456162467945E9, 2020-10-11 17:42:42.467
38.0, 276.6086120605469, 298.9171142578125, -721.0433349609375, 64.09066772460938, 0.0, 0.03200000151991844, 0.7680000066757202, 0.0, 0.0, 0.0, 0.0, 0.0, 1.602456162467945E9, 2020-10-11 17:42:42.467
39.0, 241.8462371826172, 259.8501281738281, -743.2695922851562, -41.78590393066406, 0.0, 0.03200000151991844, 0.7680000066757202, 0.0, 0.0, 0.0, 0.0, 0.0, 1.602456162468756E9, 2020-10-11 17:42:42.468
39.0, 396.21435546875, 418.7098388671875, -625.7880859375, -100.65567016601562, 0.0, 0.03200000151991844, 0.7680000066757202, 0.0, 0.0, 0.0, 0.0, 0.0, 1.602456162468756E9, 2020-10-11 17:42:42.468
40.0, 356.35076904296875, 375.8206787109375, -664.1819458007812, 30.008956909179688, 0.0, 0.03200000151991844, 0.8960000276565552, 0.0, 0.0, 0.0, 0.0, 0.0, 1.6024561624820263E9, 2020-10-11 17:42:42.482
40.0, 207.75331115722656, 227.57852172851562, -763.8053588867188, 6.698160648345947, 0.0, 0.03200000151991844, 0.8960000276565552, 0.0, 0.0, 0.0, 0.0, 0.0, 1.6024561624820263E9, 2020-10-11 17:42:42.482
41.0, 342.60662841796875, 370.76806640625, -651.9898681640625, -98.78572082519531, 0.0, 0.03200000151991844, 0.8960000276565552, 0.0, 0.0, 0.0, 0.0, 0.0, 1.6024561624978073E9, 2020-10-11 17:42:42.497
41.0, 401.0986633300781, 426.5673828125, -601.1646118164062, -23.490310668945312, 0.0, 0.03200000151991844, 0.8960000276565552, 0.0, 0.0, 0.0, 0.0, 0.0, 1.6024561624978073E9, 2020-10-11 17:42:42.497
42.0, 219.91920471191406, 230.13661193847656, -759.5531005859375, 49.44895553588867, 0.0, 0.03200000151991844, 0.8960000276565552, 0.0, 0.0, 0.0, 0.0, 0.0, 1.6024561624985874E9, 2020-10-11 17:42:42.498
42.0, 290.132080078125, 313.4765319824219, -703.6790161132812, -83.8298568725586, 0.0, 0.03200000151991844, 0.8960000276565552, 0.0, 0.0, 0.0, 0.0, 0.0, 1.6024561624985874E9, 2020-10-11 17:42:42.498
43.0, 422.9770812988281, 448.8758850097656, -581.8742065429688, -67.62113189697266, 0.0, 0.03200000151991844, 0.8960000276565552, 0.0, 0.0, 0.0, 0.0, 0.0, 1.602456162511838E9, 2020-10-11 17:42:42.511
43.0, 270.48638916015625, 298.5244140625, -720.6469116210938, 62.979915618896484, 0.0, 0.03200000151991844, 0.8960000276565552, 0.0, 0.0, 0.0, 0.0, 0.0, 1.602456162511838E9, 2020-10-11 17:42:42.511
44.0, 235.57443237304688, 251.19598388671875, -742.8132934570312, -40.91450500488281, 0.0, 0.03200000151991844, 0.8960000276565552, 0.0, 0.0, 0.0, 0.0, 0.0, 1.6024561625278416E9, 2020-10-11 17:42:42.527
44.0, 394.8492736816406, 417.75244140625, -604.7324829101562, -91.87812042236328, 0.0, 0.03200000151991844, 0.8960000276565552, 0.0, 0.0, 0.0, 0.0, 0.0, 1.6024561625278416E9, 2020-10-11 17:42:42.527
45.0, 340.78155517578125, 374.9978942871094, -647.3748168945312, 35.77962112426758, 0.0, 0.03200000151991844, 0.8960000276565552, 0.0, 0.0, 0.0, 0.0, 0.0, 1.602456162528414E9, 2020-10-11 17:42:42.528
45.0, 210.79385375976562, 224.07797241210938, -757.4363403320312, 9.248772621154785, 0.0, 0.03200000151991844, 0.8960000276565552, 0.0, 0.0, 0.0, 0.0, 0.0, 1.602456162528414E9, 2020-10-11 17:42:42.528
46.0, 354.1292419433594, 373.8310546875, -646.2752685546875, -87.42764282226562, 0.0, 0.03200000151991844, 0.8960000276565552, 0.0, 0.0, 0.0, 0.0, 0.0, 1.602456162541844E9, 2020-10-11 17:42:42.541
46.0, 409.8051452636719, 438.7332763671875, -611.6737060546875, -10.13512897491455, 0.0, 0.03200000151991844, 0.8960000276565552, 0.0, 0.0, 0.0, 0.0, 0.0, 1.602456162541844E9, 2020-10-11 17:42:42.541
47.0, 216.98712158203125, 239.6920623779297, -763.8128662109375, 58.626670837402344, 0.0, 0.03200000151991844, 0.8960000276565552, 0.0, 0.0, 0.0, 0.0, 0.0, 1.602456162557474E9, 2020-10-11 17:42:42.557
47.0, 297.3089599609375, 314.23199462890625, -692.9080810546875, -79.98523712158203, 0.0, 0.03200000151991844, 0.8960000276565552, 0.0, 0.0, 0.0, 0.0, 0.0, 1.602456162557474E9, 2020-10-11 17:42:42.557
48.0, 427.8950500488281, 458.3041687011719, -584.7614135742188, -60.032875061035156, 0.0, 0.03200000151991844, 0.8960000276565552, 0.0, 0.0, 0.0, 0.0, 0.0, 1.6024561625582128E9, 2020-10-11 17:42:42.558
48.0, 264.17718505859375, 296.06732177734375, -715.426025390625, 67.1723403930664, 0.0, 0.03200000151991844, 0.8960000276565552, 0.0, 0.0, 0.0, 0.0, 0.0, 1.6024561625582128E9, 2020-10-11 17:42:42.558
49.0, 232.8742218017578, 248.0095977783203, -739.9373168945312, -48.846832275390625, 0.0, 0.03200000151991844, 0.8960000276565552, 0.0, 0.0, 0.0, 0.0, 0.0, 1.60245616257187E9, 2020-10-11 17:42:42.571
49.0, 390.6531066894531, 408.4288635253906, -593.6025390625, -94.09588623046875, 0.0, 0.03200000151991844, 0.8960000276565552, 0.0, 0.0, 0.0, 0.0, 0.0, 1.60245616257187E9, 2020-10-11 17:42:42.571
50.0, 349.26739501953125, 377.46624755859375, -633.2678833007812, 40.869625091552734, 0.0, 0.03200000151991844, 0.9600000381469727, 0.0, 0.0, 0.0, 0.0, 0.0, 1.602456162587504E9, 2020-10-11 17:42:42.587
50.0, 204.8848114013672, 233.0911407470703, -747.5891723632812, 9.671380996704102, 0.0, 0.03200000151991844, 0.9600000381469727, 0.0, 0.0, 0.0, 0.0, 0.0, 1.602456162587504E9, 2020-10-11 17:42:42.587
51.0, 338.87420654296875, 364.6869812011719, -640.6766357421875, -94.98223876953125, 0.0, 0.03200000151991844, 0.9600000381469727, 0.0, 0.0, 0.0, 0.0, 0.0, 1.6024561625882378E9, 2020-10-11 17:42:42.588
51.0, 392.7100524902344, 428.3213806152344, -596.4523315429688, -15.632781982421875, 0.0, 0.03200000151991844, 0.9600000381469727, 0.0, 0.0, 0.0, 0.0, 0.0, 1.6024561625882378E9, 2020-10-11 17:42:42.588
52.0, 210.9546661376953, 237.72486877441406, -750.30810546875, 60.81825256347656, 0.0, 0.03200000151991844, 0.9600000381469727, 0.0, 0.0, 0.0, 0.0, 0.0, 1.6024561626019094E9, 2020-10-11 17:42:42.601
52.0, 280.471923828125, 302.679443359375, -695.5521850585938, -84.50303649902344, 0.0, 0.03200000151991844, 0.9600000381469727, 0.0, 0.0, 0.0, 0.0, 0.0, 1.6024561626019094E9, 2020-10-11 17:42:42.601
53.0, 412.2061767578125, 444.3917541503906, -584.7277221679688, -71.94819641113281, 0.0, 0.03200000151991844, 0.9600000381469727, 0.0, 0.0, 0.0, 0.0, 0.0, 1.602456162617496E9, 2020-10-11 17:42:42.617
53.0, 253.44366455078125, 287.31219482421875, -728.3511352539062, 62.216976165771484, 0.0, 0.03200000151991844, 0.9600000381469727, 0.0, 0.0, 0.0, 0.0, 0.0, 1.602456162617496E9, 2020-10-11 17:42:42.617
54.0, 221.5909423828125, 245.93394470214844, -748.7822265625, -50.234336853027344, 0.0, 0.03200000151991844, 0.9600000381469727, 0.0, 0.0, 0.0, 0.0, 0.0, 1.6024561626184707E9, 2020-10-11 17:42:42.618
54.0, 385.42474365234375, 411.29736328125, -585.9694213867188, -94.91866302490234, 0.0, 0.03200000151991844, 0.9600000381469727, 0.0, 0.0, 0.0, 0.0, 0.0, 1.6024561626184707E9, 2020-10-11 17:42:42.618
55.0, 331.9591369628906, 367.7499694824219, -635.201416015625, 36.505165100097656, 0.0, 0.03200000151991844, 0.9600000381469727, 0.0, 0.0, 0.0, 0.0, 0.0, 1.602456162632258E9, 2020-10-11 17:42:42.632
55.0, 194.42431640625, 223.49081420898438, -756.1011962890625, 8.60925006866455, 0.0, 0.03200000151991844, 0.9600000381469727, 0.0, 0.0, 0.0, 0.0, 0.0, 1.602456162632258E9, 2020-10-11 17:42:42.632
56.0, 333.4139404296875, 356.9192199707031, -644.5623779296875, -96.32485961914062, 0.0, 0.03200000151991844, 0.9600000381469727, 0.0, 0.0, 0.0, 0.0, 0.0, 1.602456162647462E9, 2020-10-11 17:42:42.647
56.0, 382.3580322265625, 415.35516357421875, -598.7224731445312, -21.743778228759766, 0.0, 0.03200000151991844, 0.9600000381469727, 0.0, 0.0, 0.0, 0.0, 0.0, 1.602456162647462E9, 2020-10-11 17:42:42.647
57.0, 208.5237274169922, 227.04371643066406, -766.0081787109375, 49.19090270996094, 0.0, 0.03200000151991844, 0.9600000381469727, 0.0, 0.0, 0.0, 0.0, 0.0, 1.6024561626484327E9, 2020-10-11 17:42:42.648
57.0, 288.9278259277344, 311.3335876464844, -669.672119140625, -72.17633056640625, 0.0, 0.03200000151991844, 0.9600000381469727, 0.0, 0.0, 0.0, 0.0, 0.0, 1.6024561626484327E9, 2020-10-11 17:42:42.648
58.0, 416.36492919921875, 440.18060302734375, -598.53173828125, -70.82996368408203, 0.0, 0.03200000151991844, 0.9600000381469727, 0.0, 0.0, 0.0, 0.0, 0.0, 1.602456162661952E9, 2020-10-11 17:42:42.661
58.0, 261.046875, 288.3369445800781, -722.1129760742188, 69.62571716308594, 0.0, 0.03200000151991844, 0.9600000381469727, 0.0, 0.0, 0.0, 0.0, 0.0, 1.602456162661952E9, 2020-10-11 17:42:42.661
59.0, 227.60096740722656, 255.34353637695312, -723.16015625, -34.0966682434082, 0.0, 0.03200000151991844, 0.9600000381469727, 0.0, 0.0, 0.0, 0.0, 0.0, 1.602456162677492E9, 2020-10-11 17:42:42.677
59.0, 389.63214111328125, 418.40692138671875, -587.0352783203125, -86.63104248046875, 0.0, 0.03200000151991844, 0.9600000381469727, 0.0, 0.0, 0.0, 0.0, 0.0, 1.602456162677492E9, 2020-10-11 17:42:42.677
60.0, 340.52349853515625, 361.2911682128906, -645.47119140625, 36.78939437866211, 0.0, 0.03200000151991844, 0.9760000705718994, 0.0, 0.0, 0.0, 0.0, 0.0, 1.6024561626784172E9, 2020-10-11 17:42:42.678
60.0, 208.81170654296875, 221.10848999023438, -766.40087890625, 12.371588706970215, 0.0, 0.03200000151991844, 0.9760000705718994, 0.0, 0.0, 0.0, 0.0, 0.0, 1.6024561626784172E9, 2020-10-11 17:42:42.678
61.0, 339.663330078125, 362.7646789550781, -641.3685302734375, -92.84675598144531, 0.0, 0.03200000151991844, 0.9760000705718994, 0.0, 0.0, 0.0, 0.0, 0.0, 1.6024561626918218E9, 2020-10-11 17:42:42.691
61.0, 399.07537841796875, 425.05645751953125, -600.0800170898438, -9.491866111755371, 0.0, 0.03200000151991844, 0.9760000705718994, 0.0, 0.0, 0.0, 0.0, 0.0, 1.6024561626918218E9, 2020-10-11 17:42:42.691
62.0, 218.02682495117188, 243.7722930908203, -758.93603515625, 60.455482482910156, 0.0, 0.03200000151991844, 0.9760000705718994, 0.0, 0.0, 0.0, 0.0, 0.0, 1.6024561627074637E9, 2020-10-11 17:42:42.707
62.0, 287.6488037109375, 314.546142578125, -687.3281860351562, -78.31350708007812, 0.0, 0.03200000151991844, 0.9760000705718994, 0.0, 0.0, 0.0, 0.0, 0.0, 1.6024561627074637E9, 2020-10-11 17:42:42.707
63.0, 425.1424865722656, 448.1017150878906, -569.5437622070312, -59.8309211730957, 0.0, 0.03200000151991844, 0.9760000705718994, 0.0, 0.0, 0.0, 0.0, 0.0, 1.602456162708212E9, 2020-10-11 17:42:42.708
63.0, 263.7321472167969, 285.5731506347656, -711.3794555664062, 69.69303894042969, 0.0, 0.03200000151991844, 0.9760000705718994, 0.0, 0.0, 0.0, 0.0, 0.0, 1.602456162708212E9, 2020-10-11 17:42:42.708
64.0, 232.18234252929688, 252.3217010498047, -740.3262939453125, -39.07821273803711, 0.0, 0.03200000151991844, 0.9760000705718994, 0.0, 0.0, 0.0, 0.0, 0.0, 1.6024561627219844E9, 2020-10-11 17:42:42.721
64.0, 396.11712646484375, 414.55108642578125, -608.954833984375, -92.40918731689453, 0.0, 0.03200000151991844, 0.9760000705718994, 0.0, 0.0, 0.0, 0.0, 0.0, 1.6024561627219844E9, 2020-10-11 17:42:42.721
65.0, 342.7225646972656, 370.1510009765625, -641.2600708007812, 39.85237503051758, 0.0, 0.03200000151991844, 0.9760000705718994, 0.0, 0.0, 0.0, 0.0, 0.0, 1.6024561627375822E9, 2020-10-11 17:42:42.737
65.0, 195.3368377685547, 225.1513214111328, -758.8126220703125, 12.730619430541992, 0.0, 0.03200000151991844, 0.9760000705718994, 0.0, 0.0, 0.0, 0.0, 0.0, 1.6024561627375822E9, 2020-10-11 17:42:42.737
66.0, 336.9107666015625, 358.20574951171875, -650.2919311523438, -94.21929931640625, 0.0, 0.03200000151991844, 0.9760000705718994, 0.0, 0.0, 0.0, 0.0, 0.0, 1.6024561627382712E9, 2020-10-11 17:42:42.738
66.0, 404.38604736328125, 420.5386657714844, -599.8855590820312, -11.215959548950195, 0.0, 0.03200000151991844, 0.9760000705718994, 0.0, 0.0, 0.0, 0.0, 0.0, 1.6024561627382712E9, 2020-10-11 17:42:42.738
67.0, 209.7130126953125, 235.87362670898438, -763.6632690429688, 57.41494369506836, 0.0, 0.03200000151991844, 0.9760000705718994, 0.0, 0.0, 0.0, 0.0, 0.0, 1.6024561627519104E9, 2020-10-11 17:42:42.751
67.0, 287.33837890625, 302.679443359375, -697.467041015625, -77.90959930419922, 0.0, 0.03200000151991844, 0.9760000705718994, 0.0, 0.0, 0.0, 0.0, 0.0, 1.6024561627519104E9, 2020-10-11 17:42:42.751
68.0, 418.4256286621094, 442.248779296875, -586.395751953125, -66.87315368652344, 0.0, 0.03200000151991844, 0.9760000705718994, 0.0, 0.0, 0.0, 0.0, 0.0, 1.6024561627674613E9, 2020-10-11 17:42:42.767
68.0, 258.3803405761719, 281.7883605957031, -708.3052368164062, 72.86820983886719, 0.0, 0.03200000151991844, 0.9760000705718994, 0.0, 0.0, 0.0, 0.0, 0.0, 1.6024561627674613E9, 2020-10-11 17:42:42.767
69.0, 229.85986328125, 252.38528442382812, -733.770263671875, -41.352073669433594, 0.0, 0.03200000151991844, 0.9760000705718994, 0.0, 0.0, 0.0, 0.0, 0.0, 1.602456162768234E9, 2020-10-11 17:42:42.768
69.0, 393.12518310546875, 419.83929443359375, -590.7489624023438, -91.8444595336914, 0.0, 0.03200000151991844, 0.9760000705718994, 0.0, 0.0, 0.0, 0.0, 0.0, 1.602456162768234E9, 2020-10-11 17:42:42.768
70.0, 342.8721618652344, 366.68035888671875, -643.8181762695312, 46.29248046875, 0.0, 0.03200000151991844, 0.9920000433921814, 0.0, 0.0, 0.0, 0.0, 0.0, 1.6024561627820976E9, 2020-10-11 17:42:42.782
70.0, 199.3310546875, 222.32395935058594, -768.3418579101562, 6.578484058380127, 0.0, 0.03200000151991844, 0.9920000433921814, 0.0, 0.0, 0.0, 0.0, 0.0, 1.6024561627820976E9, 2020-10-11 17:42:42.782
71.0, 336.4769287109375, 361.56793212890625, -652.8463134765625, -99.40280151367188, 0.0, 0.03200000151991844, 0.9920000433921814, 0.0, 0.0, 0.0, 0.0, 0.0, 1.602456162797838E9, 2020-10-11 17:42:42.797
71.0, 398.0281982421875, 422.59185791015625, -589.0660400390625, -12.465086936950684, 0.0, 0.03200000151991844, 0.9920000433921814, 0.0, 0.0, 0.0, 0.0, 0.0, 1.602456162797838E9, 2020-10-11 17:42:42.797
72.0, 205.1316375732422, 231.07533264160156, -760.5927734375, 58.98570251464844, 0.0, 0.03200000151991844, 0.9920000433921814, 0.0, 0.0, 0.0, 0.0, 0.0, 1.6024561627984624E9, 2020-10-11 17:42:42.798
72.0, 283.25067138671875, 308.9662170410156, -687.3431396484375, -74.31181335449219, 0.0, 0.03200000151991844, 0.9920000433921814, 0.0, 0.0, 0.0, 0.0, 0.0, 1.6024561627984624E9, 2020-10-11 17:42:42.798
73.0, 417.3522644042969, 440.5134582519531, -580.5802001953125, -56.73054122924805, 0.0, 0.03200000151991844, 0.9920000433921814, 0.0, 0.0, 0.0, 0.0, 0.0, 1.6024561628121908E9, 2020-10-11 17:42:42.812
73.0, 266.8025817871094, 291.48968505859375, -722.561767578125, 76.10322570800781, 0.0, 0.03200000151991844, 0.9920000433921814, 0.0, 0.0, 0.0, 0.0, 0.0, 1.6024561628121908E9, 2020-10-11 17:42:42.812
74.0, 242.57925415039062, 255.2500457763672, -737.0576171875, -32.873722076416016, 0.0, 0.03200000151991844, 0.9920000433921814, 0.0, 0.0, 0.0, 0.0, 0.0, 1.6024561628274972E9, 2020-10-11 17:42:42.827
74.0, 390.9897155761719, 414.29302978515625, -590.1206665039062, -85.79704284667969, 0.0, 0.03200000151991844, 0.9920000433921814, 0.0, 0.0, 0.0, 0.0, 0.0, 1.6024561628274972E9, 2020-10-11 17:42:42.827
75.0, 343.818359375, 368.8719482421875, -649.7010498046875, 49.06000900268555, 0.0, 0.03200000151991844, 0.9920000433921814, 0.0, 0.0, 0.0, 0.0, 0.0, 1.602456162828216E9, 2020-10-11 17:42:42.828
75.0, 213.67356872558594, 232.30201721191406, -765.005859375, 16.384502410888672, 0.0, 0.03200000151991844, 0.9920000433921814, 0.0, 0.0, 0.0, 0.0, 0.0, 1.602456162828216E9, 2020-10-11 17:42:42.828
76.0, 347.01971435546875, 371.871337890625, -638.9076538085938, -89.16295623779297, 0.0, 0.03200000151991844, 0.9920000433921814, 0.0, 0.0, 0.0, 0.0, 0.0, 1.6024561628419857E9, 2020-10-11 17:42:42.841
76.0, 401.88031005859375, 425.2509460449219, -586.1376953125, 0.9686340689659119, 0.0, 0.03200000151991844, 0.9920000433921814, 0.0, 0.0, 0.0, 0.0, 0.0, 1.6024561628419857E9, 2020-10-11 17:42:42.841
77.0, 219.02911376953125, 242.47828674316406, -743.8455200195312, 73.35440063476562, 0.0, 0.03200000151991844, 0.9920000433921814, 0.0, 0.0, 0.0, 0.0, 0.0, 1.6024561628575077E9, 2020-10-11 17:42:42.857
77.0, 291.8861083984375, 313.79443359375, -684.0595092773438, -71.63030242919922, 0.0, 0.03200000151991844, 0.9920000433921814, 0.0, 0.0, 0.0, 0.0, 0.0, 1.6024561628575077E9, 2020-10-11 17:42:42.857
78.0, 428.1792907714844, 447.2303161621094, -584.2901611328125, -59.842140197753906, 0.0, 0.03200000151991844, 0.9920000433921814, 0.0, 0.0, 0.0, 0.0, 0.0, 1.602456162858235E9, 2020-10-11 17:42:42.858
78.0, 270.97259521484375, 294.06646728515625, -724.65234375, 80.24703216552734, 0.0, 0.03200000151991844, 0.9920000433921814, 0.0, 0.0, 0.0, 0.0, 0.0, 1.602456162858235E9, 2020-10-11 17:42:42.858
79.0, 239.84913635253906, 261.38348388671875, -739.8363647460938, -30.435306549072266, 0.0, 0.03200000151991844, 0.9920000433921814, 0.0, 0.0, 0.0, 0.0, 0.0, 1.6024561628874905E9, 2020-10-11 17:42:42.887
79.0, 396.56964111328125, 415.6206970214844, -619.1796875, -88.53465270996094, 0.0, 0.03200000151991844, 0.9920000433921814, 0.0, 0.0, 0.0, 0.0, 0.0, 1.6024561628874905E9, 2020-10-11 17:42:42.887
80.0, 347.9808654785156, 368.55780029296875, -652.5209350585938, 44.86758041381836, 0.0, 0.03200000151991844, 1.0080000162124634, 0.0, 0.0, 0.0, 0.0, 0.0, 1.6024561629038885E9, 2020-10-11 17:42:42.903
80.0, 205.74124145507812, 224.23130798339844, -753.3187255859375, 15.531804084777832, 0.0, 0.03200000151991844, 1.0080000162124634, 0.0, 0.0, 0.0, 0.0, 0.0, 1.6024561629038885E9, 2020-10-11 17:42:42.903
81.0, 345.4040832519531, 369.4665832519531, -632.5498657226562, -88.50099182128906, 0.0, 0.03200000151991844, 1.0080000162124634, 0.0, 0.0, 0.0, 0.0, 0.0, 1.6024561629046545E9, 2020-10-11 17:42:42.904
81.0, 403.8848876953125, 429.72760009765625, -601.1047973632812, -5.146102428436279, 0.0, 0.03200000151991844, 1.0080000162124634, 0.0, 0.0, 0.0, 0.0, 0.0, 1.6024561629046545E9, 2020-10-11 17:42:42.904
82.0, 211.6278533935547, 227.8552703857422, -765.989501953125, 55.03262710571289, 0.0, 0.03200000151991844, 1.0080000162124634, 0.0, 0.0, 0.0, 0.0, 0.0, 1.602456162905701E9, 2020-10-11 17:42:42.905
82.0, 291.7926025390625, 311.7337646484375, -694.0899047851562, -75.36272430419922, 0.0, 0.03200000151991844, 1.0080000162124634, 0.0, 0.0, 0.0, 0.0, 0.0, 1.602456162905701E9, 2020-10-11 17:42:42.905
83.0, 418.20123291015625, 433.1308898925781, -588.7631225585938, -68.68700408935547, 0.0, 0.03200000151991844, 1.0080000162124634, 0.0, 0.0, 0.0, 0.0, 0.0, 1.6024561629062943E9, 2020-10-11 17:42:42.906
83.0, 266.3126525878906, 281.5228271484375, -722.2363891601562, 73.00284576416016, 0.0, 0.03200000151991844, 1.0080000162124634, 0.0, 0.0, 0.0, 0.0, 0.0, 1.6024561629062943E9, 2020-10-11 17:42:42.906
84.0, 234.11961364746094, 254.04953002929688, -732.6370239257812, -35.74596405029297, 0.0, 0.03200000151991844, 1.0080000162124634, 0.0, 0.0, 0.0, 0.0, 0.0, 1.6024561629168072E9, 2020-10-11 17:42:42.916
84.0, 387.7883605957031, 417.5691833496094, -604.9606323242188, -85.54273223876953, 0.0, 0.03200000151991844, 1.0080000162124634, 0.0, 0.0, 0.0, 0.0, 0.0, 1.6024561629168072E9, 2020-10-11 17:42:42.916
85.0, 342.17279052734375, 367.66021728515625, -656.8741455078125, 43.57731246948242, 0.0, 0.03200000151991844, 1.0080000162124634, 0.0, 0.0, 0.0, 0.0, 0.0, 1.6024561629318423E9, 2020-10-11 17:42:42.931
85.0, 203.02981567382812, 224.58660888671875, -765.2116088867188, 11.27953815460205, 0.0, 0.03200000151991844, 1.0080000162124634, 0.0, 0.0, 0.0, 0.0, 0.0, 1.6024561629318423E9, 2020-10-11 17:42:42.931
86.0, 350.54644775390625, 372.2341003417969, -651.4999389648438, -85.44549560546875, 0.0, 0.03200000151991844, 1.0080000162124634, 0.0, 0.0, 0.0, 0.0, 0.0, 1.6024561629475305E9, 2020-10-11 17:42:42.947
86.0, 405.04052734375, 431.6274719238281, -599.4928588867188, -3.882016181945801, 0.0, 0.03200000151991844, 1.0080000162124634, 0.0, 0.0, 0.0, 0.0, 0.0, 1.6024561629475305E9, 2020-10-11 17:42:42.947
87.0, 223.60301208496094, 235.52955627441406, -761.4380493164062, 65.59410858154297, 0.0, 0.03200000151991844, 1.0080000162124634, 0.0, 0.0, 0.0, 0.0, 0.0, 1.602456162948217E9, 2020-10-11 17:42:42.948
87.0, 285.16925048828125, 306.4567565917969, -694.5012817382812, -76.55200958251953, 0.0, 0.03200000151991844, 1.0080000162124634, 0.0, 0.0, 0.0, 0.0, 0.0, 1.602456162948217E9, 2020-10-11 17:42:42.948
88.0, 426.3841247558594, 452.754150390625, -572.9208984375, -55.481414794921875, 0.0, 0.03200000151991844, 1.0080000162124634, 0.0, 0.0, 0.0, 0.0, 0.0, 1.6024561629618392E9, 2020-10-11 17:42:42.961
88.0, 271.5859375, 302.174560546875, -700.8217163085938, 86.55998229980469, 0.0, 0.03200000151991844, 1.0080000162124634, 0.0, 0.0, 0.0, 0.0, 0.0, 1.6024561629618392E9, 2020-10-11 17:42:42.961
89.0, 236.7300567626953, 263.2235107421875, -734.088134765625, -35.865638732910156, 0.0, 0.03200000151991844, 1.0080000162124634, 0.0, 0.0, 0.0, 0.0, 0.0, 1.6024561629774754E9, 2020-10-11 17:42:42.977
89.0, 398.8360290527344, 424.618896484375, -612.7321166992188, -87.86894989013672, 0.0, 0.03200000151991844, 1.0080000162124634, 0.0, 0.0, 0.0, 0.0, 0.0, 1.6024561629774754E9, 2020-10-11 17:42:42.977
90.0, 347.468505859375, 369.3656005859375, -661.3134155273438, 49.49009704589844, 0.0, 0.03200000151991844, 1.0080000162124634, 0.0, 0.0, 0.0, 0.0, 0.0, 1.6024561629787557E9, 2020-10-11 17:42:42.978
90.0, 220.37921142578125, 233.6184539794922, -775.5411987304688, 16.765972137451172, 0.0, 0.03200000151991844, 1.0080000162124634, 0.0, 0.0, 0.0, 0.0, 0.0, 1.6024561629787557E9, 2020-10-11 17:42:42.978
91.0, 345.69952392578125, 369.7246398925781, -650.0787353515625, -92.88789367675781, 0.0, 0.03200000151991844, 1.0080000162124634, 0.0, 0.0, 0.0, 0.0, 0.0, 1.602456162991805E9, 2020-10-11 17:42:42.991
91.0, 401.56988525390625, 421.0959167480469, -603.0831909179688, -5.553751468658447, 0.0, 0.03200000151991844, 1.0080000162124634, 0.0, 0.0, 0.0, 0.0, 0.0, 1.602456162991805E9, 2020-10-11 17:42:42.991
92.0, 221.0411834716797, 242.81114196777344, -745.9884643554688, 68.28309631347656, 0.0, 0.03200000151991844, 1.0080000162124634, 0.0, 0.0, 0.0, 0.0, 0.0, 1.6024561630074458E9, 2020-10-11 17:42:43.007
92.0, 296.31414794921875, 318.4730529785156, -694.086181640625, -72.9130859375, 0.0, 0.03200000151991844, 1.0080000162124634, 0.0, 0.0, 0.0, 0.0, 0.0, 1.6024561630074458E9, 2020-10-11 17:42:43.007
93.0, 433.3852233886719, 454.6278381347656, -584.9484252929688, -52.007049560546875, 0.0, 0.03200000151991844, 1.0080000162124634, 0.0, 0.0, 0.0, 0.0, 0.0, 1.6024561630081837E9, 2020-10-11 17:42:43.008
93.0, 262.72235107421875, 290.6519470214844, -722.2550659179688, 79.8543472290039, 0.0, 0.03200000151991844, 1.0080000162124634, 0.0, 0.0, 0.0, 0.0, 0.0, 1.6024561630081837E9, 2020-10-11 17:42:43.008
94.0, 240.5858917236328, 265.11962890625, -727.5470581054688, -29.94537925720215, 0.0, 0.03200000151991844, 1.0080000162124634, 0.0, 0.0, 0.0, 0.0, 0.0, 1.6024561630218086E9, 2020-10-11 17:42:43.021
94.0, 408.36529541015625, 427.9623718261719, -609.9907836914062, -84.88076782226562, 0.0, 0.03200000151991844, 1.0080000162124634, 0.0, 0.0, 0.0, 0.0, 0.0, 1.6024561630218086E9, 2020-10-11 17:42:43.021
95.0, 346.365234375, 375.3045654296875, -642.5166625976562, 59.96555709838867, 0.0, 0.03200000151991844, 1.0080000162124634, 0.0, 0.0, 0.0, 0.0, 0.0, 1.602456163037524E9, 2020-10-11 17:42:43.037
95.0, 215.88011169433594, 239.04879760742188, -752.3612670898438, 23.93910026550293, 0.0, 0.03200000151991844, 1.0080000162124634, 0.0, 0.0, 0.0, 0.0, 0.0, 1.602456163037524E9, 2020-10-11 17:42:43.037
96.0, 348.36981201171875, 374.5304260253906, -639.6294555664062, -87.1396713256836, 0.0, 0.03200000151991844, 1.0080000162124634, 0.0, 0.0, 0.0, 0.0, 0.0, 1.6024561630382714E9, 2020-10-11 17:42:43.038
96.0, 410.0370178222656, 435.52069091796875, -603.5170288085938, -2.8348441123962402, 0.0, 0.03200000151991844, 1.0080000162124634, 0.0, 0.0, 0.0, 0.0, 0.0, 1.6024561630382714E9, 2020-10-11 17:42:43.038
97.0, 216.3289031982422, 240.1221466064453, -762.7357788085938, 65.63150787353516, 0.0, 0.03200000151991844, 1.0080000162124634, 0.0, 0.0, 0.0, 0.0, 0.0, 1.6024561630518284E9, 2020-10-11 17:42:43.051
97.0, 297.82879638671875, 312.9529724121094, -691.210205078125, -74.18465423583984, 0.0, 0.03200000151991844, 1.0080000162124634, 0.0, 0.0, 0.0, 0.0, 0.0, 1.6024561630518284E9, 2020-10-11 17:42:43.051
98.0, 434.22296142578125, 453.2478332519531, -578.4409790039062, -50.002464294433594, 0.0, 0.03200000151991844, 1.0080000162124634, 0.0, 0.0, 0.0, 0.0, 0.0, 1.6024561630674784E9, 2020-10-11 17:42:43.067
98.0, 271.11468505859375, 292.6153869628906, -710.7586669921875, 87.9063491821289, 0.0, 0.03200000151991844, 1.0080000162124634, 0.0, 0.0, 0.0, 0.0, 0.0, 1.6024561630674784E9, 2020-10-11 17:42:43.067
99.0, 248.2975616455078, 261.8547058105469, -730.2285766601562, -34.22008514404297, 0.0, 0.03200000151991844, 1.0080000162124634, 0.0, 0.0, 0.0, 0.0, 0.0, 1.6024561630683508E9, 2020-10-11 17:42:43.068
99.0, 395.9899597167969, 417.4644775390625, -591.3585815429688, -83.07439422607422, 0.0, 0.03200000151991844, 1.0080000162124634, 0.0, 0.0, 0.0, 0.0, 0.0, 1.6024561630683508E9, 2020-10-11 17:42:43.068
100.0, 343.8557434082031, 370.0088806152344, -647.9806518554688, 46.82728576660156, 0.0, 0.03200000151991844, 1.0240000486373901, 0.0, 0.0, 0.0, 0.0, 0.0, 1.6024561630824842E9, 2020-10-11 17:42:43.082
100.0, 209.95611572265625, 230.51808166503906, -756.8267211914062, 17.005325317382812, 0.0, 0.03200000151991844, 1.0240000486373901, 0.0, 0.0, 0.0, 0.0, 0.0, 1.6024561630824842E9, 2020-10-11 17:42:43.082
0.0, 349.23187255859375, 375.5551452636719, -631.480224609375, -78.62391662597656, 0.0, 0.03200000151991844, 1.0240000486373901, 0.0, 0.0, 0.0, 0.0, 0.0, 1.6024561630832086E9, 2020-10-11 17:42:43.083
1.0, 411.53485107421875, 436.650146484375, -592.93310546875, 3.7324202060699463, 0.0, 0.03200000151991844, 1.0240000486373901, 0.0, 0.0, 0.0, 0.0, 0.0, 1.6024561630968108E9, 2020-10-11 17:42:43.096
1.0, 218.09226989746094, 239.37416076660156, -750.63720703125, 70.40361785888672, 0.0, 0.03200000151991844, 1.0240000486373901, 0.0, 0.0, 0.0, 0.0, 0.0, 1.6024561630968108E9, 2020-10-11 17:42:43.096
2.0, 299.5734558105469, 320.12982177734375, -684.1006469726562, -71.39469146728516, 0.0, 0.03200000151991844, 1.0240000486373901, 0.0, 0.0, 0.0, 0.0, 0.0, 1.6024561631124914E9, 2020-10-11 17:42:43.112
2.0, 431.6106262207031, 457.31683349609375, -575.2246704101562, -50.27173614501953, 0.0, 0.03200000151991844, 1.0240000486373901, 0.0, 0.0, 0.0, 0.0, 0.0, 1.6024561631124914E9, 2020-10-11 17:42:43.112
3.0, 272.73968505859375, 289.9899597167969, -724.5626220703125, 80.21337127685547, 0.0, 0.03200000151991844, 1.0240000486373901, 0.0, 0.0, 0.0, 0.0, 0.0, 1.602456163113197E9, 2020-10-11 17:42:43.113
3.0, 240.09036254882812, 258.2419738769531, -726.0885009765625, -30.18473243713379, 0.0, 0.03200000151991844, 1.0240000486373901, 0.0, 0.0, 0.0, 0.0, 0.0, 1.602456163113197E9, 2020-10-11 17:42:43.113
4.0, 406.5009460449219, 425.6735534667969, -578.81494140625, -76.14810180664062, 0.0, 0.03200000151991844, 1.0240000486373901, 0.0, 0.0, 0.0, 0.0, 0.0, 1.6024561631267884E9, 2020-10-11 17:42:43.126
4.0, 354.0899963378906, 378.6854248046875, -632.1197509765625, 61.154842376708984, 0.0, 0.03200000151991844, 1.0240000486373901, 0.0, 0.0, 0.0, 0.0, 0.0, 1.6024561631267884E9, 2020-10-11 17:42:43.126
5.0, 220.029541015625, 239.47140502929688, -743.5912475585938, 24.069995880126953, 0.0, 0.03200000151991844, 1.0240000486373901, 0.0, 0.0, 0.0, 0.0, 0.0, 1.602456163142464E9, 2020-10-11 17:42:43.142
5.0, 356.45733642578125, 379.8822021484375, -639.1358032226562, -83.511962890625, 0.0, 0.03200000151991844, 1.0240000486373901, 0.0, 0.0, 0.0, 0.0, 0.0, 1.602456163142464E9, 2020-10-11 17:42:43.142
6.0, 410.2408447265625, 434.4024658203125, -594.1710205078125, 6.952474117279053, 0.0, 0.03200000151991844, 1.0240000486373901, 0.0, 0.0, 0.0, 0.0, 0.0, 1.6024561631431916E9, 2020-10-11 17:42:43.143
6.0, 219.69668579101562, 241.4722442626953, -762.6123657226562, 67.8904037475586, 0.0, 0.03200000151991844, 1.0240000486373901, 0.0, 0.0, 0.0, 0.0, 0.0, 1.6024561631431916E9, 2020-10-11 17:42:43.143
7.0, 301.14794921875, 311.5542297363281, -694.4302368164062, -66.56273651123047, 0.0, 0.03200000151991844, 1.0240000486373901, 0.0, 0.0, 0.0, 0.0, 0.0, 1.6024561631567748E9, 2020-10-11 17:42:43.156
7.0, 432.6017150878906, 453.9023132324219, -577.7191772460938, -43.416500091552734, 0.0, 0.03200000151991844, 1.0240000486373901, 0.0, 0.0, 0.0, 0.0, 0.0, 1.6024561631567748E9, 2020-10-11 17:42:43.156
8.0, 273.70458984375, 299.22003173828125, -710.3023681640625, 82.32267761230469, 0.0, 0.03200000151991844, 1.0240000486373901, 0.0, 0.0, 0.0, 0.0, 0.0, 1.6024561631725576E9, 2020-10-11 17:42:43.172
8.0, 246.6875457763672, 265.7629089355469, -726.8065185546875, -29.11138153076172, 0.0, 0.03200000151991844, 1.0240000486373901, 0.0, 0.0, 0.0, 0.0, 0.0, 1.6024561631725576E9, 2020-10-11 17:42:43.172
9.0, 411.302978515625, 428.27276611328125, -585.1802978515625, -77.70016479492188, 0.0, 0.03200000151991844, 1.0240000486373901, 0.0, 0.0, 0.0, 0.0, 0.0, 1.602456163173234E9, 2020-10-11 17:42:43.173
9.0, 351.12799072265625, 370.334228515625, -645.9312133789062, 52.43339920043945, 0.0, 0.03200000151991844, 1.0240000486373901, 0.0, 0.0, 0.0, 0.0, 0.0, 1.602456163173234E9, 2020-10-11 17:42:43.173
10.0, 217.7668914794922, 235.39865112304688, -765.8099365234375, 13.478599548339844, 0.0, 0.03200000151991844, 1.0240000486373901, 0.0, 0.0, 0.0, 0.0, 0.0, 1.6024561631867807E9, 2020-10-11 17:42:43.186
10.0, 360.2982177734375, 369.59375, -648.7735595703125, -88.22798156738281, 0.0, 0.03200000151991844, 1.0240000486373901, 0.0, 0.0, 0.0, 0.0, 0.0, 1.6024561631867807E9, 2020-10-11 17:42:43.186
11.0, 409.1263427734375, 429.48077392578125, -599.073974609375, -3.1153366565704346, 0.0, 0.03200000151991844, 1.0240000486373901, 0.0, 0.0, 0.0, 0.0, 0.0, 1.602456163202444E9, 2020-10-11 17:42:43.202
11.0, 223.6647186279297, 243.08041381835938, -766.9581298828125, 65.35475158691406, 0.0, 0.03200000151991844, 1.0240000486373901, 0.0, 0.0, 0.0, 0.0, 0.0, 1.602456163202444E9, 2020-10-11 17:42:43.202
12.0, 301.0544738769531, 323.7575378417969, -689.8339233398438, -73.33195495605469, 0.0, 0.03200000151991844, 1.0240000486373901, 0.0, 0.0, 0.0, 0.0, 0.0, 1.6024561632032197E9, 2020-10-11 17:42:43.203
12.0, 427.231201171875, 453.29644775390625, -571.970947265625, -47.69868469238281, 0.0, 0.03200000151991844, 1.0240000486373901, 0.0, 0.0, 0.0, 0.0, 0.0, 1.6024561632032197E9, 2020-10-11 17:42:43.203
13.0, 270.6341247558594, 292.4208984375, -716.3123779296875, 87.42764282226562, 0.0, 0.03200000151991844, 1.0240000486373901, 0.0, 0.0, 0.0, 0.0, 0.0, 1.6024561632167623E9, 2020-10-11 17:42:43.216
13.0, 256.85260009765625, 264.8204345703125, -729.0803833007812, -31.804109573364258, 0.0, 0.03200000151991844, 1.0240000486373901, 0.0, 0.0, 0.0, 0.0, 0.0, 1.6024561632167623E9, 2020-10-11 17:42:43.216
14.0, 404.1186218261719, 438.8267822265625, -582.20703125, -75.31036376953125, 0.0, 0.03200000151991844, 1.0240000486373901, 0.0, 0.0, 0.0, 0.0, 0.0, 1.6024561632324686E9, 2020-10-11 17:42:43.232
14.0, 344.39617919921875, 365.0759582519531, -643.4927978515625, 55.99004364013672, 0.0, 0.03200000151991844, 1.0240000486373901, 0.0, 0.0, 0.0, 0.0, 0.0, 1.6024561632324686E9, 2020-10-11 17:42:43.232
15.0, 209.45309448242188, 232.42916870117188, -767.6126098632812, 13.594536781311035, 0.0, 0.03200000151991844, 1.0240000486373901, 0.0, 0.0, 0.0, 0.0, 0.0, 1.6024561632331724E9, 2020-10-11 17:42:43.233
15.0, 358.3422546386719, 373.24761962890625, -649.3157958984375, -84.04302978515625, 0.0, 0.03200000151991844, 1.0240000486373901, 0.0, 0.0, 0.0, 0.0, 0.0, 1.6024561632331724E9, 2020-10-11 17:42:43.233
16.0, 409.8406677246094, 433.4974060058594, -604.9381713867188, 1.2827856540679932, 0.0, 0.03200000151991844, 1.0240000486373901, 0.0, 0.0, 0.0, 0.0, 0.0, 1.6024561632467978E9, 2020-10-11 17:42:43.246
16.0, 225.51596069335938, 245.06256103515625, -743.1237182617188, 73.75830841064453, 0.0, 0.03200000151991844, 1.0240000486373901, 0.0, 0.0, 0.0, 0.0, 0.0, 1.6024561632467978E9, 2020-10-11 17:42:43.246
17.0, 304.2707824707031, 325.49658203125, -674.2908935546875, -62.57600784301758, 0.0, 0.03200000151991844, 1.0240000486373901, 0.0, 0.0, 0.0, 0.0, 0.0, 1.6024561632624745E9, 2020-10-11 17:42:43.262
17.0, 425.3313293457031, 452.06976318359375, -590.0309448242188, -49.97254180908203, 0.0, 0.03200000151991844, 1.0240000486373901, 0.0, 0.0, 0.0, 0.0, 0.0, 1.6024561632624745E9, 2020-10-11 17:42:43.262
18.0, 269.50091552734375, 293.5541076660156, -708.3837890625, 88.40001678466797, 0.0, 0.03200000151991844, 1.0240000486373901, 0.0, 0.0, 0.0, 0.0, 0.0, 1.6024561632631671E9, 2020-10-11 17:42:43.263
18.0, 245.47581481933594, 262.9130859375, -726.0324096679688, -27.383546829223633, 0.0, 0.03200000151991844, 1.0240000486373901, 0.0, 0.0, 0.0, 0.0, 0.0, 1.6024561632631671E9, 2020-10-11 17:42:43.263
19.0, 405.3116455078125, 428.91229248046875, -592.9630126953125, -79.20359802246094, 0.0, 0.03200000151991844, 1.0240000486373901, 0.0, 0.0, 0.0, 0.0, 0.0, 1.6024561632768044E9, 2020-10-11 17:42:43.276
19.0, 354.9464111328125, 370.8316650390625, -660.1577758789062, 60.14133071899414, 0.0, 0.03200000151991844, 1.0240000486373901, 0.0, 0.0, 0.0, 0.0, 0.0, 1.6024561632768044E9, 2020-10-11 17:42:43.276
20.0, 219.3413848876953, 239.40408325195312, -754.7772827148438, 22.158906936645508, 0.0, 0.03200000151991844, 1.0240000486373901, 0.0, 0.0, 0.0, 0.0, 0.0, 1.6024561632924852E9, 2020-10-11 17:42:43.292
20.0, 361.1621398925781, 378.2628173828125, -630.1114501953125, -80.79306030273438, 0.0, 0.03200000151991844, 1.0240000486373901, 0.0, 0.0, 0.0, 0.0, 0.0, 1.6024561632924852E9, 2020-10-11 17:42:43.292
21.0, 416.6398010253906, 434.1743469238281, -599.9902954101562, 6.578484058380127, 0.0, 0.03200000151991844, 1.0240000486373901, 0.0, 0.0, 0.0, 0.0, 0.0, 1.6024561632932177E9, 2020-10-11 17:42:43.293
21.0, 238.2017059326172, 249.70376586914062, -750.390380859375, 74.6371841430664, 0.0, 0.03200000151991844, 1.0240000486373901, 0.0, 0.0, 0.0, 0.0, 0.0, 1.6024561632932177E9, 2020-10-11 17:42:43.293
22.0, 316.1374816894531, 330.6913146972656, -678.4159545898438, -61.64850997924805, 0.0, 0.03200000151991844, 1.0240000486373901, 0.0, 0.0, 0.0, 0.0, 0.0, 1.6024561633068302E9, 2020-10-11 17:42:43.306
22.0, 438.48455810546875, 456.0415344238281, -580.2996826171875, -42.31696701049805, 0.0, 0.03200000151991844, 1.0240000486373901, 0.0, 0.0, 0.0, 0.0, 0.0, 1.6024561633068302E9, 2020-10-11 17:42:43.306
23.0, 274.8714294433594, 296.09722900390625, -729.1290283203125, 85.44175720214844, 0.0, 0.03200000151991844, 1.0240000486373901, 0.0, 0.0, 0.0, 0.0, 0.0, 1.6024561633225262E9, 2020-10-11 17:42:43.322
23.0, 247.52528381347656, 267.1429138183594, -741.8970336914062, -35.03912353515625, 0.0, 0.03200000151991844, 1.0240000486373901, 0.0, 0.0, 0.0, 0.0, 0.0, 1.6024561633225262E9, 2020-10-11 17:42:43.322
24.0, 405.1770324707031, 431.30584716796875, -600.693359375, -77.91333770751953, 0.0, 0.03200000151991844, 1.0240000486373901, 0.0, 0.0, 0.0, 0.0, 0.0, 1.6024561633231971E9, 2020-10-11 17:42:43.323
24.0, 344.2652587890625, 375.5401916503906, -647.5692749023438, 59.969295501708984, 0.0, 0.03200000151991844, 1.0240000486373901, 0.0, 0.0, 0.0, 0.0, 0.0, 1.6024561633231971E9, 2020-10-11 17:42:43.323
25.0, 224.9736785888672, 236.8946075439453, -757.1782836914062, 24.09991455078125, 0.0, 0.03200000151991844, 1.0240000486373901, 0.0, 0.0, 0.0, 0.0, 0.0, 1.6024561633368232E9, 2020-10-11 17:42:43.336
25.0, 358.83966064453125, 380.5142517089844, -637.5501098632812, -80.56492614746094, 0.0, 0.03200000151991844, 1.0240000486373901, 0.0, 0.0, 0.0, 0.0, 0.0, 1.6024561633368232E9, 2020-10-11 17:42:43.336
26.0, 413.3150329589844, 434.20050048828125, -592.9255981445312, 7.917368412017822, 0.0, 0.03200000151991844, 1.0240000486373901, 0.0, 0.0, 0.0, 0.0, 0.0, 1.6024561633532553E9, 2020-10-11 17:42:43.353
26.0, 225.92361450195312, 241.73777770996094, -758.9061279296875, 67.11250305175781, 0.0, 0.03200000151991844, 1.0240000486373901, 0.0, 0.0, 0.0, 0.0, 0.0, 1.6024561633532553E9, 2020-10-11 17:42:43.353
27.0, 303.7920837402344, 323.6228942871094, -689.3551635742188, -70.4784164428711, 0.0, 0.03200000151991844, 1.0240000486373901, 0.0, 0.0, 0.0, 0.0, 0.0, 1.6024561633675816E9, 2020-10-11 17:42:43.367
27.0, 430.73175048828125, 448.4009094238281, -582.7792358398438, -54.03033447265625, 0.0, 0.03200000151991844, 1.0240000486373901, 0.0, 0.0, 0.0, 0.0, 0.0, 1.6024561633675816E9, 2020-10-11 17:42:43.367
28.0, 269.5308532714844, 288.2958068847656, -723.8632202148438, 81.74673461914062, 0.0, 0.03200000151991844, 1.0240000486373901, 0.0, 0.0, 0.0, 0.0, 0.0, 1.6024561633682663E9, 2020-10-11 17:42:43.368
28.0, 248.24708557128906, 264.97003173828125, -734.275146484375, -30.29693031311035, 0.0, 0.03200000151991844, 1.0240000486373901, 0.0, 0.0, 0.0, 0.0, 0.0, 1.6024561633682663E9, 2020-10-11 17:42:43.368
29.0, 408.6214599609375, 425.73712158203125, -594.93017578125, -78.65757751464844, 0.0, 0.03200000151991844, 1.0240000486373901, 0.0, 0.0, 0.0, 0.0, 0.0, 1.6024561633826964E9, 2020-10-11 17:42:43.382
29.0, 349.1047058105469, 367.469482421875, -656.2757568359375, 53.77602005004883, 0.0, 0.03200000151991844, 1.0240000486373901, 0.0, 0.0, 0.0, 0.0, 0.0, 1.6024561633826964E9, 2020-10-11 17:42:43.382
30.0, 221.6414337158203, 229.601806640625, -763.2631225585938, 18.37038803100586, 0.0, 0.03200000151991844, 1.0240000486373901, 0.0, 0.0, 0.0, 0.0, 0.0, 1.6024561633836553E9, 2020-10-11 17:42:43.383
30.0, 368.5895690917969, 377.2755126953125, -633.5708618164062, -80.94639587402344, 0.0, 0.03200000151991844, 1.0240000486373901, 0.0, 0.0, 0.0, 0.0, 0.0, 1.6024561633836553E9, 2020-10-11 17:42:43.383
31.0, 411.4151611328125, 432.89154052734375, -603.44970703125, 8.392335891723633, 0.0, 0.03200000151991844, 1.0240000486373901, 0.0, 0.0, 0.0, 0.0, 0.0, 1.6024561633967834E9, 2020-10-11 17:42:43.396
31.0, 220.10433959960938, 242.9158477783203, -760.9406127929688, 71.72006225585938, 0.0, 0.03200000151991844, 1.0240000486373901, 0.0, 0.0, 0.0, 0.0, 0.0, 1.6024561633967834E9, 2020-10-11 17:42:43.396
32.0, 303.201171875, 318.4580993652344, -679.9530639648438, -69.85385131835938, 0.0, 0.03200000151991844, 1.0240000486373901, 0.0, 0.0, 0.0, 0.0, 0.0, 1.6024561634125104E9, 2020-10-11 17:42:43.412
32.0, 440.9790954589844, 452.9523620605469, -581.4740600585938, -41.737281799316406, 0.0, 0.03200000151991844, 1.0240000486373901, 0.0, 0.0, 0.0, 0.0, 0.0, 1.6024561634125104E9, 2020-10-11 17:42:43.412
33.0, 275.1781005859375, 298.0531921386719, -716.0692749023438, 91.87064361572266, 0.0, 0.03200000151991844, 1.0240000486373901, 0.0, 0.0, 0.0, 0.0, 0.0, 1.6024561634132187E9, 2020-10-11 17:42:43.413
33.0, 252.2861785888672, 268.100341796875, -721.8212890625, -22.35712242126465, 0.0, 0.03200000151991844, 1.0240000486373901, 0.0, 0.0, 0.0, 0.0, 0.0, 1.6024561634132187E9, 2020-10-11 17:42:43.413
34.0, 410.8317565917969, 430.0828857421875, -592.0504760742188, -73.22724151611328, 0.0, 0.03200000151991844, 1.0240000486373901, 0.0, 0.0, 0.0, 0.0, 0.0, 1.602456163443204E9, 2020-10-11 17:42:43.443
34.0, 354.5013732910156, 369.1000671386719, -664.5409545898438, 56.88387680053711, 0.0, 0.03200000151991844, 1.0240000486373901, 0.0, 0.0, 0.0, 0.0, 0.0, 1.602456163443204E9, 2020-10-11 17:42:43.443
35.0, 219.69668579101562, 233.88772583007812, -744.9974365234375, 22.465579986572266, 0.0, 0.03200000151991844, 1.0240000486373901, 0.0, 0.0, 0.0, 0.0, 0.0, 1.602456163443922E9, 2020-10-11 17:42:43.443
35.0, 365.5116271972656, 382.31689453125, -628.6678466796875, -78.05545043945312, 0.0, 0.03200000151991844, 1.0240000486373901, 0.0, 0.0, 0.0, 0.0, 0.0, 1.602456163443922E9, 2020-10-11 17:42:43.443
36.0, 409.6611633300781, 431.97900390625, -603.0719604492188, 9.31609058380127, 0.0, 0.03200000151991844, 1.0240000486373901, 0.0, 0.0, 0.0, 0.0, 0.0, 1.6024561634447453E9, 2020-10-11 17:42:43.444
36.0, 227.6103057861328, 243.18885803222656, -762.915283203125, 74.22953796386719, 0.0, 0.03200000151991844, 1.0240000486373901, 0.0, 0.0, 0.0, 0.0, 0.0, 1.6024561634447453E9, 2020-10-11 17:42:43.444
37.0, 308.5193176269531, 319.3743591308594, -685.4694213867188, -65.02564239501953, 0.0, 0.03200000151991844, 1.0240000486373901, 0.0, 0.0, 0.0, 0.0, 0.0, 1.6024561634571772E9, 2020-10-11 17:42:43.457
37.0, 431.2740478515625, 455.0055847167969, -573.3883666992188, -46.86468505859375, 0.0, 0.03200000151991844, 1.0240000486373901, 0.0, 0.0, 0.0, 0.0, 0.0, 1.6024561634571772E9, 2020-10-11 17:42:43.457
38.0, 270.06939697265625, 289.8515930175781, -725.4340209960938, 85.97281646728516, 0.0, 0.03200000151991844, 1.0240000486373901, 0.0, 0.0, 0.0, 0.0, 0.0, 1.602456163472514E9, 2020-10-11 17:42:43.472
38.0, 251.91966247558594, 260.6130676269531, -720.661865234375, -32.335174560546875, 0.0, 0.03200000151991844, 1.0240000486373901, 0.0, 0.0, 0.0, 0.0, 0.0, 1.602456163472514E9, 2020-10-11 17:42:43.472
39.0, 406.6019287109375, 423.927001953125, -590.7227783203125, -80.19093322753906, 0.0, 0.03200000151991844, 1.0240000486373901, 0.0, 0.0, 0.0, 0.0, 0.0, 1.602456163473272E9, 2020-10-11 17:42:43.473
39.0, 335.8804016113281, 354.3424377441406, -663.3367309570312, 49.16098403930664, 0.0, 0.03200000151991844, 1.0240000486373901, 0.0, 0.0, 0.0, 0.0, 0.0, 1.602456163473272E9, 2020-10-11 17:42:43.473
40.0, 215.1377410888672, 230.2413330078125, -772.3435668945312, 18.160953521728516, 0.0, 0.03200000151991844, 1.0240000486373901, 0.0, 0.0, 0.0, 0.0, 0.0, 1.6024561635032144E9, 2020-10-11 17:42:43.503
40.0, 350.0995178222656, 375.7982482910156, -640.153076171875, -82.37877655029297, 0.0, 0.03200000151991844, 1.0240000486373901, 0.0, 0.0, 0.0, 0.0, 0.0, 1.6024561635032144E9, 2020-10-11 17:42:43.503
41.0, 403.0265808105469, 427.0760192871094, -596.6879272460938, 9.936914443969727, 0.0, 0.03200000151991844, 1.0240000486373901, 0.0, 0.0, 0.0, 0.0, 0.0, 1.6024561635040195E9, 2020-10-11 17:42:43.504
41.0, 219.98464965820312, 233.27064514160156, -760.8358764648438, 66.83949279785156, 0.0, 0.03200000151991844, 1.0240000486373901, 0.0, 0.0, 0.0, 0.0, 0.0, 1.6024561635040195E9, 2020-10-11 17:42:43.504
42.0, 297.7558898925781, 314.19085693359375, -691.9693603515625, -73.54138946533203, 0.0, 0.03200000151991844, 1.0240000486373901, 0.0, 0.0, 0.0, 0.0, 0.0, 1.602456163504855E9, 2020-10-11 17:42:43.504
42.0, 424.2392883300781, 441.7364196777344, -575.8155517578125, -43.44641876220703, 0.0, 0.03200000151991844, 1.0240000486373901, 0.0, 0.0, 0.0, 0.0, 0.0, 1.602456163504855E9, 2020-10-11 17:42:43.504
43.0, 260.5775146484375, 283.43768310546875, -716.9369506835938, 86.34307098388672, 0.0, 0.03200000151991844, 1.0240000486373901, 0.0, 0.0, 0.0, 0.0, 0.0, 1.602456163517182E9, 2020-10-11 17:42:43.517
43.0, 243.83026123046875, 262.2660827636719, -730.4454956054688, -34.201385498046875, 0.0, 0.03200000151991844, 1.0240000486373901, 0.0, 0.0, 0.0, 0.0, 0.0, 1.602456163517182E9, 2020-10-11 17:42:43.517
44.0, 399.1296081542969, 420.4451599121094, -594.212158203125, -76.21542358398438, 0.0, 0.03200000151991844, 1.0240000486373901, 0.0, 0.0, 0.0, 0.0, 0.0, 1.6024561635324812E9, 2020-10-11 17:42:43.532
44.0, 337.5409240722656, 372.4622497558594, -646.783935546875, 61.86542510986328, 0.0, 0.03200000151991844, 1.0240000486373901, 0.0, 0.0, 0.0, 0.0, 0.0, 1.6024561635324812E9, 2020-10-11 17:42:43.532
45.0, 215.46311950683594, 229.08944702148438, -757.8140869140625, 23.40803337097168, 0.0, 0.03200000151991844, 1.0240000486373901, 0.0, 0.0, 0.0, 0.0, 0.0, 1.6024561635332167E9, 2020-10-11 17:42:43.533
45.0, 366.5737609863281, 376.6995544433594, -640.3849487304688, -74.6334457397461, 0.0, 0.03200000151991844, 1.0240000486373901, 0.0, 0.0, 0.0, 0.0, 0.0, 1.6024561635332167E9, 2020-10-11 17:42:43.533
46.0, 402.0205383300781, 425.73712158203125, -598.15771484375, 9.069257736206055, 0.0, 0.03200000151991844, 1.0240000486373901, 0.0, 0.0, 0.0, 0.0, 0.0, 1.6024561635471451E9, 2020-10-11 17:42:43.547
46.0, 217.59112548828125, 239.33676147460938, -758.326416015625, 68.91887664794922, 0.0, 0.03200000151991844, 1.0240000486373901, 0.0, 0.0, 0.0, 0.0, 0.0, 1.6024561635471451E9, 2020-10-11 17:42:43.547
47.0, 308.552978515625, 320.4327697753906, -682.1221923828125, -62.695682525634766, 0.0, 0.03200000151991844, 1.0240000486373901, 0.0, 0.0, 0.0, 0.0, 0.0, 1.602456163562472E9, 2020-10-11 17:42:43.562
47.0, 429.16473388671875, 450.9403076171875, -581.23095703125, -40.26750183105469, 0.0, 0.03200000151991844, 1.0240000486373901, 0.0, 0.0, 0.0, 0.0, 0.0, 1.602456163562472E9, 2020-10-11 17:42:43.562
48.0, 267.2457580566406, 286.1715393066406, -722.0082397460938, 84.78726959228516, 0.0, 0.03200000151991844, 1.0240000486373901, 0.0, 0.0, 0.0, 0.0, 0.0, 1.602456163563187E9, 2020-10-11 17:42:43.563
48.0, 258.4532775878906, 267.2065124511719, -738.4338989257812, -32.391273498535156, 0.0, 0.03200000151991844, 1.0240000486373901, 0.0, 0.0, 0.0, 0.0, 0.0, 1.602456163563187E9, 2020-10-11 17:42:43.563
49.0, 413.47210693359375, 433.3515625, -599.1712646484375, -71.64900207519531, 0.0, 0.03200000151991844, 1.0240000486373901, 0.0, 0.0, 0.0, 0.0, 0.0, 1.6024561635770075E9, 2020-10-11 17:42:43.577
49.0, 351.15789794921875, 373.05316162109375, -659.2564697265625, 63.395042419433594, 0.0, 0.03200000151991844, 1.0240000486373901, 0.0, 0.0, 0.0, 0.0, 0.0, 1.6024561635770075E9, 2020-10-11 17:42:43.577
50.0, 221.37216186523438, 238.20358276367188, -759.0594482421875, 25.928726196289062, 0.0, 0.03200000151991844, 1.0240000486373901, 0.0, 0.0, 0.0, 0.0, 0.0, 1.6024561635925074E9, 2020-10-11 17:42:43.592
50.0, 364.57666015625, 376.1684875488281, -631.6635131835938, -75.65069580078125, 0.0, 0.03200000151991844, 1.0240000486373901, 0.0, 0.0, 0.0, 0.0, 0.0, 1.6024561635925074E9, 2020-10-11 17:42:43.592
51.0, 396.87445068359375, 424.66375732421875, -611.6363525390625, 4.4729204177856445, 0.0, 0.03200000151991844, 1.0240000486373901, 0.0, 0.0, 0.0, 0.0, 0.0, 1.6024561635931792E9, 2020-10-11 17:42:43.593
51.0, 218.10348510742188, 237.18258666992188, -759.0819091796875, 69.40132141113281, 0.0, 0.03200000151991844, 1.0240000486373901, 0.0, 0.0, 0.0, 0.0, 0.0, 1.6024561635931792E9, 2020-10-11 17:42:43.593
52.0, 314.5031433105469, 324.7673034667969, -673.5167236328125, -62.05242156982422, 0.0, 0.03200000151991844, 1.0240000486373901, 0.0, 0.0, 0.0, 0.0, 0.0, 1.6024561636069636E9, 2020-10-11 17:42:43.606
52.0, 427.6874694824219, 447.76513671875, -584.6043090820312, -45.25653076171875, 0.0, 0.03200000151991844, 1.0240000486373901, 0.0, 0.0, 0.0, 0.0, 0.0, 1.6024561636069636E9, 2020-10-11 17:42:43.606
53.0, 267.95635986328125, 292.6827087402344, -712.2433471679688, 91.4592514038086, 0.0, 0.03200000151991844, 1.0240000486373901, 0.0, 0.0, 0.0, 0.0, 0.0, 1.6024561636230004E9, 2020-10-11 17:42:43.623
53.0, 253.1201629638672, 269.6673583984375, -722.8310546875, -28.04176902770996, 0.0, 0.03200000151991844, 1.0240000486373901, 0.0, 0.0, 0.0, 0.0, 0.0, 1.6024561636230004E9, 2020-10-11 17:42:43.623
54.0, 413.01959228515625, 428.92724609375, -599.085205078125, -71.5031509399414, 0.0, 0.03200000151991844, 1.0240000486373901, 0.0, 0.0, 0.0, 0.0, 0.0, 1.6024561636237087E9, 2020-10-11 17:42:43.623
54.0, 341.957763671875, 362.222412109375, -662.8355712890625, 62.06364059448242, 0.0, 0.03200000151991844, 1.0240000486373901, 0.0, 0.0, 0.0, 0.0, 0.0, 1.6024561636237087E9, 2020-10-11 17:42:43.623
55.0, 223.8891143798828, 234.52725219726562, -762.3131713867188, 20.711565017700195, 0.0, 0.03200000151991844, 1.0240000486373901, 0.0, 0.0, 0.0, 0.0, 0.0, 1.6024561636368225E9, 2020-10-11 17:42:43.636
55.0, 366.5176696777344, 379.39227294921875, -621.9210815429688, -70.86736297607422, 0.0, 0.03200000151991844, 1.0240000486373901, 0.0, 0.0, 0.0, 0.0, 0.0, 1.6024561636368225E9, 2020-10-11 17:42:43.636
56.0, 410.89532470703125, 432.588623046875, -603.3898315429688, 12.595983505249023, 0.0, 0.03200000151991844, 1.0240000486373901, 0.0, 0.0, 0.0, 0.0, 0.0, 1.602456163652498E9, 2020-10-11 17:42:43.652
56.0, 225.81141662597656, 238.4317169189453, -771.4273071289062, 69.51725769042969, 0.0, 0.03200000151991844, 1.0240000486373901, 0.0, 0.0, 0.0, 0.0, 0.0, 1.602456163652498E9, 2020-10-11 17:42:43.652
57.0, 308.3061218261719, 324.2212829589844, -685.061767578125, -63.05845260620117, 0.0, 0.03200000151991844, 1.0240000486373901, 0.0, 0.0, 0.0, 0.0, 0.0, 1.602456163653389E9, 2020-10-11 17:42:43.653
57.0, 432.62042236328125, 457.60107421875, -583.650634765625, -38.28535461425781, 0.0, 0.03200000151991844, 1.0240000486373901, 0.0, 0.0, 0.0, 0.0, 0.0, 1.602456163653389E9, 2020-10-11 17:42:43.653
58.0, 267.2196044921875, 279.462158203125, -716.51806640625, 87.84651184082031, 0.0, 0.03200000151991844, 1.0240000486373901, 0.0, 0.0, 0.0, 0.0, 0.0, 1.6024561636668265E9, 2020-10-11 17:42:43.666
58.0, 253.1313934326172, 266.058349609375, -734.6079711914062, -25.105947494506836, 0.0, 0.03200000151991844, 1.0240000486373901, 0.0, 0.0, 0.0, 0.0, 0.0, 1.6024561636668265E9, 2020-10-11 17:42:43.666
59.0, 413.0831604003906, 424.9405212402344, -597.9520263671875, -75.8189926147461, 0.0, 0.03200000151991844, 1.0240000486373901, 0.0, 0.0, 0.0, 0.0, 0.0, 1.6024561636828885E9, 2020-10-11 17:42:43.682
59.0, 353.90673828125, 363.93902587890625, -654.7686157226562, 66.73477172851562, 0.0, 0.03200000151991844, 1.0240000486373901, 0.0, 0.0, 0.0, 0.0, 0.0, 1.6024561636828885E9, 2020-10-11 17:42:43.682
60.0, 224.22195434570312, 234.56838989257812, -753.7674560546875, 25.954906463623047, 0.0, 0.03200000151991844, 1.0080000162124634, 0.0, 0.0, 0.0, 0.0, 0.0, 1.6024561636837645E9, 2020-10-11 17:42:43.683
60.0, 361.3229675292969, 385.8024597167969, -645.6058349609375, -80.50508880615234, 0.0, 0.03200000151991844, 1.0080000162124634, 0.0, 0.0, 0.0, 0.0, 0.0, 1.6024561636837645E9, 2020-10-11 17:42:43.683
61.0, 405.0872497558594, 430.36712646484375, -610.0206909179688, 2.7114274501800537, 0.0, 0.03200000151991844, 1.0080000162124634, 0.0, 0.0, 0.0, 0.0, 0.0, 1.6024561636970415E9, 2020-10-11 17:42:43.697
61.0, 223.66098022460938, 239.24327087402344, -759.6466064453125, 72.41567993164062, 0.0, 0.03200000151991844, 1.0080000162124634, 0.0, 0.0, 0.0, 0.0, 0.0, 1.6024561636970415E9, 2020-10-11 17:42:43.697
62.0, 307.8423767089844, 324.64013671875, -678.5730590820312, -65.46321105957031, 0.0, 0.03200000151991844, 1.0080000162124634, 0.0, 0.0, 0.0, 0.0, 0.0, 1.6024561637129056E9, 2020-10-11 17:42:43.712
62.0, 433.2150573730469, 449.55279541015625, -575.4078979492188, -53.85456085205078, 0.0, 0.03200000151991844, 1.0080000162124634, 0.0, 0.0, 0.0, 0.0, 0.0, 1.6024561637129056E9, 2020-10-11 17:42:43.712
63.0, 278.28594970703125, 286.1341247558594, -725.2881469726562, 91.02542877197266, 0.0, 0.03200000151991844, 1.0080000162124634, 0.0, 0.0, 0.0, 0.0, 0.0, 1.602456163713628E9, 2020-10-11 17:42:43.713
63.0, 247.84317016601562, 257.89788818359375, -735.9132080078125, -17.02776527404785, 0.0, 0.03200000151991844, 1.0080000162124634, 0.0, 0.0, 0.0, 0.0, 0.0, 1.602456163713628E9, 2020-10-11 17:42:43.713
64.0, 409.2834167480469, 427.67437744140625, -596.99462890625, -79.3344955444336, 0.0, 0.03200000151991844, 1.0080000162124634, 0.0, 0.0, 0.0, 0.0, 0.0, 1.602456163726929E9, 2020-10-11 17:42:43.726
64.0, 349.3627624511719, 371.3888854980469, -644.203369140625, 62.748043060302734, 0.0, 0.03200000151991844, 1.0080000162124634, 0.0, 0.0, 0.0, 0.0, 0.0, 1.602456163726929E9, 2020-10-11 17:42:43.726
65.0, 219.6742401123047, 235.61183166503906, -752.2640380859375, 40.978084564208984, 0.0, 0.03200000151991844, 1.0080000162124634, 0.0, 0.0, 0.0, 0.0, 0.0, 1.602456163742633E9, 2020-10-11 17:42:43.742
65.0, 363.5594177246094, 374.3995056152344, -628.7426147460938, -80.3367919921875, 0.0, 0.03200000151991844, 1.0080000162124634, 0.0, 0.0, 0.0, 0.0, 0.0, 1.602456163742633E9, 2020-10-11 17:42:43.742
66.0, 411.0112609863281, 429.0805969238281, -597.2377319335938, -3.702501058578491, 0.0, 0.03200000151991844, 1.0080000162124634, 0.0, 0.0, 0.0, 0.0, 0.0, 1.6024561637433476E9, 2020-10-11 17:42:43.743
66.0, 225.21678161621094, 239.72198486328125, -763.2032470703125, 88.09708404541016, 0.0, 0.03200000151991844, 1.0080000162124634, 0.0, 0.0, 0.0, 0.0, 0.0, 1.6024561637433476E9, 2020-10-11 17:42:43.743
67.0, 305.0150146484375, 323.3611145019531, -684.5120239257812, -58.23772048950195, 0.0, 0.03200000151991844, 1.0080000162124634, 0.0, 0.0, 0.0, 0.0, 0.0, 1.6024561637568989E9, 2020-10-11 17:42:43.756
67.0, 435.39166259765625, 452.9486389160156, -578.5643920898438, -59.55790710449219, 0.0, 0.03200000151991844, 1.0080000162124634, 0.0, 0.0, 0.0, 0.0, 0.0, 1.6024561637568989E9, 2020-10-11 17:42:43.756
68.0, 272.2908935546875, 291.8786315917969, -707.9761352539062, 96.00323486328125, 0.0, 0.03200000151991844, 1.0080000162124634, 0.0, 0.0, 0.0, 0.0, 0.0, 1.6024561637725818E9, 2020-10-11 17:42:43.772
68.0, 250.01605224609375, 263.1300048828125, -728.5418701171875, -15.150334358215332, 0.0, 0.03200000151991844, 1.0080000162124634, 0.0, 0.0, 0.0, 0.0, 0.0, 1.6024561637725818E9, 2020-10-11 17:42:43.772
69.0, 414.1004333496094, 432.98504638671875, -586.0180053710938, -85.50159454345703, 0.0, 0.03200000151991844, 1.0080000162124634, 0.0, 0.0, 0.0, 0.0, 0.0, 1.6024561637732651E9, 2020-10-11 17:42:43.773
69.0, 355.0735778808594, 366.096923828125, -656.8255615234375, 55.63475036621094, 0.0, 0.03200000151991844, 1.0080000162124634, 0.0, 0.0, 0.0, 0.0, 0.0, 1.6024561637732651E9, 2020-10-11 17:42:43.773
70.0, 213.1107177734375, 225.77589416503906, -762.7208251953125, 37.58225631713867, 0.0, 0.03200000151991844, 1.0080000162124634, 0.0, 0.0, 0.0, 0.0, 0.0, 1.6024561637867932E9, 2020-10-11 17:42:43.786
70.0, 361.947509765625, 383.420166015625, -623.7386474609375, -86.71331787109375, 0.0, 0.03200000151991844, 1.0080000162124634, 0.0, 0.0, 0.0, 0.0, 0.0, 1.6024561637867932E9, 2020-10-11 17:42:43.786
71.0, 421.7335510253906, 440.4947814941406, -586.8482666015625, -6.615882873535156, 0.0, 0.03200000151991844, 1.0080000162124634, 0.0, 0.0, 0.0, 0.0, 0.0, 1.6024561638025365E9, 2020-10-11 17:42:43.802
71.0, 223.93399047851562, 241.15435791015625, -762.5786743164062, 91.3358383178711, 0.0, 0.03200000151991844, 1.0080000162124634, 0.0, 0.0, 0.0, 0.0, 0.0, 1.6024561638025365E9, 2020-10-11 17:42:43.802
72.0, 314.83599853515625, 325.073974609375, -680.6449584960938, -55.114906311035156, 0.0, 0.03200000151991844, 1.0080000162124634, 0.0, 0.0, 0.0, 0.0, 0.0, 1.6024561638032343E9, 2020-10-11 17:42:43.803
72.0, 462.7079162597656, 471.6331787109375, -560.8223266601562, -59.602787017822266, 0.0, 0.03200000151991844, 1.0080000162124634, 0.0, 0.0, 0.0, 0.0, 0.0, 1.6024561638032343E9, 2020-10-11 17:42:43.803
73.0, 281.4947814941406, 296.7741394042969, -723.2349243164062, 104.46662902832031, 0.0, 0.03200000151991844, 1.0080000162124634, 0.0, 0.0, 0.0, 0.0, 0.0, 1.6024561638168168E9, 2020-10-11 17:42:43.816
73.0, 257.23406982421875, 265.9536437988281, -746.6990966796875, -4.992766380310059, 0.0, 0.03200000151991844, 1.0080000162124634, 0.0, 0.0, 0.0, 0.0, 0.0, 1.6024561638168168E9, 2020-10-11 17:42:43.816
74.0, 430.04736328125, 441.94586181640625, -575.4041748046875, -88.25041961669922, 0.0, 0.03200000151991844, 1.0080000162124634, 0.0, 0.0, 0.0, 0.0, 0.0, 1.6024561638325355E9, 2020-10-11 17:42:43.832
74.0, 355.2231750488281, 365.94732666015625, -642.11279296875, 50.765403747558594, 0.0, 0.03200000151991844, 1.0080000162124634, 0.0, 0.0, 0.0, 0.0, 0.0, 1.6024561638325355E9, 2020-10-11 17:42:43.832
75.0, 216.3232879638672, 220.7831268310547, -770.544677734375, 53.33097457885742, 0.0, 0.03200000151991844, 1.0080000162124634, 0.0, 0.0, 0.0, 0.0, 0.0, 1.602456163833255E9, 2020-10-11 17:42:43.833
75.0, 366.371826171875, 376.9463806152344, -634.28515625, -86.24957275390625, 0.0, 0.03200000151991844, 1.0080000162124634, 0.0, 0.0, 0.0, 0.0, 0.0, 1.602456163833255E9, 2020-10-11 17:42:43.833
76.0, 433.4469299316406, 446.14202880859375, -577.393798828125, -8.55315113067627, 0.0, 0.03200000151991844, 1.0080000162124634, 0.0, 0.0, 0.0, 0.0, 0.0, 1.602456163846748E9, 2020-10-11 17:42:43.846
76.0, 208.66397094726562, 227.80291748046875, -769.6546020507812, 104.49654388427734, 0.0, 0.03200000151991844, 1.0080000162124634, 0.0, 0.0, 0.0, 0.0, 0.0, 1.602456163846748E9, 2020-10-11 17:42:43.846
77.0, 295.5231628417969, 306.28472900390625, -684.9458618164062, -57.17559051513672, 0.0, 0.03200000151991844, 1.0080000162124634, 0.0, 0.0, 0.0, 0.0, 0.0, 1.6024561638627005E9, 2020-10-11 17:42:43.862
77.0, 454.9588317871094, 472.1979064941406, -550.2271728515625, -76.59689331054688, 0.0, 0.03200000151991844, 1.0080000162124634, 0.0, 0.0, 0.0, 0.0, 0.0, 1.6024561638627005E9, 2020-10-11 17:42:43.862
78.0, 270.46209716796875, 289.9263916015625, -711.5327758789062, 113.40498352050781, 0.0, 0.03200000151991844, 1.0080000162124634, 0.0, 0.0, 0.0, 0.0, 0.0, 1.602456163863289E9, 2020-10-11 17:42:43.863
78.0, 235.25840759277344, 251.0576171875, -744.84033203125, -0.747979998588562, 0.0, 0.03200000151991844, 1.0080000162124634, 0.0, 0.0, 0.0, 0.0, 0.0, 1.602456163863289E9, 2020-10-11 17:42:43.863
79.0, 427.74359130859375, 446.92364501953125, -577.2442016601562, -110.29338836669922, 0.0, 0.03200000151991844, 1.0080000162124634, 0.0, 0.0, 0.0, 0.0, 0.0, 1.6024561638767564E9, 2020-10-11 17:42:43.876
79.0, 358.79852294921875, 378.7565002441406, -644.2931518554688, 51.674198150634766, 0.0, 0.03200000151991844, 1.0080000162124634, 0.0, 0.0, 0.0, 0.0, 0.0, 1.6024561638767564E9, 2020-10-11 17:42:43.876
80.0, 205.53367614746094, 220.94393920898438, -777.2390747070312, 57.14567184448242, 0.0, 0.03200000151991844, 1.0080000162124634, 0.0, 0.0, 0.0, 0.0, 0.0, 1.6024561638926413E9, 2020-10-11 17:42:43.892
80.0, 371.7497863769531, 387.0291442871094, -620.1034545898438, -92.38674926757812, 0.0, 0.03200000151991844, 1.0080000162124634, 0.0, 0.0, 0.0, 0.0, 0.0, 1.6024561638926413E9, 2020-10-11 17:42:43.892
81.0, 439.0754699707031, 454.8671875, -575.8754272460938, -19.01365089416504, 0.0, 0.03200000151991844, 1.0080000162124634, 0.0, 0.0, 0.0, 0.0, 0.0, 1.6024561638936007E9, 2020-10-11 17:42:43.893
81.0, 215.37335205078125, 226.56875610351562, -769.62841796875, 112.17829895019531, 0.0, 0.03200000151991844, 1.0080000162124634, 0.0, 0.0, 0.0, 0.0, 0.0, 1.6024561638936007E9, 2020-10-11 17:42:43.893
82.0, 298.9862976074219, 314.4563903808594, -690.6192626953125, -70.02588653564453, 0.0, 0.03200000151991844, 1.0080000162124634, 0.0, 0.0, 0.0, 0.0, 0.0, 1.6024561639068751E9, 2020-10-11 17:42:43.906
82.0, 458.43695068359375, 472.0894470214844, -552.8076782226562, -96.10047149658203, 0.0, 0.03200000151991844, 1.0080000162124634, 0.0, 0.0, 0.0, 0.0, 0.0, 1.6024561639068751E9, 2020-10-11 17:42:43.906
83.0, 270.1965637207031, 288.0265197753906, -713.758056640625, 122.99034881591797, 0.0, 0.03200000151991844, 1.0080000162124634, 0.0, 0.0, 0.0, 0.0, 0.0, 1.6024561639225385E9, 2020-10-11 17:42:43.922
83.0, 230.13099670410156, 245.04759216308594, -750.6932983398438, -5.018945693969727, 0.0, 0.03200000151991844, 1.0080000162124634, 0.0, 0.0, 0.0, 0.0, 0.0, 1.6024561639225385E9, 2020-10-11 17:42:43.922
84.0, 425.6754150390625, 452.19317626953125, -558.2529907226562, -129.53517150878906, 0.0, 0.03200000151991844, 1.0080000162124634, 0.0, 0.0, 0.0, 0.0, 0.0, 1.6024561639235969E9, 2020-10-11 17:42:43.923
84.0, 357.6990051269531, 379.74383544921875, -629.4307861328125, 56.33411407470703, 0.0, 0.03200000151991844, 1.0080000162124634, 0.0, 0.0, 0.0, 0.0, 0.0, 1.6024561639235969E9, 2020-10-11 17:42:43.923
85.0, 187.48866271972656, 205.18026733398438, -789.0123291015625, 76.40615844726562, 0.0, 0.03200000151991844, 1.0080000162124634, 0.0, 0.0, 0.0, 0.0, 0.0, 1.6024561639368708E9, 2020-10-11 17:42:43.936
85.0, 372.3332214355469, 388.57000732421875, -628.9632568359375, -119.30281066894531, 0.0, 0.03200000151991844, 1.0080000162124634, 0.0, 0.0, 0.0, 0.0, 0.0, 1.6024561639368708E9, 2020-10-11 17:42:43.936
86.0, 448.2868347167969, 466.591796875, -565.549560546875, -42.137451171875, 0.0, 0.03200000151991844, 1.0080000162124634, 0.0, 0.0, 0.0, 0.0, 0.0, 1.6024561639525871E9, 2020-10-11 17:42:43.952
86.0, 680.6224975585938, 689.8881225585938, -794.1995239257812, 141.26724243164062, 0.0, 0.03200000151991844, 1.0080000162124634, 0.0, 0.0, 0.0, 0.0, 0.0, 1.6024561639525871E9, 2020-10-11 17:42:43.952
87.0, 788.2830200195312, 803.5960693359375, -689.919921875, -63.559600830078125, 0.0, 0.03200000151991844, 1.0080000162124634, 0.0, 0.0, 0.0, 0.0, 0.0, 1.60245616395345E9, 2020-10-11 17:42:43.953
87.0, 975.7754516601562, 992.4759521484375, -517.8658447265625, -116.28470611572266, 0.0, 0.03200000151991844, 1.0080000162124634, 0.0, 0.0, 0.0, 0.0, 0.0, 1.60245616395345E9, 2020-10-11 17:42:43.953
88.0, 749.1375122070312, 765.737060546875, -741.377197265625, -359.22674560546875, 0.0, 0.03200000151991844, 1.0080000162124634, 0.0, 0.0, 0.0, 0.0, 0.0, 1.602456163966852E9, 2020-10-11 17:42:43.966
88.0, 713.3578491210938, 724.3475341796875, -752.2042236328125, -472.6429443359375, 0.0, 0.03200000151991844, 1.0080000162124634, 0.0, 0.0, 0.0, 0.0, 0.0, 1.602456163966852E9, 2020-10-11 17:42:43.966
89.0, 948.4404907226562, 963.53662109375, -544.2919311523438, -639.54345703125, 0.0, 0.03200000151991844, 1.0080000162124634, 0.0, 0.0, 0.0, 0.0, 0.0, 1.6024561639992845E9, 2020-10-11 17:42:43.999
89.0, 869.091064453125, 883.4129638671875, -627.4710693359375, -431.88177490234375, 0.0, 0.03200000151991844, 1.0080000162124634, 0.0, 0.0, 0.0, 0.0, 0.0, 1.6024561639992845E9, 2020-10-11 17:42:43.999
90.0, 670.1956787109375, 675.2800903320312, -811.5639038085938, -378.1842956542969, 0.0, 0.03200000151991844, 1.0080000162124634, 0.0, 0.0, 0.0, 0.0, 0.0, 1.602456163999624E9, 2020-10-11 17:42:43.999
90.0, 878.1640625, 883.9664916992188, -605.2523193359375, -616.2401733398438, 0.0, 0.03200000151991844, 1.0080000162124634, 0.0, 0.0, 0.0, 0.0, 0.0, 1.602456163999624E9, 2020-10-11 17:42:43.999
91.0, 956.9861450195312, 975.25, -533.8276977539062, -543.1101684570312, 0.0, 0.03200000151991844, 1.0080000162124634, 0.0, 0.0, 0.0, 0.0, 0.0, 1.6024561640003855E9, 2020-10-11 17:42:44.000
91.0, 1156.14892578125, 1168.8365478515625, -314.8621826171875, -323.63037109375, 0.0, 0.03200000151991844, 1.0080000162124634, 0.0, 0.0, 0.0, 0.0, 0.0, 1.6024561640003855E9, 2020-10-11 17:42:44.000
92.0, 1280.4033203125, 1289.399658203125, -206.8314208984375, -557.2731323242188, 0.0, 0.03200000151991844, 1.0080000162124634, 0.0, 0.0, 0.0, 0.0, 0.0, 1.6024561640011013E9, 2020-10-11 17:42:44.001
92.0, 1491.475830078125, 1507.2900390625, -10.643754959106445, -639.5471801757812, 0.0, 0.03200000151991844, 1.0080000162124634, 0.0, 0.0, 0.0, 0.0, 0.0, 1.6024561640011013E9, 2020-10-11 17:42:44.001
93.0, 1724.76513671875, 1742.39697265625, -241.61997985839844, -819.823486328125, 0.0, 0.03200000151991844, 1.0080000162124634, 0.0, 0.0, 0.0, 0.0, 0.0, 1.6024561640119317E9, 2020-10-11 17:42:44.011
93.0, 1662.4322509765625, 1678.826171875, -290.3471374511719, -946.6995849609375, 0.0, 0.03200000151991844, 1.0080000162124634, 0.0, 0.0, 0.0, 0.0, 0.0, 1.6024561640119317E9, 2020-10-11 17:42:44.011
94.0, 1448.98681640625, 1472.45654296875, -528.6030883789062, -1170.2857666015625, 0.0, 0.03200000151991844, 1.0080000162124634, 0.0, 0.0, 0.0, 0.0, 0.0, 1.6024561640271788E9, 2020-10-11 17:42:44.027
94.0, 1361.2449951171875, 1381.1881103515625, -604.5641479492188, -1412.898681640625, 0.0, 0.03200000151991844, 1.0080000162124634, 0.0, 0.0, 0.0, 0.0, 0.0, 1.6024561640271788E9, 2020-10-11 17:42:44.027
95.0, 1130.6353759765625, 1144.2916259765625, -830.4765625, -1321.0504150390625, 0.0, 0.03200000151991844, 1.0080000162124634, 0.0, 0.0, 0.0, 0.0, 0.0, 1.602456164058876E9, 2020-10-11 17:42:44.058
95.0, 1372.775146484375, 1381.4161376953125, -596.9758911132812, -1123.81005859375, 0.0, 0.03200000151991844, 1.0080000162124634, 0.0, 0.0, 0.0, 0.0, 0.0, 1.602456164058876E9, 2020-10-11 17:42:44.058
96.0, 1473.42333984375, 1487.53955078125, -514.469970703125, -1065.9761962890625, 0.0, 0.03200000151991844, 1.0080000162124634, 0.0, 0.0, 0.0, 0.0, 0.0, 1.602456164059584E9, 2020-10-11 17:42:44.059
96.0, 1621.012939453125, 1639.2803955078125, -327.966796875, -1250.568359375, 0.0, 0.03200000151991844, 1.0080000162124634, 0.0, 0.0, 0.0, 0.0, 0.0, 1.602456164059584E9, 2020-10-11 17:42:44.059
97.0, 1748.648193359375, 1765.4384765625, -216.22605895996094, -1044.4942626953125, 0.0, 0.03200000151991844, 1.0080000162124634, 0.0, 0.0, 0.0, 0.0, 0.0, 1.6024561640608559E9, 2020-10-11 17:42:44.060
97.0, 1512.6810302734375, 1534.475341796875, 22.031749725341797, -1175.3570556640625, 0.0, 0.03200000151991844, 1.0080000162124634, 0.0, 0.0, 0.0, 0.0, 0.0, 1.6024561640608559E9, 2020-10-11 17:42:44.060
98.0, 1710.0599365234375, 1736.330810546875, 244.8643341064453, -1278.468017578125, 0.0, 0.03200000151991844, 1.0080000162124634, 0.0, 0.0, 0.0, 0.0, 0.0, 1.6024561640611837E9, 2020-10-11 17:42:44.061
98.0, 1647.424072265625, 1661.585205078125, 181.59271240234375, -1400.033447265625, 0.0, 0.03200000151991844, 1.0080000162124634, 0.0, 0.0, 0.0, 0.0, 0.0, 1.6024561640611837E9, 2020-10-11 17:42:44.061
99.0, 1474.2498779296875, 1490.3408203125, -13.609496116638184, -1195.107421875, 0.0, 0.03200000151991844, 1.0080000162124634, 0.0, 0.0, 0.0, 0.0, 0.0, 1.6024561640718431E9, 2020-10-11 17:42:44.071
99.0, 1371.425048828125, 1392.5386962890625, -117.51513671875, -1415.056640625, 0.0, 0.03200000151991844, 1.0080000162124634, 0.0, 0.0, 0.0, 0.0, 0.0, 1.6024561640718431E9, 2020-10-11 17:42:44.071
100.0, 1579.945068359375, 1595.258056640625, 110.1568832397461, -1270.0831298828125, 0.0, 0.03200000151991844, 1.0080000162124634, 0.0, 0.0, 0.0, 0.0, 0.0, 1.6024561640874953E9, 2020-10-11 17:42:44.087
100.0, 1370.1273193359375, 1391.2147216796875, -115.9256820678711, -1146.0362548828125, 0.0, 0.03200000151991844, 1.0080000162124634, 0.0, 0.0, 0.0, 0.0, 0.0, 1.6024561640874953E9, 2020-10-11 17:42:44.087
0.0, 528.7788696289062, 546.8350830078125, -479.91143798828125, -137.08602905273438, 0.0, 0.03200000151991844, 1.0080000162124634, 0.0, 0.0, 0.0, 0.0, 0.0, 1.6024561640882125E9, 2020-10-11 17:42:44.088
1.0, 610.2880859375, 630.7789916992188, -372.0396423339844, -224.60903930664062, 0.0, 0.03200000151991844, 1.0080000162124634, 0.0, 0.0, 0.0, 0.0, 0.0, 1.6024561641346788E9, 2020-10-11 17:42:44.134
1.0, 755.9310302734375, 763.4407348632812, -230.8397216796875, -48.72715759277344, 0.0, 0.03200000151991844, 1.0080000162124634, 0.0, 0.0, 0.0, 0.0, 0.0, 1.6024561641346788E9, 2020-10-11 17:42:44.134
2.0, 566.4583129882812, 587.9552612304688, -430.9972839355469, -249.45506286621094, 0.0, 0.03200000151991844, 1.0080000162124634, 0.0, 0.0, 0.0, 0.0, 0.0, 1.6024561641354089E9, 2020-10-11 17:42:44.135
2.0, 727.6910400390625, 760.3740234375, -262.2212219238281, -273.96075439453125, 0.0, 0.03200000151991844, 1.0080000162124634, 0.0, 0.0, 0.0, 0.0, 0.0, 1.6024561641354089E9, 2020-10-11 17:42:44.135
3.0, 634.5974731445312, 648.7791748046875, -351.1036682128906, -388.0164794921875, 0.0, 0.03200000151991844, 1.0080000162124634, 0.0, 0.0, 0.0, 0.0, 0.0, 1.6024561641359875E9, 2020-10-11 17:42:44.135
3.0, 510.0307312011719, 529.4632568359375, -496.0752868652344, -258.27374267578125, 0.0, 0.03200000151991844, 1.0080000162124634, 0.0, 0.0, 0.0, 0.0, 0.0, 1.6024561641359875E9, 2020-10-11 17:42:44.135
4.0, 411.2861328125, 436.34722900390625, -588.57421875, -446.3963317871094, 0.0, 0.03200000151991844, 1.0080000162124634, 0.0, 0.0, 0.0, 0.0, 0.0, 1.6024561641367395E9, 2020-10-11 17:42:44.136
4.0, 580.697998046875, 592.2730102539062, -403.1705627441406, -251.58120727539062, 0.0, 0.03200000151991844, 1.0080000162124634, 0.0, 0.0, 0.0, 0.0, 0.0, 1.6024561641367395E9, 2020-10-11 17:42:44.136
5.0, 384.2167663574219, 402.2543029785156, -598.9225463867188, -175.2068328857422, 0.0, 0.03200000151991844, 1.0080000162124634, 0.0, 0.0, 0.0, 0.0, 0.0, 1.6024561641479638E9, 2020-10-11 17:42:44.147
5.0, 537.1487426757812, 559.8312377929688, -457.1541442871094, -157.63677978515625, 0.0, 0.03200000151991844, 1.0080000162124634, 0.0, 0.0, 0.0, 0.0, 0.0, 1.6024561641479638E9, 2020-10-11 17:42:44.147
6.0, 601.4806518554688, 617.1807250976562, -390.1519775390625, -189.98878479003906, 0.0, 0.03200000151991844, 1.0080000162124634, 0.0, 0.0, 0.0, 0.0, 0.0, 1.6024561641486812E9, 2020-10-11 17:42:44.148
6.0, 746.9814453125, 754.9548950195312, -247.0260009765625, -44.740421295166016, 0.0, 0.03200000151991844, 1.0080000162124634, 0.0, 0.0, 0.0, 0.0, 0.0, 1.6024561641486812E9, 2020-10-11 17:42:44.148
7.0, 571.0546875, 607.8328247070312, -412.08087158203125, -274.0411682128906, 0.0, 0.03200000151991844, 1.0080000162124634, 0.0, 0.0, 0.0, 0.0, 0.0, 1.6024561641619256E9, 2020-10-11 17:42:44.161
7.0, 723.8837890625, 755.373779296875, -253.96725463867188, -252.00193786621094, 0.0, 0.03200000151991844, 1.0080000162124634, 0.0, 0.0, 0.0, 0.0, 0.0, 1.6024561641619256E9, 2020-10-11 17:42:44.161
8.0, 621.64990234375, 639.78466796875, -368.39697265625, -373.6945495605469, 0.0, 0.03200000151991844, 1.0080000162124634, 0.0, 0.0, 0.0, 0.0, 0.0, 1.6024561641777396E9, 2020-10-11 17:42:44.177
8.0, 516.4857788085938, 537.9976806640625, -479.92266845703125, -273.2127685546875, 0.0, 0.03200000151991844, 1.0080000162124634, 0.0, 0.0, 0.0, 0.0, 0.0, 1.6024561641777396E9, 2020-10-11 17:42:44.177
9.0, 425.1649169921875, 447.23779296875, -584.1050415039062, -447.5650329589844, 0.0, 0.03200000151991844, 1.0080000162124634, 0.0, 0.0, 0.0, 0.0, 0.0, 1.602456164178481E9, 2020-10-11 17:42:44.178
9.0, 560.2557373046875, 578.2147216796875, -413.937744140625, -232.97706604003906, 0.0, 0.03200000151991844, 1.0080000162124634, 0.0, 0.0, 0.0, 0.0, 0.0, 1.602456164178481E9, 2020-10-11 17:42:44.178
10.0, 380.4469299316406, 402.5946350097656, -598.90380859375, -186.26759338378906, 0.0, 0.03200000151991844, 1.0080000162124634, 0.0, 0.0, 0.0, 0.0, 0.0, 1.6024561641917748E9, 2020-10-11 17:42:44.191
10.0, 553.7164916992188, 577.7490844726562, -445.6240539550781, -160.1593475341797, 0.0, 0.03200000151991844, 1.0080000162124634, 0.0, 0.0, 0.0, 0.0, 0.0, 1.6024561641917748E9, 2020-10-11 17:42:44.191
11.0, 589.0117797851562, 604.7680053710938, -400.71343994140625, -178.45680236816406, 0.0, 0.03200000151991844, 1.0080000162124634, 0.0, 0.0, 0.0, 0.0, 0.0, 1.6024561642075455E9, 2020-10-11 17:42:44.207
11.0, 742.2654418945312, 757.909423828125, -248.52569580078125, -49.110496520996094, 0.0, 0.03200000151991844, 1.0080000162124634, 0.0, 0.0, 0.0, 0.0, 0.0, 1.6024561642075455E9, 2020-10-11 17:42:44.207
12.0, 595.9474487304688, 620.75048828125, -396.8295593261719, -288.5575866699219, 0.0, 0.03200000151991844, 1.0080000162124634, 0.0, 0.0, 0.0, 0.0, 0.0, 1.602456164208232E9, 2020-10-11 17:42:44.208
12.0, 722.5636596679688, 750.85595703125, -251.75697326660156, -251.2633056640625, 0.0, 0.03200000151991844, 1.0080000162124634, 0.0, 0.0, 0.0, 0.0, 0.0, 1.602456164208232E9, 2020-10-11 17:42:44.208
13.0, 610.6658325195312, 636.8226928710938, -364.2008056640625, -360.14300537109375, 0.0, 0.03200000151991844, 1.0080000162124634, 0.0, 0.0, 0.0, 0.0, 0.0, 1.6024561642218401E9, 2020-10-11 17:42:44.221
13.0, 524.1189575195312, 547.4371948242188, -472.8168640136719, -287.54595947265625, 0.0, 0.03200000151991844, 1.0080000162124634, 0.0, 0.0, 0.0, 0.0, 0.0, 1.6024561642218401E9, 2020-10-11 17:42:44.221
14.0, 421.8476257324219, 449.2311706542969, -571.6810913085938, -458.39019775390625, 0.0, 0.03200000151991844, 1.0080000162124634, 0.0, 0.0, 0.0, 0.0, 0.0, 1.6024561642374825E9, 2020-10-11 17:42:44.237
14.0, 558.677490234375, 574.3663330078125, -416.32379150390625, -216.94598388671875, 0.0, 0.03200000151991844, 1.0080000162124634, 0.0, 0.0, 0.0, 0.0, 0.0, 1.6024561642374825E9, 2020-10-11 17:42:44.237
15.0, 392.6950988769531, 409.876220703125, -601.2786865234375, -195.48831176757812, 0.0, 0.03200000151991844, 1.0080000162124634, 0.0, 0.0, 0.0, 0.0, 0.0, 1.6024561642382193E9, 2020-10-11 17:42:44.238
15.0, 556.0501708984375, 588.3853759765625, -442.6844787597656, -175.3414764404297, 0.0, 0.03200000151991844, 1.0080000162124634, 0.0, 0.0, 0.0, 0.0, 0.0, 1.6024561642382193E9, 2020-10-11 17:42:44.238
16.0, 575.1517333984375, 595.2125854492188, -394.11627197265625, -157.30767822265625, 0.0, 0.03200000151991844, 1.0080000162124634, 0.0, 0.0, 0.0, 0.0, 0.0, 1.6024561642517843E9, 2020-10-11 17:42:44.251
16.0, 725.8173217773438, 748.4661865234375, -246.3079376220703, -40.35165023803711, 0.0, 0.03200000151991844, 1.0080000162124634, 0.0, 0.0, 0.0, 0.0, 0.0, 1.6024561642517843E9, 2020-10-11 17:42:44.251
17.0, 607.3317260742188, 633.2117919921875, -390.07904052734375, 196.17645263671875, 0.0, 0.03200000151991844, 1.0080000162124634, 0.0, 0.0, 0.0, 0.0, 0.0, 1.602456164267516E9, 2020-10-11 17:42:44.267
17.0, 716.2694091796875, 734.198486328125, -275.4380187988281, 252.72000122070312, 0.0, 0.03200000151991844, 1.0080000162124634, 0.0, 0.0, 0.0, 0.0, 0.0, 1.602456164267516E9, 2020-10-11 17:42:44.267
18.0, 602.2847290039062, 616.42529296875, -380.07293701171875, 135.4816131591797, 0.0, 0.03200000151991844, 1.0080000162124634, 0.0, 0.0, 0.0, 0.0, 0.0, 1.6024561642682412E9, 2020-10-11 17:42:44.268
18.0, 520.913818359375, 540.608154296875, -476.998046875, 192.99566650390625, 0.0, 0.03200000151991844, 1.0080000162124634, 0.0, 0.0, 0.0, 0.0, 0.0, 1.6024561642682412E9, 2020-10-11 17:42:44.268
19.0, 415.57208251953125, 441.66534423828125, -579.1646728515625, 52.291282653808594, 0.0, 0.03200000151991844, 1.0080000162124634, 0.0, 0.0, 0.0, 0.0, 0.0, 1.6024561642817914E9, 2020-10-11 17:42:44.281
19.0, 529.3379516601562, 547.3306274414062, -442.66015625, 283.92572021484375, 0.0, 0.03200000151991844, 1.0080000162124634, 0.0, 0.0, 0.0, 0.0, 0.0, 1.6024561642817914E9, 2020-10-11 17:42:44.281
20.0, 384.0559387207031, 390.8288879394531, -605.6019897460938, 300.9142150878906, 0.0, 0.03200000151991844, 1.0240000486373901, 0.0, 0.0, 0.0, 0.0, 0.0, 1.6024561642975187E9, 2020-10-11 17:42:44.297
20.0, 560.3361206054688, 582.7867431640625, -441.23712158203125, 319.20233154296875, 0.0, 0.03200000151991844, 1.0240000486373901, 0.0, 0.0, 0.0, 0.0, 0.0, 1.6024561642975187E9, 2020-10-11 17:42:44.297
21.0, 550.86669921875, 578.6728515625, -422.46844482421875, 346.0622863769531, 0.0, 0.03200000151991844, 1.0240000486373901, 0.0, 0.0, 0.0, 0.0, 0.0, 1.602456164298262E9, 2020-10-11 17:42:44.298
21.0, 718.631103515625, 731.97509765625, -264.3155517578125, 449.5920715332031, 0.0, 0.03200000151991844, 1.0240000486373901, 0.0, 0.0, 0.0, 0.0, 0.0, 1.602456164298262E9, 2020-10-11 17:42:44.298
22.0, 598.1895141601562, 620.9243774414062, -403.1911315917969, 679.3734130859375, 0.0, 0.03200000151991844, 1.0240000486373901, 0.0, 0.0, 0.0, 0.0, 0.0, 1.6024561643119688E9, 2020-10-11 17:42:44.311
22.0, 704.5354614257812, 723.5752563476562, -293.98419189453125, 759.545654296875, 0.0, 0.03200000151991844, 1.0240000486373901, 0.0, 0.0, 0.0, 0.0, 0.0, 1.6024561643119688E9, 2020-10-11 17:42:44.311
23.0, 596.9273071289062, 606.5538330078125, -399.7747497558594, 633.9635009765625, 0.0, 0.03200000151991844, 1.0240000486373901, 0.0, 0.0, 0.0, 0.0, 0.0, 1.6024561643275137E9, 2020-10-11 17:42:44.327
23.0, 521.1924438476562, 542.8015747070312, -479.2158203125, 678.904052734375, 0.0, 0.03200000151991844, 1.0240000486373901, 0.0, 0.0, 0.0, 0.0, 0.0, 1.6024561643275137E9, 2020-10-11 17:42:44.327
24.0, 412.7989501953125, 430.69061279296875, -579.6807250976562, 544.3480224609375, 0.0, 0.03200000151991844, 1.0240000486373901, 0.0, 0.0, 0.0, 0.0, 0.0, 1.6024561643282468E9, 2020-10-11 17:42:44.328
24.0, 516.4371948242188, 527.5184936523438, -462.6536865234375, 779.5503540039062, 0.0, 0.03200000151991844, 1.0240000486373901, 0.0, 0.0, 0.0, 0.0, 0.0, 1.6024561643282468E9, 2020-10-11 17:42:44.328
25.0, 376.5144348144531, 395.3597717285156, -617.9548950195312, 774.5538330078125, 0.0, 0.03200000151991844, 1.0240000486373901, 0.0, 0.0, 0.0, 0.0, 0.0, 1.6024561643418083E9, 2020-10-11 17:42:44.341
25.0, 563.5879516601562, 592.2169189453125, -426.7562561035156, 812.8092651367188, 0.0, 0.03200000151991844, 1.0240000486373901, 0.0, 0.0, 0.0, 0.0, 0.0, 1.6024561643418083E9, 2020-10-11 17:42:44.341
26.0, 554.2718505859375, 569.2239990234375, -432.9981384277344, 846.3262939453125, 0.0, 0.03200000151991844, 1.0240000486373901, 0.0, 0.0, 0.0, 0.0, 0.0, 1.6024561643575068E9, 2020-10-11 17:42:44.357
26.0, 717.8475952148438, 726.9505615234375, -263.3114013671875, 937.1777954101562, 0.0, 0.03200000151991844, 1.0240000486373901, 0.0, 0.0, 0.0, 0.0, 0.0, 1.6024561643575068E9, 2020-10-11 17:42:44.357
27.0, 601.1646118164062, 618.4803466796875, -408.9187927246094, 1151.531982421875, 0.0, 0.03200000151991844, 1.0240000486373901, 0.0, 0.0, 0.0, 0.0, 0.0, 1.60245616435825E9, 2020-10-11 17:42:44.358
27.0, 699.009765625, 717.9261474609375, -294.2216796875, 1247.576416015625, 0.0, 0.03200000151991844, 1.0240000486373901, 0.0, 0.0, 0.0, 0.0, 0.0, 1.60245616435825E9, 2020-10-11 17:42:44.358
28.0, 588.5966796875, 599.3451538085938, -406.4186706542969, 1110.707275390625, 0.0, 0.03200000151991844, 1.0240000486373901, 0.0, 0.0, 0.0, 0.0, 0.0, 1.6024561643718247E9, 2020-10-11 17:42:44.371
28.0, 537.380615234375, 553.2003784179688, -469.1498718261719, 1152.5361328125, 0.0, 0.03200000151991844, 1.0240000486373901, 0.0, 0.0, 0.0, 0.0, 0.0, 1.6024561643718247E9, 2020-10-11 17:42:44.371
29.0, 422.060791015625, 446.7104797363281, -587.4802856445312, 1025.291748046875, 0.0, 0.03200000151991844, 1.0240000486373901, 0.0, 0.0, 0.0, 0.0, 0.0, 1.6024561643875074E9, 2020-10-11 17:42:44.387
29.0, 523.548583984375, 537.3488159179688, -455.11590576171875, 786.6505737304688, 0.0, 0.03200000151991844, 1.0240000486373901, 0.0, 0.0, 0.0, 0.0, 0.0, 1.6024561643875074E9, 2020-10-11 17:42:44.387
30.0, 389.9836730957031, 406.8207092285156, -600.4053955078125, 774.9708251953125, 0.0, 0.03200000151991844, 1.0240000486373901, 0.0, 0.0, 0.0, 0.0, 0.0, 1.6024561643882203E9, 2020-10-11 17:42:44.388
30.0, 574.7122802734375, 597.428466796875, -430.1202697753906, 792.5857543945312, 0.0, 0.03200000151991844, 1.0240000486373901, 0.0, 0.0, 0.0, 0.0, 0.0, 1.6024561643882203E9, 2020-10-11 17:42:44.388
31.0, 556.1997680664062, 566.9146118164062, -441.6840515136719, 846.3954467773438, 0.0, 0.03200000151991844, 1.0240000486373901, 0.0, 0.0, 0.0, 0.0, 0.0, 1.6024561644018233E9, 2020-10-11 17:42:44.401
31.0, 732.8053588867188, 741.0966796875, -263.5039978027344, 929.7073364257812, 0.0, 0.03200000151991844, 1.0240000486373901, 0.0, 0.0, 0.0, 0.0, 0.0, 1.6024561644018233E9, 2020-10-11 17:42:44.401
32.0, 624.1593627929688, 639.4892578125, -384.5963439941406, 1144.5328369140625, 0.0, 0.03200000151991844, 1.0240000486373901, 0.0, 0.0, 0.0, 0.0, 0.0, 1.6024561644175296E9, 2020-10-11 17:42:44.417
32.0, 707.2880249023438, 721.9110107421875, -296.916259765625, 1250.5888671875, 0.0, 0.03200000151991844, 1.0240000486373901, 0.0, 0.0, 0.0, 0.0, 0.0, 1.6024561644175296E9, 2020-10-11 17:42:44.417
33.0, 584.9595947265625, 600.5325927734375, -405.9156494140625, 1107.8443603515625, 0.0, 0.03200000151991844, 1.0240000486373901, 0.0, 0.0, 0.0, 0.0, 0.0, 1.6024561644182515E9, 2020-10-11 17:42:44.418
33.0, 545.4345092773438, 562.9933471679688, -455.059814453125, 1140.49560546875, 0.0, 0.03200000151991844, 1.0240000486373901, 0.0, 0.0, 0.0, 0.0, 0.0, 1.6024561644182515E9, 2020-10-11 17:42:44.418
34.0, 422.3618469238281, 445.9344482421875, -581.3076171875, 1022.5222778320312, 0.0, 0.03200000151991844, 1.0240000486373901, 0.0, 0.0, 0.0, 0.0, 0.0, 1.602456164431834E9, 2020-10-11 17:42:44.431
34.0, 522.121826171875, 532.5187377929688, -471.1245422363281, 779.1314697265625, 0.0, 0.03200000151991844, 1.0240000486373901, 0.0, 0.0, 0.0, 0.0, 0.0, 1.602456164431834E9, 2020-10-11 17:42:44.431
35.0, 398.56488037109375, 418.15447998046875, -587.2017211914062, 763.4613037109375, 0.0, 0.03200000151991844, 1.0240000486373901, 0.0, 0.0, 0.0, 0.0, 0.0, 1.602456164447497E9, 2020-10-11 17:42:44.447
35.0, 587.0147094726562, 606.1891479492188, -419.1904296875, 789.6929931640625, 0.0, 0.03200000151991844, 1.0240000486373901, 0.0, 0.0, 0.0, 0.0, 0.0, 1.602456164447497E9, 2020-10-11 17:42:44.447
36.0, 558.5054321289062, 569.4147338867188, -433.06170654296875, 856.8428955078125, 0.0, 0.03200000151991844, 1.0240000486373901, 0.0, 0.0, 0.0, 0.0, 0.0, 1.6024561644482398E9, 2020-10-11 17:42:44.448
36.0, 733.8805541992188, 743.0208740234375, -256.8974609375, 929.0023803710938, 0.0, 0.03200000151991844, 1.0240000486373901, 0.0, 0.0, 0.0, 0.0, 0.0, 1.6024561644482398E9, 2020-10-11 17:42:44.448
37.0, 621.8836669921875, 646.914794921875, -373.31494140625, 1136.1497802734375, 0.0, 0.03200000151991844, 1.0240000486373901, 0.0, 0.0, 0.0, 0.0, 0.0, 1.6024561644618092E9, 2020-10-11 17:42:44.461
37.0, 710.2032470703125, 728.895263671875, -282.250244140625, 1260.6212158203125, 0.0, 0.03200000151991844, 1.0240000486373901, 0.0, 0.0, 0.0, 0.0, 0.0, 1.6024561644618092E9, 2020-10-11 17:42:44.461
38.0, 598.2381591796875, 612.6965942382812, -393.486083984375, 1114.088134765625, 0.0, 0.03200000151991844, 1.0240000486373901, 0.0, 0.0, 0.0, 0.0, 0.0, 1.6024561644775128E9, 2020-10-11 17:42:44.477
38.0, 566.6715087890625, 577.4910278320312, -446.2729187011719, 1149.3834228515625, 0.0, 0.03200000151991844, 1.0240000486373901, 0.0, 0.0, 0.0, 0.0, 0.0, 1.6024561644775128E9, 2020-10-11 17:42:44.477
39.0, 434.5296325683594, 454.39971923828125, -572.146728515625, 1029.962890625, 0.0, 0.03200000151991844, 1.0240000486373901, 0.0, 0.0, 0.0, 0.0, 0.0, 1.6024561644782732E9, 2020-10-11 17:42:44.478
39.0, 520.0218505859375, 536.671875, -468.5982360839844, 787.8211669921875, 0.0, 0.03200000151991844, 1.0240000486373901, 0.0, 0.0, 0.0, 0.0, 0.0, 1.6024561644782732E9, 2020-10-11 17:42:44.478
40.0, 402.6955871582031, 413.6460266113281, -597.4246826171875, 760.4824829101562, 0.0, 0.03200000151991844, 1.0240000486373901, 0.0, 0.0, 0.0, 0.0, 0.0, 1.6024561644918342E9, 2020-10-11 17:42:44.491
40.0, 592.2113037109375, 614.213134765625, -423.3473205566406, 794.5679321289062, 0.0, 0.03200000151991844, 1.0240000486373901, 0.0, 0.0, 0.0, 0.0, 0.0, 1.6024561644918342E9, 2020-10-11 17:42:44.491
41.0, 553.4098510742188, 566.865966796875, -440.5172119140625, 857.3197021484375, 0.0, 0.03200000151991844, 1.0240000486373901, 0.0, 0.0, 0.0, 0.0, 0.0, 1.60245616450748E9, 2020-10-11 17:42:44.507
41.0, 734.439697265625, 748.6924438476562, -255.27247619628906, 921.3673706054688, 0.0, 0.03200000151991844, 1.0240000486373901, 0.0, 0.0, 0.0, 0.0, 0.0, 1.60245616450748E9, 2020-10-11 17:42:44.507
42.0, 641.0001831054688, 662.4185791015625, -356.5583190917969, 1136.6341552734375, 0.0, 0.03200000151991844, 1.0240000486373901, 0.0, 0.0, 0.0, 0.0, 0.0, 1.602456164508216E9, 2020-10-11 17:42:44.508
42.0, 711.3009033203125, 729.0205688476562, -289.4925537109375, 1265.365234375, 0.0, 0.03200000151991844, 1.0240000486373901, 0.0, 0.0, 0.0, 0.0, 0.0, 1.602456164508216E9, 2020-10-11 17:42:44.508
43.0, 598.262451171875, 605.6001586914062, -387.6163330078125, 1118.731201171875, 0.0, 0.03200000151991844, 1.0240000486373901, 0.0, 0.0, 0.0, 0.0, 0.0, 1.602456164521838E9, 2020-10-11 17:42:44.521
43.0, 560.1659545898438, 575.4022827148438, -446.5964050292969, 1137.37646484375, 0.0, 0.03200000151991844, 1.0240000486373901, 0.0, 0.0, 0.0, 0.0, 0.0, 1.602456164521838E9, 2020-10-11 17:42:44.521
44.0, 436.21820068359375, 448.769287109375, -569.26513671875, 1035.08837890625, 0.0, 0.03200000151991844, 1.0240000486373901, 0.0, 0.0, 0.0, 0.0, 0.0, 1.6024561645538783E9, 2020-10-11 17:42:44.553
44.0, 524.4368286132812, 536.2100219726562, -480.65380859375, 1278.21923828125, 0.0, 0.03200000151991844, 1.0240000486373901, 0.0, 0.0, 0.0, 0.0, 0.0, 1.6024561645538783E9, 2020-10-11 17:42:44.553
45.0, 409.84442138671875, 424.96484375, -588.7986450195312, 1253.745361328125, 0.0, 0.03200000151991844, 1.0240000486373901, 0.0, 0.0, 0.0, 0.0, 0.0, 1.6024561645548716E9, 2020-10-11 17:42:44.554
45.0, 595.56787109375, 614.8919067382812, -402.5404052734375, 1285.0146484375, 0.0, 0.03200000151991844, 1.0240000486373901, 0.0, 0.0, 0.0, 0.0, 0.0, 1.6024561645548716E9, 2020-10-11 17:42:44.554
46.0, 551.0069580078125, 571.5053100585938, -430.2530517578125, 1356.375732421875, 0.0, 0.03200000151991844, 1.0240000486373901, 0.0, 0.0, 0.0, 0.0, 0.0, 1.602456164555868E9, 2020-10-11 17:42:44.555
46.0, 737.9121704101562, 750.1940307617188, -255.1284942626953, 1413.437255859375, 0.0, 0.03200000151991844, 1.0240000486373901, 0.0, 0.0, 0.0, 0.0, 0.0, 1.602456164555868E9, 2020-10-11 17:42:44.555
47.0, 642.3745727539062, 663.4713134765625, -364.14471435546875, 1626.314208984375, 0.0, 0.03200000151991844, 1.0240000486373901, 0.0, 0.0, 0.0, 0.0, 0.0, 1.6024561645566208E9, 2020-10-11 17:42:44.556
47.0, 707.9293823242188, 726.9019165039062, -277.7062683105469, 1758.4822998046875, 0.0, 0.03200000151991844, 1.0240000486373901, 0.0, 0.0, 0.0, 0.0, 0.0, 1.6024561645566208E9, 2020-10-11 17:42:44.556
48.0, 594.6852416992188, 608.5939331054688, -400.5919189453125, 1608.871337890625, 0.0, 0.03200000151991844, 1.0240000486373901, 0.0, 0.0, 0.0, 0.0, 0.0, 1.602456164566758E9, 2020-10-11 17:42:44.566
48.0, 566.9295654296875, 585.939453125, -433.84521484375, 1620.8594970703125, 0.0, 0.03200000151991844, 1.0240000486373901, 0.0, 0.0, 0.0, 0.0, 0.0, 1.602456164566758E9, 2020-10-11 17:42:44.566
49.0, 436.02557373046875, 457.3392639160156, -556.1474609375, 1528.57568359375, 0.0, 0.03200000151991844, 1.0240000486373901, 0.0, 0.0, 0.0, 0.0, 0.0, 1.6024561646147296E9, 2020-10-11 17:42:44.614
49.0, 521.6262817382812, 525.7364501953125, -477.42816162109375, 1773.2735595703125, 0.0, 0.03200000151991844, 1.0240000486373901, 0.0, 0.0, 0.0, 0.0, 0.0, 1.6024561646147296E9, 2020-10-11 17:42:44.614
50.0, 422.4048767089844, 427.3228454589844, -588.0113525390625, 1735.4033203125, 0.0, 0.03200000151991844, 1.0240000486373901, 0.0, 0.0, 0.0, 0.0, 0.0, 1.6024561646155565E9, 2020-10-11 17:42:44.615
50.0, 596.3102416992188, 626.4987182617188, -401.9027404785156, 1770.8837890625, 0.0, 0.03200000151991844, 1.0240000486373901, 0.0, 0.0, 0.0, 0.0, 0.0, 1.6024561646155565E9, 2020-10-11 17:42:44.615
51.0, 554.44580078125, 569.70458984375, -423.762451171875, 1849.31689453125, 0.0, 0.03200000151991844, 1.0240000486373901, 0.0, 0.0, 0.0, 0.0, 0.0, 1.602456164616047E9, 2020-10-11 17:42:44.616
51.0, 745.6818237304688, 756.306884765625, -244.860595703125, 1897.997314453125, 0.0, 0.03200000151991844, 1.0240000486373901, 0.0, 0.0, 0.0, 0.0, 0.0, 1.602456164616047E9, 2020-10-11 17:42:44.616
52.0, 658.5477905273438, 675.41845703125, -346.2249755859375, 2109.195068359375, 0.0, 0.03200000151991844, 1.0240000486373901, 0.0, 0.0, 0.0, 0.0, 0.0, 1.602456164616786E9, 2020-10-11 17:42:44.616
52.0, 715.50830078125, 739.7129516601562, -267.4234313964844, 2253.75341796875, 0.0, 0.03200000151991844, 1.0240000486373901, 0.0, 0.0, 0.0, 0.0, 0.0, 1.602456164616786E9, 2020-10-11 17:42:44.616
53.0, 601.632080078125, 609.811279296875, -387.76593017578125, 2092.810546875, 0.0, 0.03200000151991844, 1.0240000486373901, 0.0, 0.0, 0.0, 0.0, 0.0, 1.6024561646276095E9, 2020-10-11 17:42:44.627
53.0, 577.4143676757812, 595.205078125, -425.6268005371094, 2104.23046875, 0.0, 0.03200000151991844, 1.0240000486373901, 0.0, 0.0, 0.0, 0.0, 0.0, 1.6024561646276095E9, 2020-10-11 17:42:44.627
54.0, 434.61376953125, 458.4593811035156, -555.4013061523438, 2011.17236328125, 0.0, 0.03200000151991844, 1.0240000486373901, 0.0, 0.0, 0.0, 0.0, 0.0, 1.6024561646285858E9, 2020-10-11 17:42:44.628
54.0, 527.4773559570312, 537.7359008789062, -467.9942626953125, 1772.9163818359375, 0.0, 0.03200000151991844, 1.0240000486373901, 0.0, 0.0, 0.0, 0.0, 0.0, 1.6024561646285858E9, 2020-10-11 17:42:44.628
55.0, 429.7182312011719, 443.4474182128906, -566.4788818359375, 1734.421630859375, 0.0, 0.03200000151991844, 1.0240000486373901, 0.0, 0.0, 0.0, 0.0, 0.0, 1.6024561646418009E9, 2020-10-11 17:42:44.641
55.0, 612.2664794921875, 631.2913818359375, -378.2160949707031, 1772.3890380859375, 0.0, 0.03200000151991844, 1.0240000486373901, 0.0, 0.0, 0.0, 0.0, 0.0, 1.6024561646418009E9, 2020-10-11 17:42:44.641
56.0, 549.58203125, 570.7386474609375, -433.8321228027344, 1847.007568359375, 0.0, 0.03200000151991844, 1.0240000486373901, 0.0, 0.0, 0.0, 0.0, 0.0, 1.6024561646575327E9, 2020-10-11 17:42:44.657
56.0, 744.1690063476562, 768.5868530273438, -252.6339874267578, 1891.4244384765625, 0.0, 0.03200000151991844, 1.0240000486373901, 0.0, 0.0, 0.0, 0.0, 0.0, 1.6024561646575327E9, 2020-10-11 17:42:44.657
57.0, 661.96044921875, 687.4964599609375, -342.97686767578125, 2105.58056640625, 0.0, 0.03200000151991844, 1.0240000486373901, 0.0, 0.0, 0.0, 0.0, 0.0, 1.6024561646584976E9, 2020-10-11 17:42:44.658
57.0, 710.7230834960938, 732.7997436523438, -263.3712463378906, 2254.43603515625, 0.0, 0.03200000151991844, 1.0240000486373901, 0.0, 0.0, 0.0, 0.0, 0.0, 1.6024561646584976E9, 2020-10-11 17:42:44.658
58.0, 605.452392578125, 617.9623413085938, -379.62603759765625, 2094.0654296875, 0.0, 0.03200000151991844, 1.0240000486373901, 0.0, 0.0, 0.0, 0.0, 0.0, 1.6024561646718037E9, 2020-10-11 17:42:44.671
58.0, 587.5551147460938, 600.6185913085938, -411.3048400878906, 2095.15185546875, 0.0, 0.03200000151991844, 1.0240000486373901, 0.0, 0.0, 0.0, 0.0, 0.0, 1.6024561646718037E9, 2020-10-11 17:42:44.671
59.0, 450.74957275390625, 472.6092834472656, -546.6443481445312, 2009.162109375, 0.0, 0.03200000151991844, 1.0240000486373901, 0.0, 0.0, 0.0, 0.0, 0.0, 1.6024561646874828E9, 2020-10-11 17:42:44.687
59.0, 527.6288452148438, 535.5162963867188, -461.2044677734375, 1765.6890869140625, 0.0, 0.03200000151991844, 1.0240000486373901, 0.0, 0.0, 0.0, 0.0, 0.0, 1.6024561646874828E9, 2020-10-11 17:42:44.687
60.0, 434.7315673828125, 443.6624755859375, -566.0581665039062, 1713.839111328125, 0.0, 0.03200000151991844, 1.0080000162124634, 0.0, 0.0, 0.0, 0.0, 0.0, 1.602456164688475E9, 2020-10-11 17:42:44.688
60.0, 625.5225830078125, 645.8975219726562, -378.7565002441406, 1751.0399169921875, 0.0, 0.03200000151991844, 1.0080000162124634, 0.0, 0.0, 0.0, 0.0, 0.0, 1.602456164688475E9, 2020-10-11 17:42:44.688
61.0, 567.1053466796875, 579.0318603515625, -415.6618347167969, 1839.8736572265625, 0.0, 0.03200000151991844, 1.0080000162124634, 0.0, 0.0, 0.0, 0.0, 0.0, 1.6024561647021236E9, 2020-10-11 17:42:44.702
61.0, 757.4625244140625, 775.4290161132812, -209.765380859375, 1898.2666015625, 0.0, 0.03200000151991844, 1.0080000162124634, 0.0, 0.0, 0.0, 0.0, 0.0, 1.6024561647021236E9, 2020-10-11 17:42:44.702
62.0, 679.913818359375, 696.95654296875, -333.9955139160156, 2093.2744140625, 0.0, 0.03200000151991844, 1.0080000162124634, 0.0, 0.0, 0.0, 0.0, 0.0, 1.602456164717501E9, 2020-10-11 17:42:44.717
62.0, 728.5306396484375, 740.389892578125, -274.6227111816406, 2245.005859375, 0.0, 0.03200000151991844, 1.0080000162124634, 0.0, 0.0, 0.0, 0.0, 0.0, 1.602456164717501E9, 2020-10-11 17:42:44.717
63.0, 617.3134765625, 616.1317138671875, -378.8238220214844, 2089.28759765625, 0.0, 0.03200000151991844, 1.0080000162124634, 0.0, 0.0, 0.0, 0.0, 0.0, 1.6024561647182293E9, 2020-10-11 17:42:44.718
63.0, 606.7763061523438, 609.6635131835938, -394.96710205078125, 2083.696533203125, 0.0, 0.03200000151991844, 1.0080000162124634, 0.0, 0.0, 0.0, 0.0, 0.0, 1.6024561647182293E9, 2020-10-11 17:42:44.718
64.0, 465.36322021484375, 478.4827880859375, -533.80712890625, 2004.513427734375, 0.0, 0.03200000151991844, 1.0080000162124634, 0.0, 0.0, 0.0, 0.0, 0.0, 1.6024561647323084E9, 2020-10-11 17:42:44.732
64.0, 542.5753173828125, 547.0781860351562, -456.3145446777344, 1765.8460693359375, 0.0, 0.03200000151991844, 1.0080000162124634, 0.0, 0.0, 0.0, 0.0, 0.0, 1.6024561647323084E9, 2020-10-11 17:42:44.732
65.0, 450.7252502441406, 457.5879821777344, -553.2994995117188, 1716.7412109375, 0.0, 0.03200000151991844, 1.0080000162124634, 0.0, 0.0, 0.0, 0.0, 0.0, 1.6024561647475152E9, 2020-10-11 17:42:44.747
65.0, 637.4771728515625, 657.552978515625, -361.7343444824219, 1759.6715087890625, 0.0, 0.03200000151991844, 1.0080000162124634, 0.0, 0.0, 0.0, 0.0, 0.0, 1.6024561647475152E9, 2020-10-11 17:42:44.747
66.0, 566.38916015625, 587.6093139648438, -410.7382507324219, 1847.9593505859375, 0.0, 0.03200000151991844, 1.0080000162124634, 0.0, 0.0, 0.0, 0.0, 0.0, 1.6024561647482696E9, 2020-10-11 17:42:44.748
66.0, 768.5831298828125, 778.2881469726562, -226.08816528320312, 1891.422607421875, 0.0, 0.03200000151991844, 1.0080000162124634, 0.0, 0.0, 0.0, 0.0, 0.0, 1.6024561647482696E9, 2020-10-11 17:42:44.748
67.0, 684.7064819335938, 703.746337890625, -313.5588073730469, 2098.921630859375, 0.0, 0.03200000151991844, 1.0080000162124634, 0.0, 0.0, 0.0, 0.0, 0.0, 1.6024561647623017E9, 2020-10-11 17:42:44.762
67.0, 728.5848999023438, 741.3566284179688, -277.5978088378906, 2250.948486328125, 0.0, 0.03200000151991844, 1.0080000162124634, 0.0, 0.0, 0.0, 0.0, 0.0, 1.6024561647623017E9, 2020-10-11 17:42:44.762
68.0, 611.5820922851562, 624.3875122070312, -363.03582763671875, 2088.5322265625, 0.0, 0.03200000151991844, 1.0080000162124634, 0.0, 0.0, 0.0, 0.0, 0.0, 1.6024561647774599E9, 2020-10-11 17:42:44.777
68.0, 599.6424560546875, 612.6498413085938, -391.9695739746094, 2087.791748046875, 0.0, 0.03200000151991844, 1.0080000162124634, 0.0, 0.0, 0.0, 0.0, 0.0, 1.6024561647774599E9, 2020-10-11 17:42:44.777
69.0, 457.12237548828125, 471.9660339355469, -538.3118286132812, 2011.21533203125, 0.0, 0.03200000151991844, 1.0080000162124634, 0.0, 0.0, 0.0, 0.0, 0.0, 1.6024561647781856E9, 2020-10-11 17:42:44.778
69.0, 532.0905151367188, 543.8487548828125, -455.1719970703125, 1783.4237060546875, 0.0, 0.03200000151991844, 1.0080000162124634, 0.0, 0.0, 0.0, 0.0, 0.0, 1.6024561647781856E9, 2020-10-11 17:42:44.778
70.0, 440.3451843261719, 458.7380065917969, -563.7394409179688, 1723.278564453125, 0.0, 0.03200000151991844, 1.0080000162124634, 0.0, 0.0, 0.0, 0.0, 0.0, 1.6024561647922204E9, 2020-10-11 17:42:44.792
70.0, 625.8965454101562, 649.7010498046875, -373.55804443359375, 1765.917236328125, 0.0, 0.03200000151991844, 1.0080000162124634, 0.0, 0.0, 0.0, 0.0, 0.0, 1.6024561647922204E9, 2020-10-11 17:42:44.792
71.0, 559.1019287109375, 573.5604248046875, -429.9295349121094, 1863.61083984375, 0.0, 0.03200000151991844, 1.0080000162124634, 0.0, 0.0, 0.0, 0.0, 0.0, 1.6024561648074572E9, 2020-10-11 17:42:44.807
71.0, 758.2478637695312, 770.5596313476562, -219.2235870361328, 1903.0574951171875, 0.0, 0.03200000151991844, 1.0080000162124634, 0.0, 0.0, 0.0, 0.0, 0.0, 1.6024561648074572E9, 2020-10-11 17:42:44.807
72.0, 671.274658203125, 695.8158569335938, -313.52703857421875, 2097.904296875, 0.0, 0.03200000151991844, 1.0080000162124634, 0.0, 0.0, 0.0, 0.0, 0.0, 1.602456164808211E9, 2020-10-11 17:42:44.808
72.0, 713.4102172851562, 733.9497680664062, -270.7818603515625, 2260.608642578125, 0.0, 0.03200000151991844, 1.0080000162124634, 0.0, 0.0, 0.0, 0.0, 0.0, 1.602456164808211E9, 2020-10-11 17:42:44.808
73.0, 609.7514038085938, 618.9777221679688, -372.83624267578125, 2107.504638671875, 0.0, 0.03200000151991844, 1.0080000162124634, 0.0, 0.0, 0.0, 0.0, 0.0, 1.6024561648220608E9, 2020-10-11 17:42:44.822
73.0, 602.3445434570312, 609.3867797851562, -400.3151550292969, 2101.344970703125, 0.0, 0.03200000151991844, 1.0080000162124634, 0.0, 0.0, 0.0, 0.0, 0.0, 1.6024561648220608E9, 2020-10-11 17:42:44.822
74.0, 453.0477294921875, 468.87872314453125, -544.7426147460938, 2024.9893798828125, 0.0, 0.03200000151991844, 1.0080000162124634, 0.0, 0.0, 0.0, 0.0, 0.0, 1.6024561648377595E9, 2020-10-11 17:42:44.837
74.0, 522.4546508789062, 536.1801147460938, -463.42034912109375, 1789.6729736328125, 0.0, 0.03200000151991844, 1.0080000162124634, 0.0, 0.0, 0.0, 0.0, 0.0, 1.6024561648377595E9, 2020-10-11 17:42:44.837
75.0, 441.7158508300781, 454.1659851074219, -562.2603149414062, 1726.5958251953125, 0.0, 0.03200000151991844, 1.0080000162124634, 0.0, 0.0, 0.0, 0.0, 0.0, 1.6024561648385906E9, 2020-10-11 17:42:44.838
75.0, 622.390380859375, 649.3326416015625, -378.3245544433594, 1769.8365478515625, 0.0, 0.03200000151991844, 1.0080000162124634, 0.0, 0.0, 0.0, 0.0, 0.0, 1.6024561648385906E9, 2020-10-11 17:42:44.838
76.0, 553.9165649414062, 566.9127197265625, -429.0899353027344, 1858.505859375, 0.0, 0.03200000151991844, 1.0080000162124634, 0.0, 0.0, 0.0, 0.0, 0.0, 1.602456164851795E9, 2020-10-11 17:42:44.851
76.0, 759.8018188476562, 767.6182250976562, -231.58209228515625, 1899.5755615234375, 0.0, 0.03200000151991844, 1.0080000162124634, 0.0, 0.0, 0.0, 0.0, 0.0, 1.602456164851795E9, 2020-10-11 17:42:44.851
77.0, 684.1791381835938, 695.9112548828125, -325.75836181640625, 2100.68310546875, 0.0, 0.03200000151991844, 1.0080000162124634, 0.0, 0.0, 0.0, 0.0, 0.0, 1.6024561648675673E9, 2020-10-11 17:42:44.867
77.0, 717.63818359375, 730.069580078125, -281.77154541015625, 2268.2119140625, 0.0, 0.03200000151991844, 1.0080000162124634, 0.0, 0.0, 0.0, 0.0, 0.0, 1.6024561648675673E9, 2020-10-11 17:42:44.867
78.0, 603.9938354492188, 608.0665893554688, -382.5281982421875, 2105.01025390625, 0.0, 0.03200000151991844, 1.0080000162124634, 0.0, 0.0, 0.0, 0.0, 0.0, 1.60245616486848E9, 2020-10-11 17:42:44.868
78.0, 600.315673828125, 609.2745971679688, -411.70501708984375, 2093.076171875, 0.0, 0.03200000151991844, 1.0080000162124634, 0.0, 0.0, 0.0, 0.0, 0.0, 1.60245616486848E9, 2020-10-11 17:42:44.868
79.0, 460.30126953125, 478.89044189453125, -548.929443359375, 2034.043701171875, 0.0, 0.03200000151991844, 1.0080000162124634, 0.0, 0.0, 0.0, 0.0, 0.0, 1.602456164881791E9, 2020-10-11 17:42:44.881
79.0, 518.7278442382812, 528.8200073242188, -476.53057861328125, 1800.0474853515625, 0.0, 0.03200000151991844, 1.0080000162124634, 0.0, 0.0, 0.0, 0.0, 0.0, 1.602456164881791E9, 2020-10-11 17:42:44.881
80.0, 433.8078308105469, 443.5446472167969, -574.2410888671875, 1731.820556640625, 0.0, 0.03200000151991844, 1.0080000162124634, 0.0, 0.0, 0.0, 0.0, 0.0, 1.602456164897854E9, 2020-10-11 17:42:44.897
80.0, 617.9156494140625, 633.7709350585938, -397.5270690917969, 1774.8443603515625, 0.0, 0.03200000151991844, 1.0080000162124634, 0.0, 0.0, 0.0, 0.0, 0.0, 1.602456164897854E9, 2020-10-11 17:42:44.897
81.0, 538.15478515625, 554.8328857421875, -450.0240173339844, 1875.8740234375, 0.0, 0.03200000151991844, 1.0080000162124634, 0.0, 0.0, 0.0, 0.0, 0.0, 1.6024561648987217E9, 2020-10-11 17:42:44.898
81.0, 745.0609741210938, 755.7552490234375, -250.72476196289062, 1910.7728271484375, 0.0, 0.03200000151991844, 1.0080000162124634, 0.0, 0.0, 0.0, 0.0, 0.0, 1.6024561648987217E9, 2020-10-11 17:42:44.898
82.0, 663.8359985351562, 683.8538208007812, -330.6258544921875, 2112.871337890625, 0.0, 0.03200000151991844, 1.0080000162124634, 0.0, 0.0, 0.0, 0.0, 0.0, 1.6024561649118145E9, 2020-10-11 17:42:44.911
82.0, 696.3263549804688, 703.6434936523438, -293.4718322753906, 2271.719970703125, 0.0, 0.03200000151991844, 1.0080000162124634, 0.0, 0.0, 0.0, 0.0, 0.0, 1.6024561649118145E9, 2020-10-11 17:42:44.911
83.0, 594.9002685546875, 592.258056640625, -406.3382568359375, 2120.987060546875, 0.0, 0.03200000151991844, 1.0080000162124634, 0.0, 0.0, 0.0, 0.0, 0.0, 1.6024561649278016E9, 2020-10-11 17:42:44.927
83.0, 586.248046875, 600.4783325195312, -412.5895080566406, 2111.6484375, 0.0, 0.03200000151991844, 1.0080000162124634, 0.0, 0.0, 0.0, 0.0, 0.0, 1.6024561649278016E9, 2020-10-11 17:42:44.927
84.0, 435.9526672363281, 447.96148681640625, -567.5859375, 2036.8074951171875, 0.0, 0.03200000151991844, 1.0080000162124634, 0.0, 0.0, 0.0, 0.0, 0.0, 1.6024561649286425E9, 2020-10-11 17:42:44.928
84.0, 504.89959716796875, 510.4682922363281, -490.04095458984375, 1799.662353515625, 0.0, 0.03200000151991844, 1.0080000162124634, 0.0, 0.0, 0.0, 0.0, 0.0, 1.6024561649286425E9, 2020-10-11 17:42:44.928
85.0, 423.71197509765625, 430.1932067871094, -587.59814453125, 1738.9674072265625, 0.0, 0.03200000151991844, 1.0080000162124634, 0.0, 0.0, 0.0, 0.0, 0.0, 1.6024561649418116E9, 2020-10-11 17:42:44.941
85.0, 609.2484130859375, 621.6910400390625, -390.93548583984375, 1786.4754638671875, 0.0, 0.03200000151991844, 1.0080000162124634, 0.0, 0.0, 0.0, 0.0, 0.0, 1.6024561649418116E9, 2020-10-11 17:42:44.941
86.0, 531.6566772460938, 541.8030395507812, -456.00225830078125, 1874.912841796875, 0.0, 0.03200000151991844, 1.0080000162124634, 0.0, 0.0, 0.0, 0.0, 0.0, 1.6024561649578068E9, 2020-10-11 17:42:44.957
86.0, 732.7473754882812, 741.124755859375, -248.28448486328125, 1912.0968017578125, 0.0, 0.03200000151991844, 1.0080000162124634, 0.0, 0.0, 0.0, 0.0, 0.0, 1.6024561649578068E9, 2020-10-11 17:42:44.957
87.0, 655.7596435546875, 671.9421997070312, -345.16845703125, 2112.052490234375, 0.0, 0.03200000151991844, 1.0080000162124634, 0.0, 0.0, 0.0, 0.0, 0.0, 1.6024561649587667E9, 2020-10-11 17:42:44.958
87.0, 682.8533935546875, 699.2640380859375, -304.16607666015625, 2278.96044921875, 0.0, 0.03200000151991844, 1.0080000162124634, 0.0, 0.0, 0.0, 0.0, 0.0, 1.6024561649587667E9, 2020-10-11 17:42:44.958
88.0, 574.8151245117188, 584.8343505859375, -404.2607421875, 2115.728759765625, 0.0, 0.03200000151991844, 1.0080000162124634, 0.0, 0.0, 0.0, 0.0, 0.0, 1.602456164971845E9, 2020-10-11 17:42:44.971
88.0, 571.6156616210938, 591.166015625, -432.8055419921875, 2102.912109375, 0.0, 0.03200000151991844, 1.0080000162124634, 0.0, 0.0, 0.0, 0.0, 0.0, 1.602456164971845E9, 2020-10-11 17:42:44.971
89.0, 421.6194763183594, 437.6991882324219, -579.1290893554688, 2033.7294921875, 0.0, 0.03200000151991844, 1.0080000162124634, 0.0, 0.0, 0.0, 0.0, 0.0, 1.6024561649875453E9, 2020-10-11 17:42:44.987
89.0, 500.1256103515625, 502.954833984375, -503.5513610839844, 1802.2054443359375, 0.0, 0.03200000151991844, 1.0080000162124634, 0.0, 0.0, 0.0, 0.0, 0.0, 1.6024561649875453E9, 2020-10-11 17:42:44.987
90.0, 418.1301574707031, 426.0643615722656, -586.2573852539062, 1737.198486328125, 0.0, 0.03200000151991844, 1.0240000486373901, 0.0, 0.0, 0.0, 0.0, 0.0, 1.6024561649882767E9, 2020-10-11 17:42:44.988
90.0, 596.6019287109375, 617.8651123046875, -409.3675842285156, 1782.679443359375, 0.0, 0.03200000151991844, 1.0240000486373901, 0.0, 0.0, 0.0, 0.0, 0.0, 1.6024561649882767E9, 2020-10-11 17:42:44.988
91.0, 524.504150390625, 534.0577392578125, -459.126953125, 1882.4786376953125, 0.0, 0.03200000151991844, 1.0240000486373901, 0.0, 0.0, 0.0, 0.0, 0.0, 1.60245616500182E9, 2020-10-11 17:42:45.001
91.0, 731.8367309570312, 743.2901611328125, -254.21783447265625, 1921.5250244140625, 0.0, 0.03200000151991844, 1.0240000486373901, 0.0, 0.0, 0.0, 0.0, 0.0, 1.60245616500182E9, 2020-10-11 17:42:45.001
92.0, 653.0089721679688, 666.5305786132812, -345.1553649902344, 2113.1630859375, 0.0, 0.03200000151991844, 1.0240000486373901, 0.0, 0.0, 0.0, 0.0, 0.0, 1.6024561650175335E9, 2020-10-11 17:42:45.017
92.0, 677.279052734375, 691.7244262695312, -330.8147277832031, 2281.716796875, 0.0, 0.03200000151991844, 1.0240000486373901, 0.0, 0.0, 0.0, 0.0, 0.0, 1.6024561650175335E9, 2020-10-11 17:42:45.017
93.0, 567.8458251953125, 579.325439453125, -440.7565612792969, 2118.1708984375, 0.0, 0.03200000151991844, 1.0240000486373901, 0.0, 0.0, 0.0, 0.0, 0.0, 1.6024561650182912E9, 2020-10-11 17:42:45.018
93.0, 567.5597534179688, 583.233642578125, -440.26287841796875, 2111.016357421875, 0.0, 0.03200000151991844, 1.0240000486373901, 0.0, 0.0, 0.0, 0.0, 0.0, 1.6024561650182912E9, 2020-10-11 17:42:45.018
94.0, 406.12322998046875, 432.12298583984375, -588.3890991210938, 2050.555419921875, 0.0, 0.03200000151991844, 1.0240000486373901, 0.0, 0.0, 0.0, 0.0, 0.0, 1.6024561650318115E9, 2020-10-11 17:42:45.031
94.0, 485.9308166503906, 486.2711486816406, -506.8798522949219, 1807.6656494140625, 0.0, 0.03200000151991844, 1.0240000486373901, 0.0, 0.0, 0.0, 0.0, 0.0, 1.6024561650318115E9, 2020-10-11 17:42:45.031
95.0, 402.1065673828125, 410.9439392089844, -609.4933471679688, 1740.9010009765625, 0.0, 0.03200000151991844, 1.0240000486373901, 0.0, 0.0, 0.0, 0.0, 0.0, 1.602456165063884E9, 2020-10-11 17:42:45.063
95.0, 587.5719604492188, 609.5625610351562, -411.0019226074219, 1790.6678466796875, 0.0, 0.03200000151991844, 1.0240000486373901, 0.0, 0.0, 0.0, 0.0, 0.0, 1.602456165063884E9, 2020-10-11 17:42:45.063
96.0, 509.25469970703125, 524.9248657226562, -467.5566711425781, 1890.0032958984375, 0.0, 0.03200000151991844, 1.0240000486373901, 0.0, 0.0, 0.0, 0.0, 0.0, 1.602456165064706E9, 2020-10-11 17:42:45.064
96.0, 722.4327392578125, 733.0540771484375, -276.5936584472656, 1919.580322265625, 0.0, 0.03200000151991844, 1.0240000486373901, 0.0, 0.0, 0.0, 0.0, 0.0, 1.602456165064706E9, 2020-10-11 17:42:45.064
97.0, 639.9511108398438, 666.9195556640625, -366.2184753417969, 2117.987548828125, 0.0, 0.03200000151991844, 1.0240000486373901, 0.0, 0.0, 0.0, 0.0, 0.0, 1.6024561650657673E9, 2020-10-11 17:42:45.065
97.0, 672.8790893554688, 688.1640014648438, -333.72808837890625, 2285.957763671875, 0.0, 0.03200000151991844, 1.0240000486373901, 0.0, 0.0, 0.0, 0.0, 0.0, 1.6024561650657673E9, 2020-10-11 17:42:45.065
98.0, 574.33642578125, 577.1787719726562, -430.01556396484375, 2116.5703125, 0.0, 0.03200000151991844, 1.0240000486373901, 0.0, 0.0, 0.0, 0.0, 0.0, 1.6024561650661101E9, 2020-10-11 17:42:45.066
98.0, 561.2486572265625, 576.7542724609375, -442.1010437011719, 2103.005615234375, 0.0, 0.03200000151991844, 1.0240000486373901, 0.0, 0.0, 0.0, 0.0, 0.0, 1.6024561650661101E9, 2020-10-11 17:42:45.066
99.0, 407.57989501953125, 429.09930419921875, -598.3016967773438, 2045.4990234375, 0.0, 0.03200000151991844, 1.0240000486373901, 0.0, 0.0, 0.0, 0.0, 0.0, 1.6024561650768173E9, 2020-10-11 17:42:45.076
