%OpenBCI Raw EEG Data
%Number of channels = 4
%Sample Rate = 200 Hz
%Board = OpenBCI_GUI$BoardGanglionBLE
Sample Index, EXG Channel 0, EXG Channel 1, EXG Channel 2, EXG Channel 3, Accel Channel 0, Accel Channel 1, Accel Channel 2, Other, Other, Other, Other, Other, Timestamp, Timestamp (Formatted)
0.0, -18.792997360229492, 73.75643920898438, -1033.74755859375, -318.4618225097656, 0.0, 0.0, 0.0, 0.0, 0.0, 0.0, 0.0, 0.0, 1.6024560015041962E9, 2020-10-11 17:40:01.504
1.0, -198.88040161132812, -139.41412353515625, -1188.0184326171875, -381.0808410644531, 0.0, 0.03200000151991844, 0.0, 0.0, 0.0, 0.0, 0.0, 0.0, 1.6024560015169945E9, 2020-10-11 17:40:01.516
1.0, -68.04000091552734, 10.918638229370117, -1068.1173095703125, -457.02325439453125, 0.0, 0.03200000151991844, 0.0, 0.0, 0.0, 0.0, 0.0, 0.0, 1.6024560015169945E9, 2020-10-11 17:40:01.516
2.0, 54.5614013671875, 149.10794067382812, -957.075927734375, -640.1773681640625, 0.0, 0.03200000151991844, 0.0, 0.0, 0.0, 0.0, 0.0, 0.0, 1.6024560015335753E9, 2020-10-11 17:40:01.533
2.0, 280.9842834472656, 353.1811828613281, -1200.8837890625, -823.2660522460938, 0.0, 0.03200000151991844, 0.0, 0.0, 0.0, 0.0, 0.0, 0.0, 1.6024560015335753E9, 2020-10-11 17:40:01.533
3.0, 343.38079833984375, 411.96868896484375, -1155.5, -773.5908203125, 0.0, 0.03200000151991844, 0.0, 0.0, 0.0, 0.0, 0.0, 0.0, 1.6024560015343227E9, 2020-10-11 17:40:01.534
3.0, 512.5888061523438, 607.1802368164062, -995.1144409179688, -772.8671264648438, 0.0, 0.03200000151991844, 0.0, 0.0, 0.0, 0.0, 0.0, 0.0, 1.6024560015343227E9, 2020-10-11 17:40:01.534
4.0, 346.28668212890625, 425.9820861816406, -1146.54296875, -979.195556640625, 0.0, 0.03200000151991844, 0.0, 0.0, 0.0, 0.0, 0.0, 0.0, 1.602456001546635E9, 2020-10-11 17:40:01.546
4.0, 281.6387634277344, 351.793701171875, -1200.19189453125, -1078.4151611328125, 0.0, 0.03200000151991844, 0.0, 0.0, 0.0, 0.0, 0.0, 0.0, 1.602456001546635E9, 2020-10-11 17:40:01.546
5.0, 454.15289306640625, 540.2584838867188, -1045.44970703125, -1177.5897216796875, 0.0, 0.03200000151991844, 0.0, 0.0, 0.0, 0.0, 0.0, 0.0, 1.6024560015627005E9, 2020-10-11 17:40:01.562
5.0, 436.3397521972656, 521.2859497070312, -1066.2137451171875, -1320.37353515625, 0.0, 0.03200000151991844, 0.0, 0.0, 0.0, 0.0, 0.0, 0.0, 1.6024560015627005E9, 2020-10-11 17:40:01.562
6.0, 251.91778564453125, 311.8478088378906, -1238.630615234375, -1384.6456298828125, 0.0, 0.03200000151991844, 0.0, 0.0, 0.0, 0.0, 0.0, 0.0, 1.6024560015634904E9, 2020-10-11 17:40:01.563
6.0, 383.6595153808594, 458.7473449707031, -1112.023681640625, -1464.843994140625, 0.0, 0.03200000151991844, 0.0, 0.0, 0.0, 0.0, 0.0, 0.0, 1.6024560015634904E9, 2020-10-11 17:40:01.563
7.0, 503.8486633300781, 599.45361328125, -998.4953002929688, -1650.0625, 0.0, 0.03200000151991844, 0.0, 0.0, 0.0, 0.0, 0.0, 0.0, 1.6024560015766733E9, 2020-10-11 17:40:01.576
7.0, 272.7527770996094, 832.2455444335938, -1217.6907958984375, -1809.458984375, 0.0, 0.03200000151991844, 0.0, 0.0, 0.0, 0.0, 0.0, 0.0, 1.6024560015766733E9, 2020-10-11 17:40:01.576
8.0, 340.95733642578125, 899.021484375, -1156.02734375, -1754.5740966796875, 0.0, 0.03200000151991844, 0.0, 0.0, 0.0, 0.0, 0.0, 0.0, 1.602456001592405E9, 2020-10-11 17:40:01.592
8.0, 515.8687133789062, 1098.0477294921875, -991.9318237304688, -1760.7523193359375, 0.0, 0.03200000151991844, 0.0, 0.0, 0.0, 0.0, 0.0, 0.0, 1.602456001592405E9, 2020-10-11 17:40:01.592
9.0, 340.40008544921875, 903.7113037109375, -1150.4736328125, -1954.0845947265625, 0.0, 0.03200000151991844, 0.0, 0.0, 0.0, 0.0, 0.0, 0.0, 1.6024560015934467E9, 2020-10-11 17:40:01.593
9.0, 284.4175109863281, 829.7510375976562, -1208.5579833984375, -2075.380859375, 0.0, 0.03200000151991844, 0.0, 0.0, 0.0, 0.0, 0.0, 0.0, 1.6024560015934467E9, 2020-10-11 17:40:01.593
10.0, 467.3883972167969, 1044.8438720703125, -1031.8702392578125, -2145.82177734375, 0.0, 0.03200000151991844, 1.0080000162124634, 0.0, 0.0, 0.0, 0.0, 0.0, 1.602456001606573E9, 2020-10-11 17:40:01.606
10.0, 448.3149108886719, 1025.7591552734375, -1051.8487548828125, -2291.0888671875, 0.0, 0.03200000151991844, 1.0080000162124634, 0.0, 0.0, 0.0, 0.0, 0.0, 1.602456001606573E9, 2020-10-11 17:40:01.606
11.0, 258.3840637207031, 812.2108764648438, -1232.00341796875, -2366.7900390625, 0.0, 0.01600000075995922, 1.0080000162124634, 0.0, 0.0, 0.0, 0.0, 0.0, 1.602456001622264E9, 2020-10-11 17:40:01.622
11.0, 393.1925048828125, 956.2643432617188, -1101.858642578125, -2441.5244140625, 0.0, 0.01600000075995922, 1.0080000162124634, 0.0, 0.0, 0.0, 0.0, 0.0, 1.602456001622264E9, 2020-10-11 17:40:01.622
12.0, 503.212890625, 1089.12060546875, -997.1040649414062, -2630.434326171875, 0.0, 0.01600000075995922, 1.0080000162124634, 0.0, 0.0, 0.0, 0.0, 0.0, 1.6024560016229863E9, 2020-10-11 17:40:01.622
12.0, 262.4830017089844, 1314.0960693359375, -1224.62841796875, -2797.07861328125, 0.0, 0.01600000075995922, 1.0080000162124634, 0.0, 0.0, 0.0, 0.0, 0.0, 1.6024560016229863E9, 2020-10-11 17:40:01.622
13.0, 330.7212219238281, 1385.651611328125, -1162.7105712890625, -2738.6220703125, 0.0, 0.01600000075995922, 1.0080000162124634, 0.0, 0.0, 0.0, 0.0, 0.0, 1.602456001636665E9, 2020-10-11 17:40:01.636
13.0, 516.7962036132812, 1591.843505859375, -981.7330932617188, -2744.340576171875, 0.0, 0.01600000075995922, 1.0080000162124634, 0.0, 0.0, 0.0, 0.0, 0.0, 1.602456001636665E9, 2020-10-11 17:40:01.636
14.0, 344.0876159667969, 1404.0145263671875, -1136.6285400390625, -2926.389404296875, 0.0, 0.01600000075995922, 1.0080000162124634, 0.0, 0.0, 0.0, 0.0, 0.0, 1.602456001652551E9, 2020-10-11 17:40:01.652
14.0, 283.3254699707031, 1330.4095458984375, -1197.8880615234375, -3053.05615234375, 0.0, 0.01600000075995922, 1.0080000162124634, 0.0, 0.0, 0.0, 0.0, 0.0, 1.602456001652551E9, 2020-10-11 17:40:01.652
15.0, 455.6451110839844, 1525.924072265625, -1029.3121337890625, -3133.789306640625, 0.0, 0.01600000075995922, 1.0080000162124634, 0.0, 0.0, 0.0, 0.0, 0.0, 1.6024560016533442E9, 2020-10-11 17:40:01.653
15.0, 443.7784118652344, 1513.8031005859375, -1043.4676513671875, -3273.917724609375, 0.0, 0.01600000075995922, 1.0080000162124634, 0.0, 0.0, 0.0, 0.0, 0.0, 1.6024560016533442E9, 2020-10-11 17:40:01.653
16.0, 264.08367919921875, 1311.2164306640625, -1205.8876953125, -3338.75830078125, 0.0, 0.01600000075995922, 1.0080000162124634, 0.0, 0.0, 0.0, 0.0, 0.0, 1.602456001667082E9, 2020-10-11 17:40:01.667
16.0, 398.5330810546875, 1457.4876708984375, -1086.962646484375, -3410.4111328125, 0.0, 0.01600000075995922, 1.0080000162124634, 0.0, 0.0, 0.0, 0.0, 0.0, 1.602456001667082E9, 2020-10-11 17:40:01.667
17.0, 524.294677734375, 1604.1627197265625, -978.2288208007812, -3594.77685546875, 0.0, 0.01600000075995922, 1.0080000162124634, 0.0, 0.0, 0.0, 0.0, 0.0, 1.6024560016822972E9, 2020-10-11 17:40:01.682
17.0, 284.1183166503906, 1817.9298095703125, -1202.484375, -3761.540771484375, 0.0, 0.01600000075995922, 1.0080000162124634, 0.0, 0.0, 0.0, 0.0, 0.0, 1.6024560016822972E9, 2020-10-11 17:40:01.682
18.0, 349.0654296875, 1895.259765625, -1128.44189453125, -3705.94921875, 0.0, 0.01600000075995922, 1.0080000162124634, 0.0, 0.0, 0.0, 0.0, 0.0, 1.6024560016830373E9, 2020-10-11 17:40:01.683
18.0, 529.32861328125, 2098.298828125, -971.1454467773438, -3706.64111328125, 0.0, 0.01600000075995922, 1.0080000162124634, 0.0, 0.0, 0.0, 0.0, 0.0, 1.6024560016830373E9, 2020-10-11 17:40:01.683
19.0, 364.5373840332031, 1912.4371337890625, -1128.4942626953125, -3895.238525390625, 0.0, 0.01600000075995922, 1.0080000162124634, 0.0, 0.0, 0.0, 0.0, 0.0, 1.6024560016966107E9, 2020-10-11 17:40:01.696
19.0, 302.4363708496094, 1841.03125, -1186.1822509765625, -4014.7021484375, 0.0, 0.01600000075995922, 1.0080000162124634, 0.0, 0.0, 0.0, 0.0, 0.0, 1.6024560016966107E9, 2020-10-11 17:40:01.696
20.0, 483.0885009765625, 2041.9237060546875, -1017.6697998046875, -4101.7373046875, 0.0, 0.01600000075995922, 0.5120000243186951, 0.0, 0.0, 0.0, 0.0, 0.0, 1.6024560017123446E9, 2020-10-11 17:40:01.712
20.0, 458.5248107910156, 2020.0751953125, -1030.725830078125, -4239.9619140625, 0.0, 0.01600000075995922, 0.5120000243186951, 0.0, 0.0, 0.0, 0.0, 0.0, 1.6024560017123446E9, 2020-10-11 17:40:01.712
21.0, 276.2570495605469, 1808.7821044921875, -1208.4757080078125, -4313.1875, 0.0, 0.01600000075995922, 0.5120000243186951, 0.0, 0.0, 0.0, 0.0, 0.0, 1.60245600171316E9, 2020-10-11 17:40:01.713
21.0, 417.4308166503906, 1963.1688232421875, -1080.6422119140625, -4390.58837890625, 0.0, 0.01600000075995922, 0.5120000243186951, 0.0, 0.0, 0.0, 0.0, 0.0, 1.60245600171316E9, 2020-10-11 17:40:01.713
22.0, 529.3173828125, 2093.134033203125, -975.2069702148438, -4572.35498046875, -0.01600000075995922, 0.01600000075995922, 0.5120000243186951, 0.0, 0.0, 0.0, 0.0, 0.0, 1.602456001727102E9, 2020-10-11 17:40:01.727
22.0, 287.27105712890625, 2321.64013671875, -1187.154541015625, -4733.4306640625, -0.01600000075995922, 0.01600000075995922, 0.5120000243186951, 0.0, 0.0, 0.0, 0.0, 0.0, 1.602456001727102E9, 2020-10-11 17:40:01.727
23.0, 349.44317626953125, 2384.5078125, -1137.7430419921875, -4686.8818359375, -0.01600000075995922, 0.01600000075995922, 0.5120000243186951, 0.0, 0.0, 0.0, 0.0, 0.0, 1.6024560017423244E9, 2020-10-11 17:40:01.742
23.0, 529.1079711914062, 2582.427001953125, -978.2325439453125, -4695.47607421875, -0.01600000075995922, 0.01600000075995922, 0.5120000243186951, 0.0, 0.0, 0.0, 0.0, 0.0, 1.6024560017423244E9, 2020-10-11 17:40:01.742
24.0, 343.57525634765625, 2384.59375, -1145.8922119140625, -4889.73974609375, -0.01600000075995922, 0.01600000075995922, 0.5120000243186951, 0.0, 0.0, 0.0, 0.0, 0.0, 1.6024560017430525E9, 2020-10-11 17:40:01.743
24.0, 301.7594299316406, 2320.514404296875, -1180.2432861328125, -4989.62890625, -0.01600000075995922, 0.01600000075995922, 0.5120000243186951, 0.0, 0.0, 0.0, 0.0, 0.0, 1.6024560017430525E9, 2020-10-11 17:40:01.743
25.0, 484.9434814453125, 2525.651611328125, -1019.3414916992188, -5079.9287109375, -0.01600000075995922, 0.01600000075995922, 0.5120000243186951, 0.0, 0.0, 0.0, 0.0, 0.0, 1.602456001756942E9, 2020-10-11 17:40:01.756
25.0, 457.94512939453125, 2509.82080078125, -1045.5955810546875, -5223.36328125, -0.01600000075995922, 0.01600000075995922, 0.5120000243186951, 0.0, 0.0, 0.0, 0.0, 0.0, 1.602456001756942E9, 2020-10-11 17:40:01.756
26.0, 278.71044921875, 2307.241455078125, -1200.1768798828125, -5293.6416015625, -0.01600000075995922, 0.01600000075995922, 0.5120000243186951, 0.0, 0.0, 0.0, 0.0, 0.0, 1.6024560017723167E9, 2020-10-11 17:40:01.772
26.0, 407.576171875, 2448.183349609375, -1085.5152587890625, -5368.873046875, -0.01600000075995922, 0.01600000075995922, 0.5120000243186951, 0.0, 0.0, 0.0, 0.0, 0.0, 1.6024560017723167E9, 2020-10-11 17:40:01.772
27.0, 532.604736328125, 2588.250244140625, -970.7564697265625, -5553.736328125, -0.01600000075995922, 0.01600000075995922, 0.5120000243186951, 0.0, 0.0, 0.0, 0.0, 0.0, 1.602456001773042E9, 2020-10-11 17:40:01.773
27.0, 294.2384948730469, 2803.625244140625, -1206.5347900390625, -5719.83837890625, -0.01600000075995922, 0.01600000075995922, 0.5120000243186951, 0.0, 0.0, 0.0, 0.0, 0.0, 1.602456001773042E9, 2020-10-11 17:40:01.773
28.0, 367.63031005859375, 2887.9638671875, -1129.84814453125, -5658.16552734375, -0.01600000075995922, 0.01600000075995922, 0.5120000243186951, 0.0, 0.0, 0.0, 0.0, 0.0, 1.6024560017865963E9, 2020-10-11 17:40:01.786
28.0, 538.7793579101562, 3083.971923828125, -968.2095947265625, -5662.82958984375, -0.01600000075995922, 0.01600000075995922, 0.5120000243186951, 0.0, 0.0, 0.0, 0.0, 0.0, 1.6024560017865963E9, 2020-10-11 17:40:01.786
29.0, 369.2122802734375, 2893.080078125, -1125.2330322265625, -5853.951171875, -0.01600000075995922, 0.01600000075995922, 0.5120000243186951, 0.0, 0.0, 0.0, 0.0, 0.0, 1.6024560018022995E9, 2020-10-11 17:40:01.802
29.0, 317.3136901855469, 2831.135986328125, -1174.1285400390625, -5960.92724609375, -0.01600000075995922, 0.01600000075995922, 0.5120000243186951, 0.0, 0.0, 0.0, 0.0, 0.0, 1.6024560018022995E9, 2020-10-11 17:40:01.802
30.0, 479.9619445800781, 3016.205078125, -1028.25, -6067.32763671875, -0.01600000075995922, 0.01600000075995922, 0.7680000066757202, 0.0, 0.0, 0.0, 0.0, 0.0, 1.6024560018031192E9, 2020-10-11 17:40:01.803
30.0, 455.91436767578125, 2994.177001953125, -1038.90869140625, -6201.4873046875, -0.01600000075995922, 0.01600000075995922, 0.7680000066757202, 0.0, 0.0, 0.0, 0.0, 0.0, 1.6024560018031192E9, 2020-10-11 17:40:01.803
31.0, 288.1873474121094, 2801.73291015625, -1199.945068359375, -6263.3994140625, -0.01600000075995922, 0.03200000151991844, 0.7680000066757202, 0.0, 0.0, 0.0, 0.0, 0.0, 1.602456001816977E9, 2020-10-11 17:40:01.816
31.0, 431.7733154296875, 2963.229248046875, -1055.5101318359375, -6330.033203125, -0.01600000075995922, 0.03200000151991844, 0.7680000066757202, 0.0, 0.0, 0.0, 0.0, 0.0, 1.602456001816977E9, 2020-10-11 17:40:01.816
32.0, 560.291259765625, 3103.20263671875, -940.5455932617188, -6506.69091796875, 0.0, 0.03200000151991844, 0.7680000066757202, 0.0, 0.0, 0.0, 0.0, 0.0, 1.6024560018326683E9, 2020-10-11 17:40:01.832
32.0, 802.1524658203125, 3317.45947265625, -1169.954833984375, -6674.65576171875, 0.0, 0.03200000151991844, 0.7680000066757202, 0.0, 0.0, 0.0, 0.0, 0.0, 1.6024560018326683E9, 2020-10-11 17:40:01.832
33.0, 860.4799194335938, 3379.9794921875, -1121.6165771484375, -6631.611328125, 0.0, 0.03200000151991844, 0.7680000066757202, 0.0, 0.0, 0.0, 0.0, 0.0, 1.6024560018334048E9, 2020-10-11 17:40:01.833
33.0, 1014.1337280273438, 3559.808837890625, -982.2117919921875, -6657.59619140625, 0.0, 0.03200000151991844, 0.7680000066757202, 0.0, 0.0, 0.0, 0.0, 0.0, 1.6024560018334048E9, 2020-10-11 17:40:01.833
34.0, 849.1405639648438, 3375.55517578125, -1127.2525634765625, -6834.21484375, 0.0, 0.03200000151991844, 0.7680000066757202, 0.0, 0.0, 0.0, 0.0, 0.0, 1.6024560018468785E9, 2020-10-11 17:40:01.846
34.0, 798.636962890625, 3306.202392578125, -1191.32080078125, -6956.55810546875, 0.0, 0.03200000151991844, 0.7680000066757202, 0.0, 0.0, 0.0, 0.0, 0.0, 1.6024560018468785E9, 2020-10-11 17:40:01.846
35.0, 985.6170043945312, 3520.06103515625, -1021.5891723632812, -7044.06787109375, 0.0, 0.03200000151991844, 0.7680000066757202, 0.0, 0.0, 0.0, 0.0, 0.0, 1.6024560018786867E9, 2020-10-11 17:40:01.878
35.0, 952.773193359375, 3488.687255859375, -1039.5556640625, -7177.2548828125, 0.0, 0.03200000151991844, 0.7680000066757202, 0.0, 0.0, 0.0, 0.0, 0.0, 1.6024560018786867E9, 2020-10-11 17:40:01.878
36.0, 750.4969482421875, 3261.514404296875, -1228.8245849609375, -7270.00634765625, 0.0, 0.03200000151991844, 0.7680000066757202, 0.0, 0.0, 0.0, 0.0, 0.0, 1.6024560018795164E9, 2020-10-11 17:40:01.879
36.0, 891.539794921875, 3416.06201171875, -1095.8785400390625, -7343.3681640625, 0.0, 0.03200000151991844, 0.7680000066757202, 0.0, 0.0, 0.0, 0.0, 0.0, 1.6024560018795164E9, 2020-10-11 17:40:01.879
37.0, 1017.8137817382812, 3557.493896484375, -993.8391723632812, -7518.16357421875, 0.0, 0.03200000151991844, 0.7680000066757202, 0.0, 0.0, 0.0, 0.0, 0.0, 1.6024560018802643E9, 2020-10-11 17:40:01.880
37.0, 773.6170043945312, 3772.1884765625, -1225.7877197265625, -7690.107421875, 0.0, 0.03200000151991844, 0.7680000066757202, 0.0, 0.0, 0.0, 0.0, 0.0, 1.6024560018802643E9, 2020-10-11 17:40:01.880
38.0, 840.8865966796875, 3843.949462890625, -1157.3475341796875, -7641.05322265625, 0.0, 0.03200000151991844, 0.7680000066757202, 0.0, 0.0, 0.0, 0.0, 0.0, 1.602456001880979E9, 2020-10-11 17:40:01.880
38.0, 1011.68408203125, 4039.430419921875, -1004.9765625, -7640.80078125, 0.0, 0.03200000151991844, 0.7680000066757202, 0.0, 0.0, 0.0, 0.0, 0.0, 1.602456001880979E9, 2020-10-11 17:40:01.880
39.0, 855.446044921875, 3869.444580078125, -1136.437744140625, -7820.1982421875, 0.0, 0.03200000151991844, 0.7680000066757202, 0.0, 0.0, 0.0, 0.0, 0.0, 1.6024560018917716E9, 2020-10-11 17:40:01.891
39.0, 796.3369140625, 3801.740966796875, -1186.9825439453125, -7936.5615234375, 0.0, 0.03200000151991844, 0.7680000066757202, 0.0, 0.0, 0.0, 0.0, 0.0, 1.6024560018917716E9, 2020-10-11 17:40:01.891
40.0, 974.266357421875, 3995.8642578125, -1028.264892578125, -8032.7216796875, 0.0, 0.03200000151991844, 0.8800000548362732, 0.0, 0.0, 0.0, 0.0, 0.0, 1.6024560019066448E9, 2020-10-11 17:40:01.906
40.0, 951.9802856445312, 3980.17919921875, -1050.9361572265625, -8162.2998046875, 0.0, 0.03200000151991844, 0.8800000548362732, 0.0, 0.0, 0.0, 0.0, 0.0, 1.6024560019066448E9, 2020-10-11 17:40:01.906
41.0, 768.35498046875, 3770.13525390625, -1229.88671875, -8243.2744140625, 0.0, 0.03200000151991844, 0.8800000548362732, 0.0, 0.0, 0.0, 0.0, 0.0, 1.6024560019386897E9, 2020-10-11 17:40:01.938
41.0, 913.911865234375, 3931.672607421875, -1097.019287109375, -8317.548828125, 0.0, 0.03200000151991844, 0.8800000548362732, 0.0, 0.0, 0.0, 0.0, 0.0, 1.6024560019386897E9, 2020-10-11 17:40:01.938
42.0, 1014.4964599609375, 4052.482666015625, -978.1465454101562, -8490.912109375, -0.01600000075995922, 0.03200000151991844, 0.8800000548362732, 0.0, 0.0, 0.0, 0.0, 0.0, 1.6024560019394252E9, 2020-10-11 17:40:01.939
42.0, 775.8759155273438, 4278.236328125, -1199.791748046875, -8661.0078125, -0.01600000075995922, 0.03200000151991844, 0.8800000548362732, 0.0, 0.0, 0.0, 0.0, 0.0, 1.6024560019394252E9, 2020-10-11 17:40:01.939
43.0, 844.3833618164062, 4343.70703125, -1146.54296875, -8611.0107421875, -0.01600000075995922, 0.03200000151991844, 0.8800000548362732, 0.0, 0.0, 0.0, 0.0, 0.0, 1.6024560019401596E9, 2020-10-11 17:40:01.940
43.0, 1017.75390625, 4546.82470703125, -980.480224609375, -8611.998046875, -0.01600000075995922, 0.03200000151991844, 0.8800000548362732, 0.0, 0.0, 0.0, 0.0, 0.0, 1.6024560019401596E9, 2020-10-11 17:40:01.940
44.0, 851.4181518554688, 4363.49462890625, -1137.41015625, -8795.412109375, -0.01600000075995922, 0.03200000151991844, 0.8800000548362732, 0.0, 0.0, 0.0, 0.0, 0.0, 1.6024560019409857E9, 2020-10-11 17:40:01.940
44.0, 797.7169189453125, 4287.5673828125, -1193.8939208984375, -8916.8017578125, -0.01600000075995922, 0.03200000151991844, 0.8800000548362732, 0.0, 0.0, 0.0, 0.0, 0.0, 1.6024560019409857E9, 2020-10-11 17:40:01.940
45.0, 970.3619384765625, 4486.61572265625, -1033.81494140625, -9013.52734375, -0.01600000075995922, 0.03200000151991844, 0.8800000548362732, 0.0, 0.0, 0.0, 0.0, 0.0, 1.6024560019516907E9, 2020-10-11 17:40:01.951
45.0, 946.329345703125, 4472.0263671875, -1056.224365234375, -9144.06640625, -0.01600000075995922, 0.03200000151991844, 0.8800000548362732, 0.0, 0.0, 0.0, 0.0, 0.0, 1.6024560019516907E9, 2020-10-11 17:40:01.951
46.0, 756.4097290039062, 4258.029296875, -1215.6339111328125, -9220.384765625, -0.01600000075995922, 0.03200000151991844, 0.8800000548362732, 0.0, 0.0, 0.0, 0.0, 0.0, 1.602456001966616E9, 2020-10-11 17:40:01.966
46.0, 901.8394775390625, 4418.55322265625, -1073.3382568359375, -9297.8564453125, -0.01600000075995922, 0.03200000151991844, 0.8800000548362732, 0.0, 0.0, 0.0, 0.0, 0.0, 1.602456001966616E9, 2020-10-11 17:40:01.966
47.0, 1018.3560791015625, 4549.69287109375, -978.3447265625, -9466.2568359375, -0.01600000075995922, 0.03200000151991844, 0.8800000548362732, 0.0, 0.0, 0.0, 0.0, 0.0, 1.6024560019986207E9, 2020-10-11 17:40:01.998
47.0, 795.6001586914062, 4783.32275390625, -1190.382080078125, -9631.7158203125, -0.01600000075995922, 0.03200000151991844, 0.8800000548362732, 0.0, 0.0, 0.0, 0.0, 0.0, 1.6024560019986207E9, 2020-10-11 17:40:01.998
48.0, 849.4696655273438, 4842.4580078125, -1143.057373046875, -9591.390625, -0.01600000075995922, 0.03200000151991844, 0.8800000548362732, 0.0, 0.0, 0.0, 0.0, 0.0, 1.6024560019996364E9, 2020-10-11 17:40:01.999
48.0, 1022.8850708007812, 5035.42578125, -983.6629028320312, -9592.875, -0.01600000075995922, 0.03200000151991844, 0.8800000548362732, 0.0, 0.0, 0.0, 0.0, 0.0, 1.6024560019996364E9, 2020-10-11 17:40:01.999
49.0, 851.4630126953125, 4852.0693359375, -1135.6075439453125, -9777.392578125, -0.01600000075995922, 0.03200000151991844, 0.8800000548362732, 0.0, 0.0, 0.0, 0.0, 0.0, 1.6024560020005813E9, 2020-10-11 17:40:02.000
49.0, 797.3690795898438, 4786.43408203125, -1186.904052734375, -9896.916015625, -0.01600000075995922, 0.03200000151991844, 0.8800000548362732, 0.0, 0.0, 0.0, 0.0, 0.0, 1.6024560020005813E9, 2020-10-11 17:40:02.000
50.0, 981.5741577148438, 4991.25732421875, -1018.5037841796875, -9988.9208984375, -0.01600000075995922, 0.03200000151991844, 0.9440000653266907, 0.0, 0.0, 0.0, 0.0, 0.0, 1.602456002000838E9, 2020-10-11 17:40:02.000
50.0, 956.060546875, 4966.65625, -1035.04541015625, -10106.6923828125, -0.01600000075995922, 0.03200000151991844, 0.9440000653266907, 0.0, 0.0, 0.0, 0.0, 0.0, 1.602456002000838E9, 2020-10-11 17:40:02.000
51.0, 773.6170043945312, 4759.41357421875, -1210.44287109375, -10193.60546875, -0.01600000075995922, 0.01600000075995922, 0.9440000653266907, 0.0, 0.0, 0.0, 0.0, 0.0, 1.6024560020116045E9, 2020-10-11 17:40:02.011
51.0, 904.4312133789062, 4898.52294921875, -1096.5218505859375, -10280.4990234375, -0.01600000075995922, 0.01600000075995922, 0.9440000653266907, 0.0, 0.0, 0.0, 0.0, 0.0, 1.6024560020116045E9, 2020-10-11 17:40:02.011
52.0, 1019.9791870117188, 5036.68212890625, -984.2650146484375, -10453.4013671875, 0.0, 0.01600000075995922, 0.9440000653266907, 0.0, 0.0, 0.0, 0.0, 0.0, 1.6024560020266447E9, 2020-10-11 17:40:02.026
52.0, 786.396240234375, 5263.931640625, -1208.8497314453125, -10616.3251953125, 0.0, 0.01600000075995922, 0.9440000653266907, 0.0, 0.0, 0.0, 0.0, 0.0, 1.6024560020266447E9, 2020-10-11 17:40:02.026
53.0, 847.7567749023438, 5325.32568359375, -1153.46923828125, -10574.287109375, 0.0, 0.01600000075995922, 0.9440000653266907, 0.0, 0.0, 0.0, 0.0, 0.0, 1.602456002042052E9, 2020-10-11 17:40:02.042
53.0, 1025.0093994140625, 5528.21533203125, -978.498046875, -10573.56640625, 0.0, 0.01600000075995922, 0.9440000653266907, 0.0, 0.0, 0.0, 0.0, 0.0, 1.602456002042052E9, 2020-10-11 17:40:02.042
54.0, 848.452392578125, 5335.45361328125, -1134.5528564453125, -10751.583984375, 0.0, 0.01600000075995922, 0.9440000653266907, 0.0, 0.0, 0.0, 0.0, 0.0, 1.6024560020577521E9, 2020-10-11 17:40:02.057
54.0, 806.4832763671875, 5276.666015625, -1173.7882080078125, -10872.8994140625, 0.0, 0.01600000075995922, 0.9440000653266907, 0.0, 0.0, 0.0, 0.0, 0.0, 1.6024560020577521E9, 2020-10-11 17:40:02.057
55.0, 971.730712890625, 5464.0537109375, -1022.3222045898438, -10969.78515625, 0.0, 0.01600000075995922, 0.9440000653266907, 0.0, 0.0, 0.0, 0.0, 0.0, 1.6024560020585065E9, 2020-10-11 17:40:02.058
55.0, 957.3208618164062, 5450.08154296875, -1043.69580078125, -11090.9140625, 0.0, 0.01600000075995922, 0.9440000653266907, 0.0, 0.0, 0.0, 0.0, 0.0, 1.6024560020585065E9, 2020-10-11 17:40:02.058
56.0, 762.6665649414062, 5241.1142578125, -1214.78125, -11185.1953125, 0.0, 0.01600000075995922, 0.9440000653266907, 0.0, 0.0, 0.0, 0.0, 0.0, 1.602456002072316E9, 2020-10-11 17:40:02.072
56.0, 902.703369140625, 5392.11669921875, -1086.281982421875, -11258.1943359375, 0.0, 0.01600000075995922, 0.9440000653266907, 0.0, 0.0, 0.0, 0.0, 0.0, 1.602456002072316E9, 2020-10-11 17:40:02.072
57.0, 1010.2442016601562, 5524.27001953125, -988.4536743164062, -11437.15234375, 0.0, 0.01600000075995922, 0.9440000653266907, 0.0, 0.0, 0.0, 0.0, 0.0, 1.6024560020730214E9, 2020-10-11 17:40:02.073
57.0, 782.016845703125, 5750.36376953125, -1199.0848388671875, -11598.5419921875, 0.0, 0.01600000075995922, 0.9440000653266907, 0.0, 0.0, 0.0, 0.0, 0.0, 1.6024560020730214E9, 2020-10-11 17:40:02.073
58.0, 843.7662963867188, 5816.1484375, -1140.4207763671875, -11550.984375, 0.0, 0.01600000075995922, 0.9440000653266907, 0.0, 0.0, 0.0, 0.0, 0.0, 1.6024560020866334E9, 2020-10-11 17:40:02.086
58.0, 1019.055419921875, 6017.2802734375, -965.6477661132812, -11549.6806640625, 0.0, 0.01600000075995922, 0.9440000653266907, 0.0, 0.0, 0.0, 0.0, 0.0, 1.6024560020866334E9, 2020-10-11 17:40:02.086
59.0, 849.884765625, 5826.60498046875, -1148.128662109375, -11739.8037109375, 0.0, 0.01600000075995922, 0.9440000653266907, 0.0, 0.0, 0.0, 0.0, 0.0, 1.6024560021026804E9, 2020-10-11 17:40:02.102
59.0, 791.6844482421875, 5756.822265625, -1179.076416015625, -11857.0576171875, 0.0, 0.01600000075995922, 0.9440000653266907, 0.0, 0.0, 0.0, 0.0, 0.0, 1.6024560021026804E9, 2020-10-11 17:40:02.102
60.0, 985.5159912109375, 5970.85302734375, -1007.71044921875, -11943.4228515625, 0.0, 0.01600000075995922, 0.9920000433921814, 0.0, 0.0, 0.0, 0.0, 0.0, 1.6024560021030333E9, 2020-10-11 17:40:02.103
60.0, 943.2925415039062, 5938.12548828125, -1045.6629638671875, -12073.7451171875, 0.0, 0.01600000075995922, 0.9920000433921814, 0.0, 0.0, 0.0, 0.0, 0.0, 1.6024560021030333E9, 2020-10-11 17:40:02.103
61.0, 779.271728515625, 5751.04443359375, -1200.4873046875, -12151.0546875, 0.0, 0.01600000075995922, 0.9920000433921814, 0.0, 0.0, 0.0, 0.0, 0.0, 1.602456002116719E9, 2020-10-11 17:40:02.116
61.0, 918.3885498046875, 5893.2578125, -1075.4324951171875, -12229.74609375, 0.0, 0.01600000075995922, 0.9920000433921814, 0.0, 0.0, 0.0, 0.0, 0.0, 1.602456002116719E9, 2020-10-11 17:40:02.116
62.0, 1043.3834228515625, 6044.6787109375, -961.829345703125, -12393.4228515625, -0.01600000075995922, 0.01600000075995922, 0.9920000433921814, 0.0, 0.0, 0.0, 0.0, 0.0, 1.6024560021325667E9, 2020-10-11 17:40:02.132
62.0, 803.4464721679688, 6268.7158203125, -1170.698974609375, -12562.064453125, -0.01600000075995922, 0.01600000075995922, 0.9920000433921814, 0.0, 0.0, 0.0, 0.0, 0.0, 1.6024560021325667E9, 2020-10-11 17:40:02.132
63.0, 860.4686889648438, 6323.9990234375, -1115.767333984375, -12518.484375, -0.01600000075995922, 0.01600000075995922, 0.9920000433921814, 0.0, 0.0, 0.0, 0.0, 0.0, 1.6024560021334996E9, 2020-10-11 17:40:02.133
63.0, 1031.722412109375, 6522.359375, -954.5440063476562, -12518.5, -0.01600000075995922, 0.01600000075995922, 0.9920000433921814, 0.0, 0.0, 0.0, 0.0, 0.0, 1.6024560021334996E9, 2020-10-11 17:40:02.133
64.0, 870.989013671875, 6341.5126953125, -1111.2159423828125, -12704.1728515625, -0.01600000075995922, 0.01600000075995922, 0.9920000433921814, 0.0, 0.0, 0.0, 0.0, 0.0, 1.602456002146731E9, 2020-10-11 17:40:02.146
64.0, 798.5621337890625, 6259.4482421875, -1175.014892578125, -12828.8388671875, -0.01600000075995922, 0.01600000075995922, 0.9920000433921814, 0.0, 0.0, 0.0, 0.0, 0.0, 1.602456002146731E9, 2020-10-11 17:40:02.146
65.0, 964.9989013671875, 6446.12158203125, -1027.595458984375, -12937.5537109375, -0.01600000075995922, 0.01600000075995922, 0.9920000433921814, 0.0, 0.0, 0.0, 0.0, 0.0, 1.6024560021623237E9, 2020-10-11 17:40:02.162
65.0, 944.4032592773438, 6430.79150390625, -1052.4808349609375, -13059.431640625, -0.01600000075995922, 0.01600000075995922, 0.9920000433921814, 0.0, 0.0, 0.0, 0.0, 0.0, 1.6024560021623237E9, 2020-10-11 17:40:02.162
66.0, 767.52099609375, 6227.7412109375, -1212.2119140625, -13138.1767578125, -0.01600000075995922, 0.01600000075995922, 0.9920000433921814, 0.0, 0.0, 0.0, 0.0, 0.0, 1.6024560021631324E9, 2020-10-11 17:40:02.163
66.0, 890.354248046875, 6362.134765625, -1094.371337890625, -13222.740234375, -0.01600000075995922, 0.01600000075995922, 0.9920000433921814, 0.0, 0.0, 0.0, 0.0, 0.0, 1.6024560021631324E9, 2020-10-11 17:40:02.163
67.0, 1007.342041015625, 6498.61865234375, -978.8982543945312, -13393.9111328125, -0.01600000075995922, 0.01600000075995922, 0.9920000433921814, 0.0, 0.0, 0.0, 0.0, 0.0, 1.6024560021766143E9, 2020-10-11 17:40:02.176
67.0, 782.9779663085938, 6735.72607421875, -1193.2020263671875, -13556.26171875, -0.01600000075995922, 0.01600000075995922, 0.9920000433921814, 0.0, 0.0, 0.0, 0.0, 0.0, 1.6024560021766143E9, 2020-10-11 17:40:02.176
68.0, 846.2084350585938, 6805.6884765625, -1141.7596435546875, -13510.56640625, -0.01600000075995922, 0.01600000075995922, 0.9920000433921814, 0.0, 0.0, 0.0, 0.0, 0.0, 1.6024560021923368E9, 2020-10-11 17:40:02.192
68.0, 1022.952392578125, 7004.81201171875, -976.7889404296875, -13511.875, -0.01600000075995922, 0.01600000075995922, 0.9920000433921814, 0.0, 0.0, 0.0, 0.0, 0.0, 1.6024560021923368E9, 2020-10-11 17:40:02.192
69.0, 857.3309326171875, 6824.3916015625, -1127.129150390625, -13688.7294921875, -0.01600000075995922, 0.01600000075995922, 0.9920000433921814, 0.0, 0.0, 0.0, 0.0, 0.0, 1.602456002193349E9, 2020-10-11 17:40:02.193
69.0, 805.5370483398438, 6760.3798828125, -1166.682373046875, -13807.6396484375, -0.01600000075995922, 0.01600000075995922, 0.9920000433921814, 0.0, 0.0, 0.0, 0.0, 0.0, 1.602456002193349E9, 2020-10-11 17:40:02.193
70.0, 986.3799438476562, 6955.72216796875, -993.08740234375, -13893.4482421875, -0.01600000075995922, 0.01600000075995922, 0.9920000433921814, 0.0, 0.0, 0.0, 0.0, 0.0, 1.6024560022066083E9, 2020-10-11 17:40:02.206
70.0, 958.79443359375, 6929.98779296875, -1037.32666015625, -14028.755859375, -0.01600000075995922, 0.01600000075995922, 0.9920000433921814, 0.0, 0.0, 0.0, 0.0, 0.0, 1.6024560022066083E9, 2020-10-11 17:40:02.206
71.0, 786.9796752929688, 6736.06298828125, -1196.59033203125, -14105.8515625, -0.01600000075995922, 0.01600000075995922, 0.9920000433921814, 0.0, 0.0, 0.0, 0.0, 0.0, 1.6024560022223227E9, 2020-10-11 17:40:02.222
71.0, 908.159912109375, 6864.2666015625, -1086.502685546875, -14197.7861328125, -0.01600000075995922, 0.01600000075995922, 0.9920000433921814, 0.0, 0.0, 0.0, 0.0, 0.0, 1.6024560022223227E9, 2020-10-11 17:40:02.222
72.0, 1016.2243041992188, 6995.06982421875, -990.0020141601562, -14377.66796875, -0.01600000075995922, 0.01600000075995922, 0.9920000433921814, 0.0, 0.0, 0.0, 0.0, 0.0, 1.6024560022232544E9, 2020-10-11 17:40:02.223
72.0, 788.064208984375, 7230.82373046875, -1196.2088623046875, -14534.1953125, -0.01600000075995922, 0.01600000075995922, 0.9920000433921814, 0.0, 0.0, 0.0, 0.0, 0.0, 1.6024560022232544E9, 2020-10-11 17:40:02.223
73.0, 859.672119140625, 7310.8759765625, -1106.526123046875, -14467.802734375, -0.01600000075995922, 0.01600000075995922, 0.9920000433921814, 0.0, 0.0, 0.0, 0.0, 0.0, 1.6024560022366157E9, 2020-10-11 17:40:02.236
73.0, 1027.1822509765625, 7505.111328125, -940.5380859375, -14484.45703125, -0.01600000075995922, 0.01600000075995922, 0.9920000433921814, 0.0, 0.0, 0.0, 0.0, 0.0, 1.6024560022366157E9, 2020-10-11 17:40:02.236
74.0, 861.9908447265625, 7328.14306640625, -1096.753662109375, -14657.41015625, -0.01600000075995922, 0.01600000075995922, 0.9920000433921814, 0.0, 0.0, 0.0, 0.0, 0.0, 1.6024560022523253E9, 2020-10-11 17:40:02.252
74.0, 805.3800048828125, 7255.12548828125, -1148.820556640625, -14784.0205078125, -0.01600000075995922, 0.01600000075995922, 0.9920000433921814, 0.0, 0.0, 0.0, 0.0, 0.0, 1.6024560022523253E9, 2020-10-11 17:40:02.252
75.0, 958.3007202148438, 7431.787109375, -1002.3549194335938, -14893.517578125, -0.01600000075995922, 0.01600000075995922, 0.9920000433921814, 0.0, 0.0, 0.0, 0.0, 0.0, 1.6024560022530012E9, 2020-10-11 17:40:02.253
75.0, 939.6798095703125, 7418.86181640625, -1016.7460327148438, -15012.0478515625, -0.01600000075995922, 0.01600000075995922, 0.9920000433921814, 0.0, 0.0, 0.0, 0.0, 0.0, 1.6024560022530012E9, 2020-10-11 17:40:02.253
76.0, 760.9349975585938, 7218.470703125, -1185.34814453125, -15089.5224609375, -0.01600000075995922, 0.01600000075995922, 0.9920000433921814, 0.0, 0.0, 0.0, 0.0, 0.0, 1.60245600226685E9, 2020-10-11 17:40:02.266
76.0, 884.3890991210938, 7358.36181640625, -1066.6961669921875, -15169.447265625, -0.01600000075995922, 0.01600000075995922, 0.9920000433921814, 0.0, 0.0, 0.0, 0.0, 0.0, 1.60245600226685E9, 2020-10-11 17:40:02.266
77.0, 994.7610473632812, 7483.87646484375, -966.6500854492188, -15363.623046875, -0.01600000075995922, 0.01600000075995922, 0.9920000433921814, 0.0, 0.0, 0.0, 0.0, 0.0, 1.6024560022823708E9, 2020-10-11 17:40:02.282
77.0, 758.0926513671875, 7714.16650390625, -1191.287109375, -15522.458984375, -0.01600000075995922, 0.01600000075995922, 0.9920000433921814, 0.0, 0.0, 0.0, 0.0, 0.0, 1.6024560022823708E9, 2020-10-11 17:40:02.282
78.0, 839.4766235351562, 7792.154296875, -1127.08056640625, -15463.037109375, -0.01600000075995922, 0.01600000075995922, 0.9920000433921814, 0.0, 0.0, 0.0, 0.0, 0.0, 1.6024560022830575E9, 2020-10-11 17:40:02.283
78.0, 992.154296875, 7967.541015625, -971.2463989257812, -15483.0791015625, -0.01600000075995922, 0.01600000075995922, 0.9920000433921814, 0.0, 0.0, 0.0, 0.0, 0.0, 1.6024560022830575E9, 2020-10-11 17:40:02.283
79.0, 840.6883544921875, 7794.82080078125, -1110.8980712890625, -15652.47265625, -0.01600000075995922, 0.01600000075995922, 0.9920000433921814, 0.0, 0.0, 0.0, 0.0, 0.0, 1.6024560022971509E9, 2020-10-11 17:40:02.297
79.0, 793.674072265625, 7742.31298828125, -1150.238037109375, -15765.1591796875, -0.01600000075995922, 0.01600000075995922, 0.9920000433921814, 0.0, 0.0, 0.0, 0.0, 0.0, 1.6024560022971509E9, 2020-10-11 17:40:02.297
80.0, 953.4014892578125, 7916.517578125, -1009.8533935546875, -15877.1240234375, -0.01600000075995922, 0.01600000075995922, 1.0080000162124634, 0.0, 0.0, 0.0, 0.0, 0.0, 1.6024560023122675E9, 2020-10-11 17:40:02.312
80.0, 919.8433837890625, 7891.33642578125, -1045.86865234375, -16007.56640625, -0.01600000075995922, 0.01600000075995922, 1.0080000162124634, 0.0, 0.0, 0.0, 0.0, 0.0, 1.6024560023122675E9, 2020-10-11 17:40:02.312
81.0, 745.9866333007812, 7691.6220703125, -1203.7933349609375, -16084.318359375, -0.01600000075995922, 0.03200000151991844, 1.0080000162124634, 0.0, 0.0, 0.0, 0.0, 0.0, 1.6024560023130069E9, 2020-10-11 17:40:02.313
81.0, 872.9188232421875, 7831.1240234375, -1094.3751220703125, -16171.8134765625, -0.01600000075995922, 0.03200000151991844, 1.0080000162124634, 0.0, 0.0, 0.0, 0.0, 0.0, 1.6024560023130069E9, 2020-10-11 17:40:02.313
82.0, 978.7879028320312, 7953.31787109375, -983.8424072265625, -16347.1171875, 0.0, 0.03200000151991844, 1.0080000162124634, 0.0, 0.0, 0.0, 0.0, 0.0, 1.6024560023270564E9, 2020-10-11 17:40:02.327
82.0, 763.9979858398438, 7708.6240234375, -1175.3739013671875, -16501.890625, 0.0, 0.03200000151991844, 1.0080000162124634, 0.0, 0.0, 0.0, 0.0, 0.0, 1.6024560023270564E9, 2020-10-11 17:40:02.327
83.0, 804.8040161132812, 7757.728515625, -1137.7392578125, -16463.607421875, 0.0, 0.03200000151991844, 1.0080000162124634, 0.0, 0.0, 0.0, 0.0, 0.0, 1.6024560023422663E9, 2020-10-11 17:40:02.342
83.0, 986.3612060546875, 7951.376953125, -974.7095336914062, -16472.61328125, 0.0, 0.03200000151991844, 1.0080000162124634, 0.0, 0.0, 0.0, 0.0, 0.0, 1.6024560023422663E9, 2020-10-11 17:40:02.342
84.0, 816.2032470703125, 7774.5244140625, -1130.251953125, -16645.1484375, 0.0, 0.03200000151991844, 1.0080000162124634, 0.0, 0.0, 0.0, 0.0, 0.0, 1.6024560023430235E9, 2020-10-11 17:40:02.343
84.0, 778.9164428710938, 7722.37158203125, -1179.7083740234375, -16765.345703125, 0.0, 0.03200000151991844, 1.0080000162124634, 0.0, 0.0, 0.0, 0.0, 0.0, 1.6024560023430235E9, 2020-10-11 17:40:02.343
85.0, 944.8782348632812, 7911.6591796875, -1019.0311279296875, -16868.23046875, 0.0, 0.03200000151991844, 1.0080000162124634, 0.0, 0.0, 0.0, 0.0, 0.0, 1.6024560023570209E9, 2020-10-11 17:40:02.357
85.0, 927.139892578125, 7886.830078125, -1040.13916015625, -16985.828125, 0.0, 0.03200000151991844, 1.0080000162124634, 0.0, 0.0, 0.0, 0.0, 0.0, 1.6024560023570209E9, 2020-10-11 17:40:02.357
86.0, 760.1122436523438, 7691.31201171875, -1201.20166015625, -17060.0078125, 0.0, 0.03200000151991844, 1.0080000162124634, 0.0, 0.0, 0.0, 0.0, 0.0, 1.6024560023723347E9, 2020-10-11 17:40:02.372
86.0, 862.8585205078125, 7813.22900390625, -1099.8017578125, -17158.505859375, 0.0, 0.03200000151991844, 1.0080000162124634, 0.0, 0.0, 0.0, 0.0, 0.0, 1.6024560023723347E9, 2020-10-11 17:40:02.372
87.0, 982.0453491210938, 7942.1357421875, -979.1862182617188, -17331.697265625, 0.0, 0.03200000151991844, 1.0080000162124634, 0.0, 0.0, 0.0, 0.0, 0.0, 1.6024560023732665E9, 2020-10-11 17:40:02.373
87.0, 748.2455444335938, 8181.1806640625, -1217.6759033203125, -17501.587890625, 0.0, 0.03200000151991844, 1.0080000162124634, 0.0, 0.0, 0.0, 0.0, 0.0, 1.6024560023732665E9, 2020-10-11 17:40:02.373
88.0, 812.5194702148438, 8247.3623046875, -1160.754638671875, -17450.65625, 0.0, 0.03200000151991844, 1.0080000162124634, 0.0, 0.0, 0.0, 0.0, 0.0, 1.60245600238659E9, 2020-10-11 17:40:02.386
88.0, 982.2286376953125, 8434.705078125, -988.9061889648438, -17454.7578125, 0.0, 0.03200000151991844, 1.0080000162124634, 0.0, 0.0, 0.0, 0.0, 0.0, 1.60245600238659E9, 2020-10-11 17:40:02.386
89.0, 820.1264038085938, 8257.8486328125, -1148.338134765625, -17634.294921875, 0.0, 0.03200000151991844, 1.0080000162124634, 0.0, 0.0, 0.0, 0.0, 0.0, 1.6024560024022515E9, 2020-10-11 17:40:02.402
89.0, 782.7386474609375, 8211.728515625, -1171.2301025390625, -17736.388671875, 0.0, 0.03200000151991844, 1.0080000162124634, 0.0, 0.0, 0.0, 0.0, 0.0, 1.6024560024022515E9, 2020-10-11 17:40:02.402
90.0, 947.72802734375, 8400.6943359375, -1021.4470825195312, -17846.74609375, 0.0, 0.03200000151991844, 1.0080000162124634, 0.0, 0.0, 0.0, 0.0, 0.0, 1.602456002403011E9, 2020-10-11 17:40:02.403
90.0, 913.14892578125, 8364.1328125, -1059.870849609375, -17973.37109375, 0.0, 0.03200000151991844, 1.0080000162124634, 0.0, 0.0, 0.0, 0.0, 0.0, 1.602456002403011E9, 2020-10-11 17:40:02.403
91.0, 753.649658203125, 8169.83740234375, -1223.173583984375, -18054.505859375, 0.0, 0.03200000151991844, 1.0080000162124634, 0.0, 0.0, 0.0, 0.0, 0.0, 1.6024560024166408E9, 2020-10-11 17:40:02.416
91.0, 880.2078857421875, 8310.1171875, -1105.7967529296875, -18138.166015625, 0.0, 0.03200000151991844, 1.0080000162124634, 0.0, 0.0, 0.0, 0.0, 0.0, 1.6024560024166408E9, 2020-10-11 17:40:02.416
92.0, 995.755859375, 8448.056640625, -991.7822265625, -18302.97265625, 0.0, 0.03200000151991844, 1.0080000162124634, 0.0, 0.0, 0.0, 0.0, 0.0, 1.602456002432324E9, 2020-10-11 17:40:02.432
92.0, 775.2849731445312, 8205.306640625, -1197.177490234375, -18463.4921875, 0.0, 0.03200000151991844, 1.0080000162124634, 0.0, 0.0, 0.0, 0.0, 0.0, 1.602456002432324E9, 2020-10-11 17:40:02.432
93.0, 830.0969848632812, 8262.1982421875, -1129.4442138671875, -18413.853515625, 0.0, 0.03200000151991844, 1.0080000162124634, 0.0, 0.0, 0.0, 0.0, 0.0, 1.6024560024331448E9, 2020-10-11 17:40:02.433
93.0, 990.5648803710938, 8444.6376953125, -975.4388427734375, -18432.88671875, 0.0, 0.03200000151991844, 1.0080000162124634, 0.0, 0.0, 0.0, 0.0, 0.0, 1.6024560024331448E9, 2020-10-11 17:40:02.433
94.0, 826.3271484375, 8268.4658203125, -1138.457275390625, -18603.72265625, 0.0, 0.03200000151991844, 1.0080000162124634, 0.0, 0.0, 0.0, 0.0, 0.0, 1.6024560024465947E9, 2020-10-11 17:40:02.446
94.0, 783.3931274414062, 8213.6689453125, -1186.27197265625, -18723.228515625, 0.0, 0.03200000151991844, 1.0080000162124634, 0.0, 0.0, 0.0, 0.0, 0.0, 1.6024560024465947E9, 2020-10-11 17:40:02.446
95.0, 950.215087890625, 8394.1044921875, -1028.253662109375, -18831.029296875, 0.0, 0.03200000151991844, 1.0080000162124634, 0.0, 0.0, 0.0, 0.0, 0.0, 1.6024560024622777E9, 2020-10-11 17:40:02.462
95.0, 916.2792358398438, 8363.744140625, -1051.0521240234375, -18945.03125, 0.0, 0.03200000151991844, 1.0080000162124634, 0.0, 0.0, 0.0, 0.0, 0.0, 1.6024560024622777E9, 2020-10-11 17:40:02.462
96.0, 744.6365356445312, 8171.28125, -1216.520263671875, -19034.12109375, 0.0, 0.03200000151991844, 1.0080000162124634, 0.0, 0.0, 0.0, 0.0, 0.0, 1.602456002463002E9, 2020-10-11 17:40:02.463
96.0, 886.0682983398438, 8330.0029296875, -1081.513671875, -19103.59765625, 0.0, 0.03200000151991844, 1.0080000162124634, 0.0, 0.0, 0.0, 0.0, 0.0, 1.602456002463002E9, 2020-10-11 17:40:02.463
97.0, 975.1377563476562, 8434.7978515625, -996.4159545898438, -19296.54296875, 0.0, 0.03200000151991844, 1.0080000162124634, 0.0, 0.0, 0.0, 0.0, 0.0, 1.602456002492957E9, 2020-10-11 17:40:02.492
97.0, 773.5833740234375, 8200.998046875, -1188.9647216796875, -19439.798828125, 0.0, 0.03200000151991844, 1.0080000162124634, 0.0, 0.0, 0.0, 0.0, 0.0, 1.602456002492957E9, 2020-10-11 17:40:02.492
98.0, 819.7449340820312, 8251.7041015625, -1144.86376953125, -19405.220703125, 0.0, 0.03200000151991844, 1.0080000162124634, 0.0, 0.0, 0.0, 0.0, 0.0, 1.6024560024937296E9, 2020-10-11 17:40:02.493
98.0, 993.3623046875, 8454.6611328125, -971.9682006835938, -19414.251953125, 0.0, 0.03200000151991844, 1.0080000162124634, 0.0, 0.0, 0.0, 0.0, 0.0, 1.6024560024937296E9, 2020-10-11 17:40:02.493
99.0, 824.214111328125, 8269.763671875, -1135.1363525390625, -19576.4765625, 0.0, 0.03200000151991844, 1.0080000162124634, 0.0, 0.0, 0.0, 0.0, 0.0, 1.6024560024945507E9, 2020-10-11 17:40:02.494
99.0, 769.6751708984375, 8203.1708984375, -1198.340576171875, -19719.33984375, 0.0, 0.03200000151991844, 1.0080000162124634, 0.0, 0.0, 0.0, 0.0, 0.0, 1.6024560024945507E9, 2020-10-11 17:40:02.494
100.0, 934.5711059570312, 8384.3466796875, -1029.7271728515625, -19818.623046875, 0.0, 0.03200000151991844, 1.0080000162124634, 0.0, 0.0, 0.0, 0.0, 0.0, 1.602456002507297E9, 2020-10-11 17:40:02.507
100.0, 914.1175537109375, 8360.1943359375, -1048.9390869140625, -19926.921875, 0.0, 0.03200000151991844, 1.0080000162124634, 0.0, 0.0, 0.0, 0.0, 0.0, 1.602456002507297E9, 2020-10-11 17:40:02.507
0.0, -230.74435424804688, -156.2287139892578, -1215.7255859375, 78.28545379638672, 0.0, 0.03200000151991844, 1.0080000162124634, 0.0, 0.0, 0.0, 0.0, 0.0, 1.602456002508001E9, 2020-10-11 17:40:02.508
1.0, -102.60789489746094, -18.177783966064453, -1097.952392578125, 3.6968910694122314, 0.0, 0.03200000151991844, 1.0080000162124634, 0.0, 0.0, 0.0, 0.0, 0.0, 1.602456002521618E9, 2020-10-11 17:40:02.521
1.0, 7.737853050231934, 112.76359558105469, -988.8220825195312, -173.91844177246094, 0.0, 0.03200000151991844, 1.0080000162124634, 0.0, 0.0, 0.0, 0.0, 0.0, 1.602456002521618E9, 2020-10-11 17:40:02.521
2.0, -213.8773956298828, 348.58111572265625, -1209.932373046875, -324.7355041503906, 0.0, 0.03200000151991844, 1.0080000162124634, 0.0, 0.0, 0.0, 0.0, 0.0, 1.6024560025537088E9, 2020-10-11 17:40:02.553
2.0, -168.1683349609375, 402.7124328613281, -1155.4158935546875, -291.98333740234375, 0.0, 0.03200000151991844, 1.0080000162124634, 0.0, 0.0, 0.0, 0.0, 0.0, 1.6024560025537088E9, 2020-10-11 17:40:02.553
3.0, 14.252758979797363, 608.526611328125, -971.8690795898438, -293.535400390625, 0.0, 0.03200000151991844, 1.0080000162124634, 0.0, 0.0, 0.0, 0.0, 0.0, 1.6024560025543833E9, 2020-10-11 17:40:02.554
3.0, -152.38597106933594, 423.0500183105469, -1136.6602783203125, -459.0989074707031, 0.0, 0.03200000151991844, 1.0080000162124634, 0.0, 0.0, 0.0, 0.0, 0.0, 1.6024560025543833E9, 2020-10-11 17:40:02.554
4.0, -199.1347198486328, 364.4831848144531, -1194.8194580078125, -597.164794921875, 0.0, 0.03200000151991844, 1.0080000162124634, 0.0, 0.0, 0.0, 0.0, 0.0, 1.602456002555135E9, 2020-10-11 17:40:02.555
4.0, -31.97240447998047, 553.80810546875, -1031.569091796875, -690.9764404296875, 0.0, 0.03200000151991844, 1.0080000162124634, 0.0, 0.0, 0.0, 0.0, 0.0, 1.602456002555135E9, 2020-10-11 17:40:02.555
5.0, -56.03491973876953, 537.0982666015625, -1041.2667236328125, -801.215576171875, 0.0, 0.03200000151991844, 1.0080000162124634, 0.0, 0.0, 0.0, 0.0, 0.0, 1.6024560025559783E9, 2020-10-11 17:40:02.555
5.0, -223.61236572265625, 339.2126770019531, -1206.1812744140625, -892.44482421875, 0.0, 0.03200000151991844, 1.0080000162124634, 0.0, 0.0, 0.0, 0.0, 0.0, 1.6024560025559783E9, 2020-10-11 17:40:02.555
6.0, -95.92469024658203, 480.1208801269531, -1096.864013671875, -972.5834350585938, 0.0, 0.03200000151991844, 1.0080000162124634, 0.0, 0.0, 0.0, 0.0, 0.0, 1.602456002566599E9, 2020-10-11 17:40:02.566
6.0, 11.174820899963379, 605.3364868164062, -985.2130737304688, -1155.550537109375, 0.0, 0.03200000151991844, 1.0080000162124634, 0.0, 0.0, 0.0, 0.0, 0.0, 1.602456002566599E9, 2020-10-11 17:40:02.566
7.0, -220.81117248535156, 836.684814453125, -1203.84765625, -1311.981201171875, 0.0, 0.03200000151991844, 1.0080000162124634, 0.0, 0.0, 0.0, 0.0, 0.0, 1.6024560025815604E9, 2020-10-11 17:40:02.581
7.0, -171.88954162597656, 889.35009765625, -1152.9364013671875, -1273.21533203125, 0.0, 0.03200000151991844, 1.0080000162124634, 0.0, 0.0, 0.0, 0.0, 0.0, 1.6024560025815604E9, 2020-10-11 17:40:02.581
8.0, -1.4361215829849243, 1086.5587158203125, -993.104248046875, -1290.508544921875, 0.0, 0.03200000151991844, 1.0080000162124634, 0.0, 0.0, 0.0, 0.0, 0.0, 1.6024560025969892E9, 2020-10-11 17:40:02.596
8.0, -154.71966552734375, 913.9848022460938, -1144.760986328125, -1439.04052734375, 0.0, 0.03200000151991844, 1.0080000162124634, 0.0, 0.0, 0.0, 0.0, 0.0, 1.6024560025969892E9, 2020-10-11 17:40:02.596
9.0, -212.4861602783203, 850.0399780273438, -1180.821044921875, -1580.7154541015625, 0.0, 0.03200000151991844, 1.0080000162124634, 0.0, 0.0, 0.0, 0.0, 0.0, 1.602456002612226E9, 2020-10-11 17:40:02.612
9.0, -41.82704162597656, 1036.8779296875, -1027.1710205078125, -1677.952880859375, 0.0, 0.03200000151991844, 1.0080000162124634, 0.0, 0.0, 0.0, 0.0, 0.0, 1.602456002612226E9, 2020-10-11 17:40:02.612
10.0, -54.76335525512695, 1024.577392578125, -1051.4354248046875, -1777.5706787109375, 0.0, 0.03200000151991844, 1.0240000486373901, 0.0, 0.0, 0.0, 0.0, 0.0, 1.6024560026129816E9, 2020-10-11 17:40:02.612
10.0, -223.67967224121094, 834.489501953125, -1208.8814697265625, -1874.40234375, 0.0, 0.03200000151991844, 1.0240000486373901, 0.0, 0.0, 0.0, 0.0, 0.0, 1.6024560026129816E9, 2020-10-11 17:40:02.612
11.0, -94.39881134033203, 971.1828002929688, -1086.51953125, -1950.8084716796875, 0.0, 0.03200000151991844, 1.0240000486373901, 0.0, 0.0, 0.0, 0.0, 0.0, 1.60245600262729E9, 2020-10-11 17:40:02.627
11.0, 19.836429595947266, 1104.00537109375, -980.6578369140625, -2126.85302734375, 0.0, 0.03200000151991844, 1.0240000486373901, 0.0, 0.0, 0.0, 0.0, 0.0, 1.60245600262729E9, 2020-10-11 17:40:02.627
12.0, -208.51063537597656, 1338.8917236328125, -1196.476318359375, -2280.658203125, 0.0, 0.03200000151991844, 1.0240000486373901, 0.0, 0.0, 0.0, 0.0, 0.0, 1.602456002628004E9, 2020-10-11 17:40:02.628
12.0, -155.12730407714844, 1401.5350341796875, -1138.8519287109375, -2245.396728515625, 0.0, 0.03200000151991844, 1.0240000486373901, 0.0, 0.0, 0.0, 0.0, 0.0, 1.602456002628004E9, 2020-10-11 17:40:02.628
13.0, 27.94453239440918, 1596.301513671875, -976.5028076171875, -2254.6904296875, 0.0, 0.03200000151991844, 1.0240000486373901, 0.0, 0.0, 0.0, 0.0, 0.0, 1.602456002641543E9, 2020-10-11 17:40:02.641
13.0, -142.6884002685547, 1409.69921875, -1143.6651611328125, -2413.739013671875, 0.0, 0.03200000151991844, 1.0240000486373901, 0.0, 0.0, 0.0, 0.0, 0.0, 1.602456002641543E9, 2020-10-11 17:40:02.641
14.0, -190.31228637695312, 1352.51611328125, -1183.7044677734375, -2553.648681640625, 0.0, 0.03200000151991844, 1.0240000486373901, 0.0, 0.0, 0.0, 0.0, 0.0, 1.602456002657458E9, 2020-10-11 17:40:02.657
14.0, -21.8260555267334, 1537.65234375, -1028.0947265625, -2652.5576171875, 0.0, 0.03200000151991844, 1.0240000486373901, 0.0, 0.0, 0.0, 0.0, 0.0, 1.602456002657458E9, 2020-10-11 17:40:02.657
15.0, -50.51856994628906, 1518.1973876953125, -1043.0430908203125, -2753.17041015625, 0.0, 0.03200000151991844, 1.0240000486373901, 0.0, 0.0, 0.0, 0.0, 0.0, 1.6024560026580572E9, 2020-10-11 17:40:02.658
15.0, -210.55636596679688, 1326.2994384765625, -1202.0113525390625, -2846.509033203125, 0.0, 0.03200000151991844, 1.0240000486373901, 0.0, 0.0, 0.0, 0.0, 0.0, 1.6024560026580572E9, 2020-10-11 17:40:02.658
16.0, -86.79560089111328, 1466.227783203125, -1089.01025390625, -2934.063720703125, 0.0, 0.03200000151991844, 1.0240000486373901, 0.0, 0.0, 0.0, 0.0, 0.0, 1.602456002671566E9, 2020-10-11 17:40:02.671
16.0, 20.87238121032715, 1598.8931884765625, -983.257080078125, -3104.917236328125, 0.0, 0.03200000151991844, 1.0240000486373901, 0.0, 0.0, 0.0, 0.0, 0.0, 1.602456002671566E9, 2020-10-11 17:40:02.671
17.0, -208.20396423339844, 1826.5465087890625, -1197.2916259765625, -3263.34130859375, 0.0, 0.03200000151991844, 1.0240000486373901, 0.0, 0.0, 0.0, 0.0, 0.0, 1.6024560026872916E9, 2020-10-11 17:40:02.687
17.0, -142.28823852539062, 1897.3653564453125, -1142.5618896484375, -3222.17431640625, 0.0, 0.03200000151991844, 1.0240000486373901, 0.0, 0.0, 0.0, 0.0, 0.0, 1.6024560026872916E9, 2020-10-11 17:40:02.687
18.0, 27.58550262451172, 2086.877197265625, -967.8300170898438, -3230.402099609375, 0.0, 0.03200000151991844, 1.0240000486373901, 0.0, 0.0, 0.0, 0.0, 0.0, 1.6024560026880288E9, 2020-10-11 17:40:02.688
18.0, -143.15963745117188, 1898.9398193359375, -1148.2054443359375, -3397.865478515625, 0.0, 0.03200000151991844, 1.0240000486373901, 0.0, 0.0, 0.0, 0.0, 0.0, 1.6024560026880288E9, 2020-10-11 17:40:02.688
19.0, -177.03564453125, 1848.74658203125, -1178.2554931640625, -3526.484375, 0.0, 0.03200000151991844, 1.0240000486373901, 0.0, 0.0, 0.0, 0.0, 0.0, 1.6024560027015662E9, 2020-10-11 17:40:02.701
19.0, -20.330095291137695, 2030.3262939453125, -1025.278564453125, -3636.11962890625, 0.0, 0.03200000151991844, 1.0240000486373901, 0.0, 0.0, 0.0, 0.0, 0.0, 1.6024560027015662E9, 2020-10-11 17:40:02.701
20.0, -46.184024810791016, 2007.400634765625, -1051.4317626953125, -3735.064208984375, 0.0, 0.03200000151991844, 1.0240000486373901, 0.0, 0.0, 0.0, 0.0, 0.0, 1.6024560027172604E9, 2020-10-11 17:40:02.717
20.0, -206.3302764892578, 1819.10791015625, -1197.9984130859375, -3820.814453125, 0.0, 0.03200000151991844, 1.0240000486373901, 0.0, 0.0, 0.0, 0.0, 0.0, 1.6024560027172604E9, 2020-10-11 17:40:02.717
21.0, -78.04423522949219, 1966.0, -1072.2330322265625, -3903.13720703125, 0.0, 0.03200000151991844, 1.0240000486373901, 0.0, 0.0, 0.0, 0.0, 0.0, 1.6024560027180002E9, 2020-10-11 17:40:02.718
21.0, 16.63881492614746, 2079.4609375, -984.4575805664062, -4088.64013671875, 0.0, 0.03200000151991844, 1.0240000486373901, 0.0, 0.0, 0.0, 0.0, 0.0, 1.6024560027180002E9, 2020-10-11 17:40:02.718
22.0, -207.4859161376953, 2319.889892578125, -1211.8809814453125, -4248.103515625, 0.0, 0.03200000151991844, 1.0240000486373901, 0.0, 0.0, 0.0, 0.0, 0.0, 1.6024560027315679E9, 2020-10-11 17:40:02.731
22.0, -151.8997802734375, 2377.36083984375, -1158.58740234375, -4214.28564453125, 0.0, 0.03200000151991844, 1.0240000486373901, 0.0, 0.0, 0.0, 0.0, 0.0, 1.6024560027315679E9, 2020-10-11 17:40:02.731
23.0, 37.163387298583984, 2587.072021484375, -969.7859497070312, -4208.53564453125, 0.0, 0.03200000151991844, 1.0240000486373901, 0.0, 0.0, 0.0, 0.0, 0.0, 1.6024560027472692E9, 2020-10-11 17:40:02.747
23.0, -150.34771728515625, 2387.85888671875, -1150.7559814453125, -4373.16015625, 0.0, 0.03200000151991844, 1.0240000486373901, 0.0, 0.0, 0.0, 0.0, 0.0, 1.6024560027472692E9, 2020-10-11 17:40:02.747
24.0, -177.7125701904297, 2342.489990234375, -1174.5604248046875, -4510.0068359375, 0.0, 0.03200000151991844, 1.0240000486373901, 0.0, 0.0, 0.0, 0.0, 0.0, 1.602456002747994E9, 2020-10-11 17:40:02.747
24.0, -9.095437049865723, 2526.178955078125, -1028.0386962890625, -4612.779296875, 0.0, 0.03200000151991844, 1.0240000486373901, 0.0, 0.0, 0.0, 0.0, 0.0, 1.602456002747994E9, 2020-10-11 17:40:02.747
25.0, -40.98930358886719, 2504.861572265625, -1042.3026123046875, -4706.267578125, 0.0, 0.03200000151991844, 1.0240000486373901, 0.0, 0.0, 0.0, 0.0, 0.0, 1.6024560027616856E9, 2020-10-11 17:40:02.761
25.0, -213.1929931640625, 2304.14111328125, -1206.5291748046875, -4813.41748046875, 0.0, 0.03200000151991844, 1.0240000486373901, 0.0, 0.0, 0.0, 0.0, 0.0, 1.6024560027616856E9, 2020-10-11 17:40:02.761
26.0, -85.28842163085938, 2453.093994140625, -1087.3609619140625, -4888.1220703125, 0.0, 0.03200000151991844, 1.0240000486373901, 0.0, 0.0, 0.0, 0.0, 0.0, 1.6024560027772593E9, 2020-10-11 17:40:02.777
26.0, 22.424440383911133, 2569.853515625, -989.547607421875, -5063.87109375, 0.0, 0.03200000151991844, 1.0240000486373901, 0.0, 0.0, 0.0, 0.0, 0.0, 1.6024560027772593E9, 2020-10-11 17:40:02.777
27.0, -198.08006286621094, 2809.182861328125, -1204.375, -5218.443359375, 0.0, 0.03200000151991844, 1.0240000486373901, 0.0, 0.0, 0.0, 0.0, 0.0, 1.6024560027780013E9, 2020-10-11 17:40:02.778
27.0, -142.96890258789062, 2869.8291015625, -1156.6612548828125, -5186.0576171875, 0.0, 0.03200000151991844, 1.0240000486373901, 0.0, 0.0, 0.0, 0.0, 0.0, 1.6024560027780013E9, 2020-10-11 17:40:02.778
28.0, 30.74945831298828, 3067.329345703125, -986.39111328125, -5198.53759765625, 0.0, 0.03200000151991844, 1.0240000486373901, 0.0, 0.0, 0.0, 0.0, 0.0, 1.60245600279156E9, 2020-10-11 17:40:02.791
28.0, -134.37460327148438, 2887.8291015625, -1144.7010498046875, -5343.68505859375, 0.0, 0.03200000151991844, 1.0240000486373901, 0.0, 0.0, 0.0, 0.0, 0.0, 1.60245600279156E9, 2020-10-11 17:40:02.791
29.0, -175.60325622558594, 2836.88427734375, -1170.315673828125, -5488.7744140625, 0.0, 0.03200000151991844, 1.0240000486373901, 0.0, 0.0, 0.0, 0.0, 0.0, 1.6024560028072555E9, 2020-10-11 17:40:02.807
29.0, -8.429734230041504, 3018.228271484375, -1022.425048828125, -5593.8134765625, 0.0, 0.03200000151991844, 1.0240000486373901, 0.0, 0.0, 0.0, 0.0, 0.0, 1.6024560028072555E9, 2020-10-11 17:40:02.807
30.0, -46.270042419433594, 2989.4384765625, -1053.455078125, -5688.9169921875, 0.0, 0.03200000151991844, 1.0240000486373901, 0.0, 0.0, 0.0, 0.0, 0.0, 1.6024560028080013E9, 2020-10-11 17:40:02.808
30.0, -219.82009887695312, 2792.936767578125, -1214.4315185546875, -5794.3505859375, 0.0, 0.03200000151991844, 1.0240000486373901, 0.0, 0.0, 0.0, 0.0, 0.0, 1.6024560028080013E9, 2020-10-11 17:40:02.808
31.0, -84.99296569824219, 2938.572265625, -1093.7823486328125, -5870.21435546875, 0.0, 0.01600000075995922, 1.0240000486373901, 0.0, 0.0, 0.0, 0.0, 0.0, 1.602456002821535E9, 2020-10-11 17:40:02.821
31.0, 22.697452545166016, 3065.586669921875, -981.8322143554688, -6049.931640625, 0.0, 0.01600000075995922, 1.0240000486373901, 0.0, 0.0, 0.0, 0.0, 0.0, 1.602456002821535E9, 2020-10-11 17:40:02.821
32.0, -200.57830810546875, 3307.111328125, -1187.2723388671875, -6194.86181640625, 0.0, 0.01600000075995922, 1.0240000486373901, 0.0, 0.0, 0.0, 0.0, 0.0, 1.6024560028372612E9, 2020-10-11 17:40:02.837
32.0, -128.7049102783203, 3376.9052734375, -1119.92431640625, -6152.46826171875, 0.0, 0.01600000075995922, 1.0240000486373901, 0.0, 0.0, 0.0, 0.0, 0.0, 1.6024560028372612E9, 2020-10-11 17:40:02.837
33.0, 49.62847137451172, 3573.822265625, -958.8243408203125, -6157.93603515625, 0.0, 0.01600000075995922, 1.0240000486373901, 0.0, 0.0, 0.0, 0.0, 0.0, 1.6024560028379924E9, 2020-10-11 17:40:02.837
33.0, -129.5164794921875, 3382.93017578125, -1136.80615234375, -6319.404296875, 0.0, 0.01600000075995922, 1.0240000486373901, 0.0, 0.0, 0.0, 0.0, 0.0, 1.6024560028379924E9, 2020-10-11 17:40:02.837
34.0, -179.17486572265625, 3320.51513671875, -1183.237060546875, -6473.01318359375, 0.0, 0.01600000075995922, 1.0240000486373901, 0.0, 0.0, 0.0, 0.0, 0.0, 1.6024560028515315E9, 2020-10-11 17:40:02.851
34.0, -16.683692932128906, 3498.399658203125, -1033.4615478515625, -6580.15771484375, 0.0, 0.01600000075995922, 1.0240000486373901, 0.0, 0.0, 0.0, 0.0, 0.0, 1.6024560028515315E9, 2020-10-11 17:40:02.851
35.0, -52.78494644165039, 3472.878662109375, -1050.3172607421875, -6670.58642578125, 0.0, 0.01600000075995922, 1.0240000486373901, 0.0, 0.0, 0.0, 0.0, 0.0, 1.6024560028672624E9, 2020-10-11 17:40:02.867
35.0, -218.75048828125, 3286.0966796875, -1214.775634765625, -6775.24951171875, 0.0, 0.01600000075995922, 1.0240000486373901, 0.0, 0.0, 0.0, 0.0, 0.0, 1.6024560028672624E9, 2020-10-11 17:40:02.867
36.0, -86.48892974853516, 3428.216796875, -1078.6993408203125, -6850.544921875, 0.0, 0.01600000075995922, 1.0240000486373901, 0.0, 0.0, 0.0, 0.0, 0.0, 1.6024560028679976E9, 2020-10-11 17:40:02.867
36.0, 16.339622497558594, 3552.497314453125, -984.816650390625, -7029.6826171875, 0.0, 0.01600000075995922, 1.0240000486373901, 0.0, 0.0, 0.0, 0.0, 0.0, 1.6024560028679976E9, 2020-10-11 17:40:02.867
37.0, -197.95664978027344, 3795.573974609375, -1190.282958984375, -7177.20458984375, 0.0, 0.01600000075995922, 1.0240000486373901, 0.0, 0.0, 0.0, 0.0, 0.0, 1.602456002881538E9, 2020-10-11 17:40:02.881
37.0, -128.21873474121094, 3861.560791015625, -1131.18505859375, -7136.396484375, 0.0, 0.01600000075995922, 1.0240000486373901, 0.0, 0.0, 0.0, 0.0, 0.0, 1.602456002881538E9, 2020-10-11 17:40:02.881
38.0, 11.21969985961914, 4033.5849609375, -995.3967895507812, -7168.3876953125, 0.0, 0.01600000075995922, 1.0240000486373901, 0.0, 0.0, 0.0, 0.0, 0.0, 1.602456002897257E9, 2020-10-11 17:40:02.897
38.0, -146.77610778808594, 3856.43701171875, -1153.6357421875, -7314.1669921875, 0.0, 0.01600000075995922, 1.0240000486373901, 0.0, 0.0, 0.0, 0.0, 0.0, 1.602456002897257E9, 2020-10-11 17:40:02.897
39.0, -186.43775939941406, 3806.890869140625, -1173.4346923828125, -7455.19873046875, 0.0, 0.01600000075995922, 1.0240000486373901, 0.0, 0.0, 0.0, 0.0, 0.0, 1.602456002897998E9, 2020-10-11 17:40:02.897
39.0, -19.26048469543457, 3997.629638671875, -1020.9664916992188, -7556.25830078125, 0.0, 0.01600000075995922, 1.0240000486373901, 0.0, 0.0, 0.0, 0.0, 0.0, 1.602456002897998E9, 2020-10-11 17:40:02.897
40.0, -55.95264434814453, 3964.9990234375, -1058.0626220703125, -7650.8798828125, 0.0, 0.01600000075995922, 1.0080000162124634, 0.0, 0.0, 0.0, 0.0, 0.0, 1.60245600291161E9, 2020-10-11 17:40:02.911
40.0, -217.25827026367188, 3768.482177734375, -1217.00830078125, -7754.64892578125, 0.0, 0.01600000075995922, 1.0080000162124634, 0.0, 0.0, 0.0, 0.0, 0.0, 1.60245600291161E9, 2020-10-11 17:40:02.911
41.0, -88.14944458007812, 3916.48486328125, -1088.0865478515625, -7835.1953125, 0.0, 0.03200000151991844, 1.0080000162124634, 0.0, 0.0, 0.0, 0.0, 0.0, 1.602456002927392E9, 2020-10-11 17:40:02.927
41.0, 15.37472915649414, 4031.931884765625, -1001.3021240234375, -8016.5576171875, 0.0, 0.03200000151991844, 1.0080000162124634, 0.0, 0.0, 0.0, 0.0, 0.0, 1.602456002927392E9, 2020-10-11 17:40:02.927
42.0, -220.84483337402344, 4270.1953125, -1213.41796875, -8176.10400390625, -0.01600000075995922, 0.03200000151991844, 1.0080000162124634, 0.0, 0.0, 0.0, 0.0, 0.0, 1.6024560029281251E9, 2020-10-11 17:40:02.928
42.0, -158.74005126953125, 4334.7646484375, -1160.3114013671875, -8142.4130859375, -0.01600000075995922, 0.03200000151991844, 1.0080000162124634, 0.0, 0.0, 0.0, 0.0, 0.0, 1.6024560029281251E9, 2020-10-11 17:40:02.928
43.0, 13.205586433410645, 4523.26708984375, -1003.36279296875, -8145.4423828125, -0.01600000075995922, 0.03200000151991844, 1.0080000162124634, 0.0, 0.0, 0.0, 0.0, 0.0, 1.6024560029416254E9, 2020-10-11 17:40:02.941
43.0, -148.5338592529297, 4344.974609375, -1149.4544677734375, -8295.40625, -0.01600000075995922, 0.03200000151991844, 1.0080000162124634, 0.0, 0.0, 0.0, 0.0, 0.0, 1.6024560029416254E9, 2020-10-11 17:40:02.941
44.0, -194.97219848632812, 4292.2607421875, -1177.2120361328125, -8442.6796875, -0.01600000075995922, 0.03200000151991844, 1.0080000162124634, 0.0, 0.0, 0.0, 0.0, 0.0, 1.6024560029573047E9, 2020-10-11 17:40:02.957
44.0, -41.52784729003906, 4466.46533203125, -1036.58056640625, -8554.7724609375, -0.01600000075995922, 0.03200000151991844, 1.0080000162124634, 0.0, 0.0, 0.0, 0.0, 0.0, 1.6024560029573047E9, 2020-10-11 17:40:02.957
45.0, -60.02913284301758, 4444.68408203125, -1054.3414306640625, -8639.0791015625, -0.01600000075995922, 0.03200000151991844, 1.0080000162124634, 0.0, 0.0, 0.0, 0.0, 0.0, 1.6024560029580216E9, 2020-10-11 17:40:02.958
45.0, -240.61767578125, 4244.50244140625, -1232.9739990234375, -8755.103515625, -0.01600000075995922, 0.03200000151991844, 1.0080000162124634, 0.0, 0.0, 0.0, 0.0, 0.0, 1.6024560029580216E9, 2020-10-11 17:40:02.958
46.0, -93.32172393798828, 4397.759765625, -1094.98291015625, -8824.7109375, -0.01600000075995922, 0.03200000151991844, 1.0080000162124634, 0.0, 0.0, 0.0, 0.0, 0.0, 1.6024560029715858E9, 2020-10-11 17:40:02.971
46.0, 15.217653274536133, 4526.7412109375, -1001.2759399414062, -8987.5048828125, -0.01600000075995922, 0.03200000151991844, 1.0080000162124634, 0.0, 0.0, 0.0, 0.0, 0.0, 1.6024560029715858E9, 2020-10-11 17:40:02.971
47.0, -213.9970703125, 4757.32666015625, -1210.3699951171875, -9160.8515625, -0.01600000075995922, 0.03200000151991844, 1.0080000162124634, 0.0, 0.0, 0.0, 0.0, 0.0, 1.60245600298727E9, 2020-10-11 17:40:02.987
47.0, -133.88467407226562, 4842.3642578125, -1139.973876953125, -9110.177734375, -0.01600000075995922, 0.03200000151991844, 1.0080000162124634, 0.0, 0.0, 0.0, 0.0, 0.0, 1.60245600298727E9, 2020-10-11 17:40:02.987
48.0, 38.74910354614258, 5037.60986328125, -979.98095703125, -9117.029296875, -0.01600000075995922, 0.03200000151991844, 1.0080000162124634, 0.0, 0.0, 0.0, 0.0, 0.0, 1.6024560029879985E9, 2020-10-11 17:40:02.987
48.0, -150.69552612304688, 4837.8505859375, -1156.0516357421875, -9277.611328125, -0.01600000075995922, 0.03200000151991844, 1.0080000162124634, 0.0, 0.0, 0.0, 0.0, 0.0, 1.6024560029879985E9, 2020-10-11 17:40:02.987
49.0, -181.3178253173828, 4791.52783203125, -1171.6732177734375, -9420.404296875, -0.01600000075995922, 0.03200000151991844, 1.0080000162124634, 0.0, 0.0, 0.0, 0.0, 0.0, 1.602456003001616E9, 2020-10-11 17:40:03.001
49.0, -11.788165092468262, 4982.27392578125, -1015.839111328125, -9518.0078125, -0.01600000075995922, 0.03200000151991844, 1.0080000162124634, 0.0, 0.0, 0.0, 0.0, 0.0, 1.602456003001616E9, 2020-10-11 17:40:03.001
50.0, -35.20741653442383, 4964.43505859375, -1044.2174072265625, -9599.4345703125, -0.01600000075995922, 0.03200000151991844, 1.0080000162124634, 0.0, 0.0, 0.0, 0.0, 0.0, 1.6024560030172899E9, 2020-10-11 17:40:03.017
50.0, -209.90936279296875, 4757.8466796875, -1212.569091796875, -9722.0419921875, -0.01600000075995922, 0.03200000151991844, 1.0080000162124634, 0.0, 0.0, 0.0, 0.0, 0.0, 1.6024560030172899E9, 2020-10-11 17:40:03.017
51.0, -72.666259765625, 4911.15625, -1080.9171142578125, -9797.3486328125, -0.01600000075995922, 0.03200000151991844, 1.0080000162124634, 0.0, 0.0, 0.0, 0.0, 0.0, 1.6024560030179632E9, 2020-10-11 17:40:03.017
51.0, 44.15325927734375, 5042.8193359375, -975.2537231445312, -9950.4150390625, -0.01600000075995922, 0.03200000151991844, 1.0080000162124634, 0.0, 0.0, 0.0, 0.0, 0.0, 1.6024560030179632E9, 2020-10-11 17:40:03.017
52.0, -180.83912658691406, 5277.013671875, -1188.57763671875, -10118.8662109375, -0.01600000075995922, 0.03200000151991844, 1.0080000162124634, 0.0, 0.0, 0.0, 0.0, 0.0, 1.6024560030479956E9, 2020-10-11 17:40:03.047
52.0, -128.90313720703125, 5335.31494140625, -1130.72509765625, -10088.0771484375, -0.01600000075995922, 0.03200000151991844, 1.0080000162124634, 0.0, 0.0, 0.0, 0.0, 0.0, 1.6024560030479956E9, 2020-10-11 17:40:03.047
53.0, 34.956844329833984, 5526.72314453125, -974.4907836914062, -10093.3955078125, -0.01600000075995922, 0.03200000151991844, 1.0080000162124634, 0.0, 0.0, 0.0, 0.0, 0.0, 1.6024560030487213E9, 2020-10-11 17:40:03.048
53.0, -135.58633422851562, 5338.142578125, -1142.9471435546875, -10248.935546875, -0.01600000075995922, 0.03200000151991844, 1.0080000162124634, 0.0, 0.0, 0.0, 0.0, 0.0, 1.6024560030487213E9, 2020-10-11 17:40:03.048
54.0, -192.75070190429688, 5274.552734375, -1201.0501708984375, -10419.587890625, -0.01600000075995922, 0.03200000151991844, 1.0080000162124634, 0.0, 0.0, 0.0, 0.0, 0.0, 1.6024560030494547E9, 2020-10-11 17:40:03.049
54.0, -25.532297134399414, 5459.62939453125, -1040.428955078125, -10512.056640625, -0.01600000075995922, 0.03200000151991844, 1.0080000162124634, 0.0, 0.0, 0.0, 0.0, 0.0, 1.6024560030494547E9, 2020-10-11 17:40:03.049
55.0, -69.93987274169922, 5418.322265625, -1069.9217529296875, -10592.3505859375, -0.01600000075995922, 0.03200000151991844, 1.0080000162124634, 0.0, 0.0, 0.0, 0.0, 0.0, 1.6024560030615723E9, 2020-10-11 17:40:03.061
55.0, -230.16839599609375, 5227.6357421875, -1229.9222412109375, -10718.162109375, -0.01600000075995922, 0.03200000151991844, 1.0080000162124634, 0.0, 0.0, 0.0, 0.0, 0.0, 1.6024560030615723E9, 2020-10-11 17:40:03.061
56.0, -74.91019439697266, 5391.81005859375, -1084.103515625, -10783.10546875, -0.01600000075995922, 0.03200000151991844, 1.0080000162124634, 0.0, 0.0, 0.0, 0.0, 0.0, 1.6024560030772376E9, 2020-10-11 17:40:03.077
56.0, 25.446279525756836, 5512.908203125, -993.4183959960938, -10931.3857421875, -0.01600000075995922, 0.03200000151991844, 1.0080000162124634, 0.0, 0.0, 0.0, 0.0, 0.0, 1.6024560030772376E9, 2020-10-11 17:40:03.077
57.0, -204.10130310058594, 5752.07666015625, -1201.2969970703125, -11108.8564453125, -0.01600000075995922, 0.03200000151991844, 1.0080000162124634, 0.0, 0.0, 0.0, 0.0, 0.0, 1.6024560030779557E9, 2020-10-11 17:40:03.077
57.0, -135.13006591796875, 5821.66455078125, -1150.434326171875, -11075.869140625, -0.01600000075995922, 0.03200000151991844, 1.0080000162124634, 0.0, 0.0, 0.0, 0.0, 0.0, 1.6024560030779557E9, 2020-10-11 17:40:03.077
58.0, 28.284862518310547, 6013.21484375, -988.5939331054688, -11070.0966796875, -0.01600000075995922, 0.03200000151991844, 1.0080000162124634, 0.0, 0.0, 0.0, 0.0, 0.0, 1.6024560030915687E9, 2020-10-11 17:40:03.091
58.0, -161.07000732421875, 5803.85888671875, -1165.7418212890625, -11233.1650390625, -0.01600000075995922, 0.03200000151991844, 1.0080000162124634, 0.0, 0.0, 0.0, 0.0, 0.0, 1.6024560030915687E9, 2020-10-11 17:40:03.091
59.0, -202.4744415283203, 5755.90234375, -1210.72900390625, -11405.05078125, -0.01600000075995922, 0.03200000151991844, 1.0080000162124634, 0.0, 0.0, 0.0, 0.0, 0.0, 1.6024560031072416E9, 2020-10-11 17:40:03.107
59.0, -26.257837295532227, 5947.35546875, -1042.601806640625, -11489.0234375, -0.01600000075995922, 0.03200000151991844, 1.0080000162124634, 0.0, 0.0, 0.0, 0.0, 0.0, 1.6024560031072416E9, 2020-10-11 17:40:03.107
60.0, -72.23242950439453, 5905.44970703125, -1089.376708984375, -11572.8212890625, -0.01600000075995922, 0.03200000151991844, 1.0080000162124634, 0.0, 0.0, 0.0, 0.0, 0.0, 1.6024560031079507E9, 2020-10-11 17:40:03.107
60.0, -193.21070861816406, 5747.873046875, -1204.5506591796875, -11678.17578125, -0.01600000075995922, 0.03200000151991844, 1.0080000162124634, 0.0, 0.0, 0.0, 0.0, 0.0, 1.6024560031079507E9, 2020-10-11 17:40:03.107
61.0, -70.29515838623047, 5895.85693359375, -1079.0546875, -11754.9931640625, -0.01600000075995922, 0.03200000151991844, 1.0080000162124634, 0.0, 0.0, 0.0, 0.0, 0.0, 1.60245600312159E9, 2020-10-11 17:40:03.121
61.0, 34.582855224609375, 6008.37939453125, -996.4926147460938, -11906.7509765625, -0.01600000075995922, 0.03200000151991844, 1.0080000162124634, 0.0, 0.0, 0.0, 0.0, 0.0, 1.60245600312159E9, 2020-10-11 17:40:03.121
62.0, -193.9100799560547, 6247.77587890625, -1221.11474609375, -12082.71875, 0.0, 0.03200000151991844, 1.0080000162124634, 0.0, 0.0, 0.0, 0.0, 0.0, 1.602456003137211E9, 2020-10-11 17:40:03.137
62.0, -130.1597442626953, 6319.70556640625, -1153.860107421875, -12053.8232421875, 0.0, 0.03200000151991844, 1.0080000162124634, 0.0, 0.0, 0.0, 0.0, 0.0, 1.602456003137211E9, 2020-10-11 17:40:03.137
63.0, 25.876367568969727, 6493.73779296875, -1001.765869140625, -12058.568359375, 0.0, 0.03200000151991844, 1.0080000162124634, 0.0, 0.0, 0.0, 0.0, 0.0, 1.6024560031379764E9, 2020-10-11 17:40:03.137
63.0, -157.71905517578125, 6294.6181640625, -1170.6373291015625, -12214.2216796875, 0.0, 0.03200000151991844, 1.0080000162124634, 0.0, 0.0, 0.0, 0.0, 0.0, 1.6024560031379764E9, 2020-10-11 17:40:03.137
64.0, -181.29913330078125, 6258.154296875, -1195.103759765625, -12365.33984375, 0.0, 0.03200000151991844, 1.0080000162124634, 0.0, 0.0, 0.0, 0.0, 0.0, 1.602456003151562E9, 2020-10-11 17:40:03.151
64.0, -24.10739517211914, 6433.4169921875, -1040.4476318359375, -12466.67578125, 0.0, 0.03200000151991844, 1.0080000162124634, 0.0, 0.0, 0.0, 0.0, 0.0, 1.602456003151562E9, 2020-10-11 17:40:03.151
65.0, -53.74236297607422, 6408.90966796875, -1074.13671875, -12544.8974609375, 0.0, 0.03200000151991844, 1.0080000162124634, 0.0, 0.0, 0.0, 0.0, 0.0, 1.602456003167313E9, 2020-10-11 17:40:03.167
65.0, -226.8585968017578, 6209.62890625, -1240.7828369140625, -12672.54296875, 0.0, 0.03200000151991844, 1.0080000162124634, 0.0, 0.0, 0.0, 0.0, 0.0, 1.602456003167313E9, 2020-10-11 17:40:03.167
66.0, -98.05269622802734, 6351.19921875, -1123.26025390625, -12755.5380859375, 0.0, 0.03200000151991844, 1.0080000162124634, 0.0, 0.0, 0.0, 0.0, 0.0, 1.6024560031680098E9, 2020-10-11 17:40:03.168
66.0, -5.845463752746582, 6463.34765625, -1020.6373901367188, -12915.755859375, 0.0, 0.03200000151991844, 1.0080000162124634, 0.0, 0.0, 0.0, 0.0, 0.0, 1.6024560031680098E9, 2020-10-11 17:40:03.168
67.0, -232.50584411621094, 6702.38525390625, -1226.58251953125, -13076.203125, 0.0, 0.03200000151991844, 1.0080000162124634, 0.0, 0.0, 0.0, 0.0, 0.0, 1.6024560031815586E9, 2020-10-11 17:40:03.181
67.0, -165.4681396484375, 6764.97607421875, -1172.76904296875, -13052.1689453125, 0.0, 0.03200000151991844, 1.0080000162124634, 0.0, 0.0, 0.0, 0.0, 0.0, 1.6024560031815586E9, 2020-10-11 17:40:03.181
68.0, 15.520585060119629, 6963.95751953125, -1009.0399780273438, -13056.8955078125, 0.0, 0.03200000151991844, 1.0080000162124634, 0.0, 0.0, 0.0, 0.0, 0.0, 1.602456003197314E9, 2020-10-11 17:40:03.197
68.0, -158.41842651367188, 6777.306640625, -1169.3358154296875, -13198.01953125, 0.0, 0.03200000151991844, 1.0080000162124634, 0.0, 0.0, 0.0, 0.0, 0.0, 1.602456003197314E9, 2020-10-11 17:40:03.197
69.0, -202.47817993164062, 6728.912109375, -1211.3797607421875, -13363.158203125, 0.0, 0.03200000151991844, 1.0080000162124634, 0.0, 0.0, 0.0, 0.0, 0.0, 1.6024560031980798E9, 2020-10-11 17:40:03.198
69.0, -28.284862518310547, 6919.90869140625, -1045.1636962890625, -13474.591796875, 0.0, 0.03200000151991844, 1.0080000162124634, 0.0, 0.0, 0.0, 0.0, 0.0, 1.6024560031980798E9, 2020-10-11 17:40:03.198
70.0, -59.08667755126953, 6890.8349609375, -1078.695556640625, -13569.654296875, 0.0, 0.03200000151991844, 1.0080000162124634, 0.0, 0.0, 0.0, 0.0, 0.0, 1.6024560032115605E9, 2020-10-11 17:40:03.211
70.0, -237.50608825683594, 6685.82861328125, -1249.1639404296875, -13630.9755859375, 0.0, 0.03200000151991844, 1.0080000162124634, 0.0, 0.0, 0.0, 0.0, 0.0, 1.6024560032115605E9, 2020-10-11 17:40:03.211
71.0, -85.49411010742188, 6861.98876953125, -1091.2093505859375, -13780.658203125, 0.0, 0.03200000151991844, 1.0080000162124634, 0.0, 0.0, 0.0, 0.0, 0.0, 1.602456003227268E9, 2020-10-11 17:40:03.227
71.0, 9.906994819641113, 6962.46875, -1011.5120239257812, -13839.36328125, 0.0, 0.03200000151991844, 1.0080000162124634, 0.0, 0.0, 0.0, 0.0, 0.0, 1.602456003227268E9, 2020-10-11 17:40:03.227
72.0, -205.67205810546875, 6723.89697265625, -1220.0750732421875, -14056.9453125, 0.0, 0.03200000151991844, 1.0080000162124634, 0.0, 0.0, 0.0, 0.0, 0.0, 1.602456003228022E9, 2020-10-11 17:40:03.228
72.0, -142.31814575195312, 6787.19482421875, -1159.7242431640625, -14048.6181640625, 0.0, 0.03200000151991844, 1.0080000162124634, 0.0, 0.0, 0.0, 0.0, 0.0, 1.602456003228022E9, 2020-10-11 17:40:03.228
73.0, 28.131526947021484, 6980.169921875, -999.5556030273438, -13996.3291015625, 0.0, 0.03200000151991844, 1.0080000162124634, 0.0, 0.0, 0.0, 0.0, 0.0, 1.6024560032415457E9, 2020-10-11 17:40:03.241
73.0, -134.31851196289062, 6802.46484375, -1155.715087890625, -14212.0068359375, 0.0, 0.03200000151991844, 1.0080000162124634, 0.0, 0.0, 0.0, 0.0, 0.0, 1.6024560032415457E9, 2020-10-11 17:40:03.241
74.0, -189.29502868652344, 6734.2900390625, -1211.3648681640625, -14288.357421875, 0.0, 0.03200000151991844, 1.0080000162124634, 0.0, 0.0, 0.0, 0.0, 0.0, 1.60245600325726E9, 2020-10-11 17:40:03.257
74.0, -1.398722529411316, 6947.37451171875, -1030.6004638671875, -14435.357421875, 0.0, 0.03200000151991844, 1.0080000162124634, 0.0, 0.0, 0.0, 0.0, 0.0, 1.60245600325726E9, 2020-10-11 17:40:03.257
75.0, -35.32709503173828, 6911.39697265625, -1058.0775146484375, -14521.3056640625, 0.0, 0.03200000151991844, 1.0080000162124634, 0.0, 0.0, 0.0, 0.0, 0.0, 1.6024560032579865E9, 2020-10-11 17:40:03.257
75.0, -216.86932373046875, 6712.9990234375, -1224.66015625, -14586.666015625, 0.0, 0.03200000151991844, 1.0080000162124634, 0.0, 0.0, 0.0, 0.0, 0.0, 1.6024560032579865E9, 2020-10-11 17:40:03.257
76.0, -73.72838592529297, 6875.76318359375, -1080.7974853515625, -14745.92578125, 0.0, 0.03200000151991844, 1.0080000162124634, 0.0, 0.0, 0.0, 0.0, 0.0, 1.6024560032715428E9, 2020-10-11 17:40:03.271
76.0, 3.964293956756592, 6966.205078125, -1006.8932495117188, -14821.779296875, 0.0, 0.03200000151991844, 1.0080000162124634, 0.0, 0.0, 0.0, 0.0, 0.0, 1.6024560032715428E9, 2020-10-11 17:40:03.271
77.0, -206.59580993652344, 6722.44189453125, -1220.4677734375, -15040.0341796875, 0.0, 0.03200000151991844, 1.0080000162124634, 0.0, 0.0, 0.0, 0.0, 0.0, 1.6024560032872863E9, 2020-10-11 17:40:03.287
77.0, -145.12681579589844, 6793.111328125, -1158.7257080078125, -15023.4306640625, 0.0, 0.03200000151991844, 1.0080000162124634, 0.0, 0.0, 0.0, 0.0, 0.0, 1.6024560032872863E9, 2020-10-11 17:40:03.287
78.0, 21.968172073364258, 6979.552734375, -1000.7710571289062, -14977.3681640625, 0.0, 0.03200000151991844, 1.0080000162124634, 0.0, 0.0, 0.0, 0.0, 0.0, 1.602456003288013E9, 2020-10-11 17:40:03.288
78.0, -138.08457946777344, 6805.83837890625, -1147.0235595703125, -15185.529296875, 0.0, 0.03200000151991844, 1.0080000162124634, 0.0, 0.0, 0.0, 0.0, 0.0, 1.602456003288013E9, 2020-10-11 17:40:03.288
79.0, -196.78231811523438, 6734.3349609375, -1200.8519287109375, -15269.9501953125, 0.0, 0.03200000151991844, 1.0080000162124634, 0.0, 0.0, 0.0, 0.0, 0.0, 1.6024560033016052E9, 2020-10-11 17:40:03.301
79.0, -14.11438274383545, 6935.58251953125, -1032.986572265625, -15419.388671875, 0.0, 0.03200000151991844, 1.0080000162124634, 0.0, 0.0, 0.0, 0.0, 0.0, 1.6024560033016052E9, 2020-10-11 17:40:03.301
80.0, -51.1992301940918, 6904.67626953125, -1067.3150634765625, -15508.318359375, 0.0, 0.03200000151991844, 1.0080000162124634, 0.0, 0.0, 0.0, 0.0, 0.0, 1.6024560033172588E9, 2020-10-11 17:40:03.317
80.0, -219.15814208984375, 6710.63134765625, -1225.0079345703125, -15572.5380859375, 0.0, 0.03200000151991844, 1.0080000162124634, 0.0, 0.0, 0.0, 0.0, 0.0, 1.6024560033172588E9, 2020-10-11 17:40:03.317
81.0, -68.67951965332031, 6880.35205078125, -1072.681884765625, -15727.205078125, 0.0, 0.03200000151991844, 1.0080000162124634, 0.0, 0.0, 0.0, 0.0, 0.0, 1.6024560033179967E9, 2020-10-11 17:40:03.317
81.0, 12.81663703918457, 6974.806640625, -1004.1406860351562, -15802.3173828125, 0.0, 0.03200000151991844, 1.0080000162124634, 0.0, 0.0, 0.0, 0.0, 0.0, 1.6024560033179967E9, 2020-10-11 17:40:03.317
82.0, -207.9309539794922, 6730.52783203125, -1203.260498046875, -16014.2998046875, 0.0, 0.03200000151991844, 1.0080000162124634, 0.0, 0.0, 0.0, 0.0, 0.0, 1.602456003331565E9, 2020-10-11 17:40:03.331
82.0, -155.73316955566406, 6782.58349609375, -1154.2191162109375, -16014.5400390625, 0.0, 0.03200000151991844, 1.0080000162124634, 0.0, 0.0, 0.0, 0.0, 0.0, 1.602456003331565E9, 2020-10-11 17:40:03.331
83.0, 7.902408599853516, 6971.1904296875, -995.9428100585938, -15963.2265625, 0.0, 0.03200000151991844, 1.0080000162124634, 0.0, 0.0, 0.0, 0.0, 0.0, 1.6024560033472946E9, 2020-10-11 17:40:03.347
83.0, -152.9245147705078, 6792.67724609375, -1156.9716796875, -16175.4228515625, 0.0, 0.03200000151991844, 1.0080000162124634, 0.0, 0.0, 0.0, 0.0, 0.0, 1.6024560033472946E9, 2020-10-11 17:40:03.347
84.0, -206.7042694091797, 6731.06640625, -1193.42822265625, -16253.1376953125, 0.0, 0.03200000151991844, 1.0080000162124634, 0.0, 0.0, 0.0, 0.0, 0.0, 1.6024560033480227E9, 2020-10-11 17:40:03.348
84.0, -27.065656661987305, 6927.8037109375, -1038.4168701171875, -16409.46875, 0.0, 0.03200000151991844, 1.0080000162124634, 0.0, 0.0, 0.0, 0.0, 0.0, 1.6024560033480227E9, 2020-10-11 17:40:03.348
85.0, -64.70027160644531, 6893.94287109375, -1073.4747314453125, -16493.458984375, 0.0, 0.03200000151991844, 1.0080000162124634, 0.0, 0.0, 0.0, 0.0, 0.0, 1.6024560033615787E9, 2020-10-11 17:40:03.361
85.0, -227.9095001220703, 6706.60009765625, -1213.2908935546875, -16555.056640625, 0.0, 0.03200000151991844, 1.0080000162124634, 0.0, 0.0, 0.0, 0.0, 0.0, 1.6024560033615787E9, 2020-10-11 17:40:03.361
86.0, -78.62765502929688, 6871.798828125, -1066.7130126953125, -16708.572265625, 0.0, 0.03200000151991844, 1.0080000162124634, 0.0, 0.0, 0.0, 0.0, 0.0, 1.6024560033772743E9, 2020-10-11 17:40:03.377
86.0, 4.147549152374268, 6971.1455078125, -996.8815307617188, -16782.677734375, 0.0, 0.03200000151991844, 1.0080000162124634, 0.0, 0.0, 0.0, 0.0, 0.0, 1.6024560033772743E9, 2020-10-11 17:40:03.377
87.0, -215.75857543945312, 7215.13818359375, -1201.2109375, -16996.78515625, 0.0, 0.03200000151991844, 1.0080000162124634, 0.0, 0.0, 0.0, 0.0, 0.0, 1.6024560033780203E9, 2020-10-11 17:40:03.378
87.0, -139.87225341796875, 7294.9140625, -1141.0023193359375, -16977.33984375, 0.0, 0.03200000151991844, 1.0080000162124634, 0.0, 0.0, 0.0, 0.0, 0.0, 1.6024560033780203E9, 2020-10-11 17:40:03.378
88.0, 22.278583526611328, 7477.1708984375, -978.8178100585938, -16933.056640625, 0.0, 0.03200000151991844, 1.0080000162124634, 0.0, 0.0, 0.0, 0.0, 0.0, 1.6024560033915665E9, 2020-10-11 17:40:03.391
88.0, -137.4712371826172, 7299.876953125, -1130.06689453125, -17139.87109375, 0.0, 0.03200000151991844, 1.0080000162124634, 0.0, 0.0, 0.0, 0.0, 0.0, 1.6024560033915665E9, 2020-10-11 17:40:03.391
89.0, -193.738037109375, 7234.140625, -1176.37060546875, -17228.474609375, 0.0, 0.03200000151991844, 1.0080000162124634, 0.0, 0.0, 0.0, 0.0, 0.0, 1.6024560034072883E9, 2020-10-11 17:40:03.407
89.0, -10.744732856750488, 7433.29443359375, -1008.3555908203125, -17375.548828125, 0.0, 0.03200000151991844, 1.0080000162124634, 0.0, 0.0, 0.0, 0.0, 0.0, 1.6024560034072883E9, 2020-10-11 17:40:03.407
90.0, -41.400691986083984, 7399.8896484375, -1044.3895263671875, -17455.091796875, 0.0, 0.03200000151991844, 1.0080000162124634, 0.0, 0.0, 0.0, 0.0, 0.0, 1.602456003408023E9, 2020-10-11 17:40:03.408
90.0, -210.37310791015625, 7209.6708984375, -1205.4857177734375, -17526.84375, 0.0, 0.03200000151991844, 1.0080000162124634, 0.0, 0.0, 0.0, 0.0, 0.0, 1.602456003408023E9, 2020-10-11 17:40:03.408
91.0, -74.96629333496094, 7364.99267578125, -1072.3377685546875, -17695.1796875, 0.0, 0.03200000151991844, 1.0080000162124634, 0.0, 0.0, 0.0, 0.0, 0.0, 1.6024560034215844E9, 2020-10-11 17:40:03.421
91.0, 3.1153366565704346, 7452.3115234375, -1002.7905883789062, -17767.09765625, 0.0, 0.03200000151991844, 1.0080000162124634, 0.0, 0.0, 0.0, 0.0, 0.0, 1.6024560034215844E9, 2020-10-11 17:40:03.421
92.0, -200.31277465820312, 7223.212890625, -1207.6324462890625, -17969.9375, 0.0, 0.03200000151991844, 1.0080000162124634, 0.0, 0.0, 0.0, 0.0, 0.0, 1.602456003437276E9, 2020-10-11 17:40:03.437
92.0, -131.6444854736328, 7299.7646484375, -1138.919189453125, -17957.279296875, 0.0, 0.03200000151991844, 1.0080000162124634, 0.0, 0.0, 0.0, 0.0, 0.0, 1.602456003437276E9, 2020-10-11 17:40:03.437
93.0, 32.10704040527344, 7484.39990234375, -975.0218505859375, -17907.693359375, 0.0, 0.03200000151991844, 1.0080000162124634, 0.0, 0.0, 0.0, 0.0, 0.0, 1.60245600343813E9, 2020-10-11 17:40:03.438
93.0, -125.03233337402344, 7311.6201171875, -1121.8316650390625, -18114.478515625, 0.0, 0.03200000151991844, 1.0080000162124634, 0.0, 0.0, 0.0, 0.0, 0.0, 1.60245600343813E9, 2020-10-11 17:40:03.438
94.0, -177.76866149902344, 7244.0439453125, -1176.9539794921875, -18199.048828125, 0.0, 0.03200000151991844, 1.0080000162124634, 0.0, 0.0, 0.0, 0.0, 0.0, 1.6024560034516382E9, 2020-10-11 17:40:03.451
94.0, -9.817237854003906, 7429.55419921875, -1018.210205078125, -18359.748046875, 0.0, 0.03200000151991844, 1.0080000162124634, 0.0, 0.0, 0.0, 0.0, 0.0, 1.6024560034516382E9, 2020-10-11 17:40:03.451
95.0, -52.78868865966797, 7384.08837890625, -1070.748291015625, -18450.83203125, 0.0, 0.03200000151991844, 1.0080000162124634, 0.0, 0.0, 0.0, 0.0, 0.0, 1.6024560034672647E9, 2020-10-11 17:40:03.467
95.0, -230.43019104003906, 7186.1689453125, -1234.754150390625, -18522.3671875, 0.0, 0.03200000151991844, 1.0080000162124634, 0.0, 0.0, 0.0, 0.0, 0.0, 1.6024560034672647E9, 2020-10-11 17:40:03.467
96.0, -78.30976867675781, 7352.27294921875, -1088.2623291015625, -18680.44921875, 0.0, 0.03200000151991844, 1.0080000162124634, 0.0, 0.0, 0.0, 0.0, 0.0, 1.6024560034680405E9, 2020-10-11 17:40:03.468
96.0, 19.9187068939209, 7463.580078125, -994.2561645507812, -18740.66796875, 0.0, 0.03200000151991844, 1.0080000162124634, 0.0, 0.0, 0.0, 0.0, 0.0, 1.6024560034680405E9, 2020-10-11 17:40:03.468
97.0, -206.82020568847656, 7702.845703125, -1206.5029296875, -18952.673828125, 0.0, 0.03200000151991844, 1.0080000162124634, 0.0, 0.0, 0.0, 0.0, 0.0, 1.6024560034815829E9, 2020-10-11 17:40:03.481
97.0, -145.25396728515625, 7767.66552734375, -1157.3306884765625, -18952.06640625, 0.0, 0.03200000151991844, 1.0080000162124634, 0.0, 0.0, 0.0, 0.0, 0.0, 1.6024560034815829E9, 2020-10-11 17:40:03.481
98.0, 10.875629425048828, 7946.02880859375, -996.2869262695312, -18905.333984375, 0.0, 0.03200000151991844, 1.0080000162124634, 0.0, 0.0, 0.0, 0.0, 0.0, 1.602456003497265E9, 2020-10-11 17:40:03.497
98.0, -144.07591247558594, 7776.970703125, -1150.3707275390625, -19108.453125, 0.0, 0.03200000151991844, 1.0080000162124634, 0.0, 0.0, 0.0, 0.0, 0.0, 1.602456003497265E9, 2020-10-11 17:40:03.497
99.0, -205.29432678222656, 7711.806640625, -1194.8681640625, -19198.462890625, 0.0, 0.03200000151991844, 1.0080000162124634, 0.0, 0.0, 0.0, 0.0, 0.0, 1.6024560034980018E9, 2020-10-11 17:40:03.498
99.0, -20.887340545654297, 7912.474609375, -1033.248291015625, -19345.474609375, 0.0, 0.03200000151991844, 1.0080000162124634, 0.0, 0.0, 0.0, 0.0, 0.0, 1.6024560034980018E9, 2020-10-11 17:40:03.498
100.0, -64.10936737060547, 7869.876953125, -1070.9166259765625, -19430.91796875, 0.0, 0.03200000151991844, 1.0080000162124634, 0.0, 0.0, 0.0, 0.0, 0.0, 1.6024560035122442E9, 2020-10-11 17:40:03.512
100.0, -233.38845825195312, 7679.66943359375, -1230.2587890625, -19502.310546875, 0.0, 0.03200000151991844, 1.0080000162124634, 0.0, 0.0, 0.0, 0.0, 0.0, 1.6024560035122442E9, 2020-10-11 17:40:03.512
0.0, -87.1340560913086, -4.338284015655518, -1090.2799072265625, -548.7573852539062, 0.0, 0.03200000151991844, 1.0080000162124634, 0.0, 0.0, 0.0, 0.0, 0.0, 1.6024560035129745E9, 2020-10-11 17:40:03.512
1.0, -10.956036567687988, 89.24897003173828, -1014.5245361328125, -611.3483276367188, 0.0, 0.03200000151991844, 1.0080000162124634, 0.0, 0.0, 0.0, 0.0, 0.0, 1.6024560035265653E9, 2020-10-11 17:40:03.526
1.0, -224.78482055664062, -154.08387756347656, -1222.6424560546875, -827.7670288085938, 0.0, 0.03200000151991844, 1.0080000162124634, 0.0, 0.0, 0.0, 0.0, 0.0, 1.6024560035265653E9, 2020-10-11 17:40:03.526
2.0, -160.3388671875, -80.6172866821289, -1154.4940185546875, -821.4708862304688, 0.0, 0.03200000151991844, 1.0080000162124634, 0.0, 0.0, 0.0, 0.0, 0.0, 1.602456003542339E9, 2020-10-11 17:40:03.542
2.0, -4.411211967468262, 95.79005432128906, -1009.37841796875, -774.4996337890625, 0.0, 0.03200000151991844, 1.0080000162124634, 0.0, 0.0, 0.0, 0.0, 0.0, 1.602456003542339E9, 2020-10-11 17:40:03.542
3.0, -153.83143615722656, -68.58602905273438, -1150.335205078125, -974.3243408203125, 0.0, 0.03200000151991844, 1.0080000162124634, 0.0, 0.0, 0.0, 0.0, 0.0, 1.6024560035429947E9, 2020-10-11 17:40:03.542
3.0, -202.4688262939453, -130.91519165039062, -1203.90185546875, -1065.40966796875, 0.0, 0.03200000151991844, 1.0080000162124634, 0.0, 0.0, 0.0, 0.0, 0.0, 1.6024560035429947E9, 2020-10-11 17:40:03.542
4.0, -9.325440406799316, 79.1736831665039, -1013.3015747070312, -1200.9884033203125, 0.0, 0.03200000151991844, 1.0080000162124634, 0.0, 0.0, 0.0, 0.0, 0.0, 1.602456003556615E9, 2020-10-11 17:40:03.556
4.0, -52.21461486816406, 40.20392608642578, -1052.58544921875, -1281.0054931640625, 0.0, 0.03200000151991844, 1.0080000162124634, 0.0, 0.0, 0.0, 0.0, 0.0, 1.602456003556615E9, 2020-10-11 17:40:03.556
5.0, -213.7595977783203, -140.3247833251953, -1202.3759765625, -1350.1431884765625, 0.0, 0.03200000151991844, 1.0080000162124634, 0.0, 0.0, 0.0, 0.0, 0.0, 1.6024560035722532E9, 2020-10-11 17:40:03.572
5.0, -59.02497100830078, 30.023916244506836, -1058.22900390625, -1505.9212646484375, 0.0, 0.03200000151991844, 1.0080000162124634, 0.0, 0.0, 0.0, 0.0, 0.0, 1.6024560035722532E9, 2020-10-11 17:40:03.572
6.0, 21.71946907043457, 121.29617309570312, -987.1970825195312, -1570.35595703125, 0.0, 0.03200000151991844, 1.0080000162124634, 0.0, 0.0, 0.0, 0.0, 0.0, 1.6024560035730228E9, 2020-10-11 17:40:03.573
6.0, -209.1819610595703, 355.00439453125, -1203.5689697265625, -1790.5145263671875, 0.0, 0.03200000151991844, 1.0080000162124634, 0.0, 0.0, 0.0, 0.0, 0.0, 1.6024560035730228E9, 2020-10-11 17:40:03.573
7.0, -136.7961883544922, 425.277099609375, -1135.297119140625, -1785.4488525390625, 0.0, 0.03200000151991844, 1.0080000162124634, 0.0, 0.0, 0.0, 0.0, 0.0, 1.6024560036029847E9, 2020-10-11 17:40:03.602
7.0, 23.327625274658203, 609.7476806640625, -982.8961791992188, -1736.0877685546875, 0.0, 0.03200000151991844, 1.0080000162124634, 0.0, 0.0, 0.0, 0.0, 0.0, 1.6024560036029847E9, 2020-10-11 17:40:03.602
8.0, -141.0372314453125, 437.9254455566406, -1139.3548583984375, -1943.971923828125, 0.0, 0.03200000151991844, 1.0080000162124634, 0.0, 0.0, 0.0, 0.0, 0.0, 1.6024560036037154E9, 2020-10-11 17:40:03.603
8.0, -184.248046875, 379.6690368652344, -1176.03955078125, -2023.8150634765625, 0.0, 0.03200000151991844, 1.0080000162124634, 0.0, 0.0, 0.0, 0.0, 0.0, 1.6024560036037154E9, 2020-10-11 17:40:03.603
9.0, -5.940831184387207, 579.8995361328125, -1006.5660400390625, -2183.93505859375, 0.0, 0.03200000151991844, 1.0080000162124634, 0.0, 0.0, 0.0, 0.0, 0.0, 1.6024560036044703E9, 2020-10-11 17:40:03.604
9.0, -48.81504440307617, 527.30908203125, -1053.5616455078125, -2258.5966796875, 0.0, 0.03200000151991844, 1.0080000162124634, 0.0, 0.0, 0.0, 0.0, 0.0, 1.6024560036044703E9, 2020-10-11 17:40:03.604
10.0, -214.47764587402344, 346.13336181640625, -1211.669677734375, -2333.923828125, 0.0, 0.03200000151991844, 1.0240000486373901, 0.0, 0.0, 0.0, 0.0, 0.0, 1.6024560036165648E9, 2020-10-11 17:40:03.616
10.0, -68.19146728515625, 504.0169677734375, -1074.1497802734375, -2497.39111328125, 0.0, 0.03200000151991844, 1.0240000486373901, 0.0, 0.0, 0.0, 0.0, 0.0, 1.6024560036165648E9, 2020-10-11 17:40:03.616
11.0, 25.100337982177734, 612.1748657226562, -986.4528198242188, -2546.8251953125, 0.0, 0.01600000075995922, 1.0240000486373901, 0.0, 0.0, 0.0, 0.0, 0.0, 1.6024560036322913E9, 2020-10-11 17:40:03.632
11.0, -189.1248779296875, 372.8885803222656, -1192.7569580078125, -2763.183837890625, 0.0, 0.01600000075995922, 1.0240000486373901, 0.0, 0.0, 0.0, 0.0, 0.0, 1.6024560036322913E9, 2020-10-11 17:40:03.632
12.0, -139.78062438964844, 425.21728515625, -1143.6707763671875, -2771.804443359375, -0.01600000075995922, 0.01600000075995922, 1.0240000486373901, 0.0, 0.0, 0.0, 0.0, 0.0, 1.6024560036330223E9, 2020-10-11 17:40:03.633
12.0, 17.560699462890625, 605.4318237304688, -989.470947265625, -2721.9794921875, -0.01600000075995922, 0.01600000075995922, 1.0240000486373901, 0.0, 0.0, 0.0, 0.0, 0.0, 1.6024560036330223E9, 2020-10-11 17:40:03.633
13.0, -140.1920166015625, 431.3619384765625, -1146.8309326171875, -2923.203125, -0.01600000075995922, 0.01600000075995922, 1.0240000486373901, 0.0, 0.0, 0.0, 0.0, 0.0, 1.6024560036629496E9, 2020-10-11 17:40:03.662
13.0, -192.629150390625, 367.8995666503906, -1203.57275390625, -3018.6640625, -0.01600000075995922, 0.01600000075995922, 1.0240000486373901, 0.0, 0.0, 0.0, 0.0, 0.0, 1.6024560036629496E9, 2020-10-11 17:40:03.662
14.0, -23.0994930267334, 552.1531982421875, -1033.06689453125, -3175.15625, -0.01600000075995922, 0.01600000075995922, 1.0240000486373901, 0.0, 0.0, 0.0, 0.0, 0.0, 1.6024560036636767E9, 2020-10-11 17:40:03.663
14.0, -55.01953887939453, 525.1660766601562, -1060.29345703125, -3237.67822265625, -0.01600000075995922, 0.01600000075995922, 1.0240000486373901, 0.0, 0.0, 0.0, 0.0, 0.0, 1.6024560036636767E9, 2020-10-11 17:40:03.663
15.0, -223.2776336669922, 336.61529541015625, -1216.310791015625, -3325.010498046875, -0.01600000075995922, 0.01600000075995922, 1.0240000486373901, 0.0, 0.0, 0.0, 0.0, 0.0, 1.6024560036644285E9, 2020-10-11 17:40:03.664
15.0, -84.10099792480469, 491.581787109375, -1085.1973876953125, -3488.825439453125, -0.01600000075995922, 0.01600000075995922, 1.0240000486373901, 0.0, 0.0, 0.0, 0.0, 0.0, 1.6024560036644285E9, 2020-10-11 17:40:03.664
16.0, 3.8614466190338135, 589.3278198242188, -1007.8263549804688, -3546.19921875, -0.01600000075995922, 0.01600000075995922, 1.0240000486373901, 0.0, 0.0, 0.0, 0.0, 0.0, 1.6024560036767375E9, 2020-10-11 17:40:03.676
16.0, -206.3321533203125, 350.98773193359375, -1208.8758544921875, -3758.560302734375, -0.01600000075995922, 0.01600000075995922, 1.0240000486373901, 0.0, 0.0, 0.0, 0.0, 0.0, 1.6024560036767375E9, 2020-10-11 17:40:03.676
17.0, -147.79898071289062, 417.5953674316406, -1143.06494140625, -3758.247802734375, -0.01600000075995922, 0.01600000075995922, 1.0240000486373901, 0.0, 0.0, 0.0, 0.0, 0.0, 1.602456003692283E9, 2020-10-11 17:40:03.692
17.0, 17.104433059692383, 601.632080078125, -984.4631958007812, -3700.857177734375, -0.01600000075995922, 0.01600000075995922, 1.0240000486373901, 0.0, 0.0, 0.0, 0.0, 0.0, 1.602456003692283E9, 2020-10-11 17:40:03.692
18.0, -139.43655395507812, 432.34552001953125, -1138.6219482421875, -3901.5908203125, -0.01600000075995922, 0.01600000075995922, 1.0240000486373901, 0.0, 0.0, 0.0, 0.0, 0.0, 1.602456003692994E9, 2020-10-11 17:40:03.692
18.0, -190.90879821777344, 370.7493591308594, -1188.4373779296875, -4001.270263671875, -0.01600000075995922, 0.01600000075995922, 1.0240000486373901, 0.0, 0.0, 0.0, 0.0, 0.0, 1.602456003692994E9, 2020-10-11 17:40:03.692
19.0, -16.607025146484375, 569.2258911132812, -1011.8729248046875, -4144.99462890625, -0.01600000075995922, 0.01600000075995922, 1.0240000486373901, 0.0, 0.0, 0.0, 0.0, 0.0, 1.6024560037065887E9, 2020-10-11 17:40:03.706
19.0, -64.10375213623047, 519.9451904296875, -1064.13427734375, -4225.50537109375, -0.01600000075995922, 0.01600000075995922, 1.0240000486373901, 0.0, 0.0, 0.0, 0.0, 0.0, 1.6024560037065887E9, 2020-10-11 17:40:03.706
20.0, -219.5601806640625, 333.4850158691406, -1213.808837890625, -4301.90234375, -0.01600000075995922, 0.01600000075995922, 1.0080000162124634, 0.0, 0.0, 0.0, 0.0, 0.0, 1.6024560037222562E9, 2020-10-11 17:40:03.722
20.0, -89.78564453125, 484.0271911621094, -1082.5421142578125, -4469.5244140625, -0.01600000075995922, 0.01600000075995922, 1.0080000162124634, 0.0, 0.0, 0.0, 0.0, 0.0, 1.6024560037222562E9, 2020-10-11 17:40:03.722
21.0, 12.354759216308594, 597.9034423828125, -998.0203247070312, -4518.5361328125, -0.01600000075995922, 0.01600000075995922, 1.0080000162124634, 0.0, 0.0, 0.0, 0.0, 0.0, 1.6024560037229583E9, 2020-10-11 17:40:03.722
21.0, -193.99795532226562, 369.6161804199219, -1185.3258056640625, -4726.79052734375, -0.01600000075995922, 0.01600000075995922, 1.0080000162124634, 0.0, 0.0, 0.0, 0.0, 0.0, 1.6024560037229583E9, 2020-10-11 17:40:03.722
22.0, -132.67481994628906, 428.4747314453125, -1130.92138671875, -4729.55419921875, 0.0, 0.01600000075995922, 1.0080000162124634, 0.0, 0.0, 0.0, 0.0, 0.0, 1.602456003736585E9, 2020-10-11 17:40:03.736
22.0, 19.20999526977539, 601.58349609375, -986.9577026367188, -4679.12353515625, 0.0, 0.01600000075995922, 1.0080000162124634, 0.0, 0.0, 0.0, 0.0, 0.0, 1.602456003736585E9, 2020-10-11 17:40:03.736
23.0, -133.00767517089844, 439.9936218261719, -1130.4427490234375, -4872.59033203125, 0.0, 0.01600000075995922, 1.0080000162124634, 0.0, 0.0, 0.0, 0.0, 0.0, 1.6024560037522976E9, 2020-10-11 17:40:03.752
23.0, -184.44252014160156, 381.10888671875, -1175.9161376953125, -4965.17138671875, 0.0, 0.01600000075995922, 1.0080000162124634, 0.0, 0.0, 0.0, 0.0, 0.0, 1.6024560037522976E9, 2020-10-11 17:40:03.752
24.0, -2.159792184829712, 584.211669921875, -1012.1085815429688, -5121.71240234375, 0.0, 0.01600000075995922, 1.0080000162124634, 0.0, 0.0, 0.0, 0.0, 0.0, 1.602456003752966E9, 2020-10-11 17:40:03.752
24.0, -47.21810531616211, 531.6884765625, -1058.60302734375, -5189.61962890625, 0.0, 0.01600000075995922, 1.0080000162124634, 0.0, 0.0, 0.0, 0.0, 0.0, 1.602456003752966E9, 2020-10-11 17:40:03.752
25.0, -198.89723205566406, 355.1278076171875, -1193.916259765625, -5273.15234375, 0.0, 0.01600000075995922, 1.0080000162124634, 0.0, 0.0, 0.0, 0.0, 0.0, 1.6024560037665825E9, 2020-10-11 17:40:03.766
25.0, -33.71332931518555, 542.8109741210938, -1034.7237548828125, -5414.943359375, 0.0, 0.01600000075995922, 1.0080000162124634, 0.0, 0.0, 0.0, 0.0, 0.0, 1.6024560037665825E9, 2020-10-11 17:40:03.766
26.0, 58.52382278442383, 641.6864013671875, -956.8440551757812, -5462.6943359375, 0.0, 0.01600000075995922, 1.0080000162124634, 0.0, 0.0, 0.0, 0.0, 0.0, 1.6024560037822404E9, 2020-10-11 17:40:03.782
26.0, -164.5350341796875, 398.8098449707031, -1162.400146484375, -5683.1259765625, 0.0, 0.01600000075995922, 1.0080000162124634, 0.0, 0.0, 0.0, 0.0, 0.0, 1.6024560037822404E9, 2020-10-11 17:40:03.782
27.0, -96.2070541381836, 469.2396240234375, -1100.42626953125, -5682.80615234375, 0.0, 0.01600000075995922, 1.0080000162124634, 0.0, 0.0, 0.0, 0.0, 0.0, 1.6024560037829583E9, 2020-10-11 17:40:03.782
27.0, 64.14115142822266, 651.94873046875, -948.0590209960938, -5628.1494140625, 0.0, 0.01600000075995922, 1.0080000162124634, 0.0, 0.0, 0.0, 0.0, 0.0, 1.6024560037829583E9, 2020-10-11 17:40:03.782
28.0, -108.70580291748047, 459.52337646484375, -1125.154541015625, -5842.87353515625, 0.0, 0.01600000075995922, 1.0080000162124634, 0.0, 0.0, 0.0, 0.0, 0.0, 1.6024560037965648E9, 2020-10-11 17:40:03.796
28.0, -161.40098571777344, 390.54840087890625, -1176.3724365234375, -5945.4892578125, 0.0, 0.01600000075995922, 1.0080000162124634, 0.0, 0.0, 0.0, 0.0, 0.0, 1.6024560037965648E9, 2020-10-11 17:40:03.796
29.0, 38.900569915771484, 617.0741577148438, -972.4207153320312, -6074.3662109375, 0.0, 0.01600000075995922, 1.0080000162124634, 0.0, 0.0, 0.0, 0.0, 0.0, 1.6024560038122509E9, 2020-10-11 17:40:03.812
29.0, -31.940614700317383, 547.83740234375, -1039.0694580078125, -6165.677734375, 0.0, 0.01600000075995922, 1.0080000162124634, 0.0, 0.0, 0.0, 0.0, 0.0, 1.6024560038122509E9, 2020-10-11 17:40:03.812
30.0, -188.6050262451172, 367.798583984375, -1195.0120849609375, -6242.79638671875, 0.0, 0.01600000075995922, 1.0080000162124634, 0.0, 0.0, 0.0, 0.0, 0.0, 1.602456003812977E9, 2020-10-11 17:40:03.812
30.0, -46.88525390625, 526.4376831054688, -1048.0826416015625, -6404.84619140625, 0.0, 0.01600000075995922, 1.0080000162124634, 0.0, 0.0, 0.0, 0.0, 0.0, 1.602456003812977E9, 2020-10-11 17:40:03.812
31.0, 38.369503021240234, 625.6572265625, -970.8163452148438, -6457.5263671875, 0.0, 0.01600000075995922, 1.0080000162124634, 0.0, 0.0, 0.0, 0.0, 0.0, 1.6024560038265543E9, 2020-10-11 17:40:03.826
31.0, -187.19508361816406, 862.0357055664062, -1186.473876953125, -6675.86376953125, 0.0, 0.01600000075995922, 1.0080000162124634, 0.0, 0.0, 0.0, 0.0, 0.0, 1.6024560038265543E9, 2020-10-11 17:40:03.826
32.0, -123.7252426147461, 935.90625, -1121.2388916015625, -6680.89013671875, 0.0, 0.01600000075995922, 1.0080000162124634, 0.0, 0.0, 0.0, 0.0, 0.0, 1.6024560038423083E9, 2020-10-11 17:40:03.842
32.0, 23.237869262695312, 1095.8804931640625, -992.204833984375, -6645.048828125, 0.0, 0.01600000075995922, 1.0080000162124634, 0.0, 0.0, 0.0, 0.0, 0.0, 1.6024560038423083E9, 2020-10-11 17:40:03.842
33.0, -127.1173324584961, 930.9658203125, -1134.6351318359375, -6839.33447265625, 0.0, 0.01600000075995922, 1.0080000162124634, 0.0, 0.0, 0.0, 0.0, 0.0, 1.6024560038430285E9, 2020-10-11 17:40:03.843
33.0, -178.69802856445312, 866.1421508789062, -1189.0469970703125, -6937.13671875, 0.0, 0.01600000075995922, 1.0080000162124634, 0.0, 0.0, 0.0, 0.0, 0.0, 1.6024560038430285E9, 2020-10-11 17:40:03.843
34.0, -12.908265113830566, 1060.396240234375, -1021.4583129882812, -7088.5654296875, 0.0, 0.01600000075995922, 1.0080000162124634, 0.0, 0.0, 0.0, 0.0, 0.0, 1.6024560038565893E9, 2020-10-11 17:40:03.856
34.0, -60.236698150634766, 1011.00341796875, -1058.9208984375, -7158.4248046875, 0.0, 0.01600000075995922, 1.0080000162124634, 0.0, 0.0, 0.0, 0.0, 0.0, 1.6024560038565893E9, 2020-10-11 17:40:03.856
35.0, -222.32769775390625, 822.3441772460938, -1218.67822265625, -7248.19140625, 0.0, 0.01600000075995922, 1.0080000162124634, 0.0, 0.0, 0.0, 0.0, 0.0, 1.6024560038722403E9, 2020-10-11 17:40:03.872
35.0, -59.185787200927734, 1002.2744750976562, -1068.1845703125, -7397.7353515625, 0.0, 0.01600000075995922, 1.0080000162124634, 0.0, 0.0, 0.0, 0.0, 0.0, 1.6024560038722403E9, 2020-10-11 17:40:03.872
36.0, 51.38809585571289, 1126.3270263671875, -964.1181640625, -7429.2998046875, 0.0, 0.01600000075995922, 1.0080000162124634, 0.0, 0.0, 0.0, 0.0, 0.0, 1.6024560038729744E9, 2020-10-11 17:40:03.872
36.0, -152.6982421875, 895.8070068359375, -1151.9359130859375, -7633.49658203125, 0.0, 0.01600000075995922, 1.0080000162124634, 0.0, 0.0, 0.0, 0.0, 0.0, 1.6024560038729744E9, 2020-10-11 17:40:03.872
37.0, -94.28849029541016, 966.5808715820312, -1092.1573486328125, -7642.32275390625, 0.0, 0.01600000075995922, 1.0080000162124634, 0.0, 0.0, 0.0, 0.0, 0.0, 1.6024560038865767E9, 2020-10-11 17:40:03.886
37.0, 45.99142074584961, 1124.6141357421875, -960.583984375, -7603.8525390625, 0.0, 0.01600000075995922, 1.0080000162124634, 0.0, 0.0, 0.0, 0.0, 0.0, 1.6024560038865767E9, 2020-10-11 17:40:03.886
38.0, -135.7490234375, 926.3433227539062, -1136.0750732421875, -7816.47900390625, 0.0, 0.01600000075995922, 1.0080000162124634, 0.0, 0.0, 0.0, 0.0, 0.0, 1.6024560039022384E9, 2020-10-11 17:40:03.902
38.0, -165.7205810546875, 885.4923706054688, -1163.4398193359375, -7910.4287109375, 0.0, 0.01600000075995922, 1.0080000162124634, 0.0, 0.0, 0.0, 0.0, 0.0, 1.6024560039022384E9, 2020-10-11 17:40:03.902
39.0, -8.225910186767578, 1061.98193359375, -1019.9735717773438, -8074.1689453125, 0.0, 0.01600000075995922, 1.0080000162124634, 0.0, 0.0, 0.0, 0.0, 0.0, 1.6024560039029765E9, 2020-10-11 17:40:03.902
39.0, -36.278900146484375, 1028.5771484375, -1050.80908203125, -8127.99169921875, 0.0, 0.01600000075995922, 1.0080000162124634, 0.0, 0.0, 0.0, 0.0, 0.0, 1.6024560039029765E9, 2020-10-11 17:40:03.902
40.0, -224.10789489746094, 822.4264526367188, -1235.3543701171875, -8234.546875, 0.0, 0.01600000075995922, 1.0080000162124634, 0.0, 0.0, 0.0, 0.0, 0.0, 1.6024560039165864E9, 2020-10-11 17:40:03.916
40.0, -77.9787826538086, 986.1592407226562, -1083.185302734375, -8394.39453125, 0.0, 0.01600000075995922, 1.0080000162124634, 0.0, 0.0, 0.0, 0.0, 0.0, 1.6024560039165864E9, 2020-10-11 17:40:03.916
41.0, 5.570580959320068, 1086.41845703125, -990.4470825195312, -8435.3203125, 0.0, 0.03200000151991844, 1.0080000162124634, 0.0, 0.0, 0.0, 0.0, 0.0, 1.6024560039322574E9, 2020-10-11 17:40:03.932
41.0, -202.06492614746094, 846.1000366210938, -1197.8656005859375, -8647.841796875, 0.0, 0.03200000151991844, 1.0080000162124634, 0.0, 0.0, 0.0, 0.0, 0.0, 1.6024560039322574E9, 2020-10-11 17:40:03.932
42.0, -128.18319702148438, 923.9647216796875, -1122.97412109375, -8651.56640625, 0.0, 0.03200000151991844, 1.0080000162124634, 0.0, 0.0, 0.0, 0.0, 0.0, 1.602456003932972E9, 2020-10-11 17:40:03.932
42.0, 39.58123016357422, 1114.890380859375, -968.4302368164062, -8589.08203125, 0.0, 0.03200000151991844, 1.0080000162124634, 0.0, 0.0, 0.0, 0.0, 0.0, 1.602456003932972E9, 2020-10-11 17:40:03.932
43.0, -128.85638427734375, 931.7474365234375, -1133.3785400390625, -8785.59765625, 0.0, 0.03200000151991844, 1.0080000162124634, 0.0, 0.0, 0.0, 0.0, 0.0, 1.6024560039465928E9, 2020-10-11 17:40:03.946
43.0, -190.96490478515625, 856.9120483398438, -1185.9989013671875, -8901.1455078125, 0.0, 0.03200000151991844, 1.0080000162124634, 0.0, 0.0, 0.0, 0.0, 0.0, 1.6024560039465928E9, 2020-10-11 17:40:03.946
44.0, 4.62812614440918, 1070.6884765625, -1012.8677368164062, -9046.107421875, 0.0, 0.03200000151991844, 1.0080000162124634, 0.0, 0.0, 0.0, 0.0, 0.0, 1.6024560039622388E9, 2020-10-11 17:40:03.962
44.0, -41.89997100830078, 1027.6123046875, -1063.5545654296875, -9106.7177734375, 0.0, 0.03200000151991844, 1.0080000162124634, 0.0, 0.0, 0.0, 0.0, 0.0, 1.6024560039622388E9, 2020-10-11 17:40:03.962
45.0, -215.87637329101562, 831.5817260742188, -1214.7513427734375, -9199.5556640625, 0.0, 0.03200000151991844, 1.0080000162124634, 0.0, 0.0, 0.0, 0.0, 0.0, 1.6024560039629636E9, 2020-10-11 17:40:03.962
45.0, -65.57727813720703, 993.9083251953125, -1066.0977783203125, -9370.248046875, 0.0, 0.03200000151991844, 1.0080000162124634, 0.0, 0.0, 0.0, 0.0, 0.0, 1.6024560039629636E9, 2020-10-11 17:40:03.962
46.0, 12.739969253540039, 1082.0352783203125, -1009.0679931640625, -9422.453125, 0.0, 0.03200000151991844, 1.0080000162124634, 0.0, 0.0, 0.0, 0.0, 0.0, 1.6024560039765892E9, 2020-10-11 17:40:03.976
46.0, -206.77345275878906, 847.0948486328125, -1201.9459228515625, -9631.0107421875, 0.0, 0.03200000151991844, 1.0080000162124634, 0.0, 0.0, 0.0, 0.0, 0.0, 1.6024560039765892E9, 2020-10-11 17:40:03.976
47.0, -131.32846069335938, 917.973388671875, -1123.737060546875, -9635.8017578125, 0.0, 0.03200000151991844, 1.0080000162124634, 0.0, 0.0, 0.0, 0.0, 0.0, 1.6024560039922364E9, 2020-10-11 17:40:03.992
47.0, 25.01058006286621, 1096.07861328125, -982.4698486328125, -9582.2783203125, 0.0, 0.03200000151991844, 1.0080000162124634, 0.0, 0.0, 0.0, 0.0, 0.0, 1.6024560039922364E9, 2020-10-11 17:40:03.992
48.0, -129.8960723876953, 924.7313842773438, -1137.77294921875, -9773.1455078125, 0.0, 0.03200000151991844, 1.0080000162124634, 0.0, 0.0, 0.0, 0.0, 0.0, 1.6024560039929652E9, 2020-10-11 17:40:03.992
48.0, -186.701416015625, 860.5958862304688, -1193.748046875, -9887.728515625, 0.0, 0.03200000151991844, 1.0080000162124634, 0.0, 0.0, 0.0, 0.0, 0.0, 1.6024560039929652E9, 2020-10-11 17:40:03.992
49.0, -10.911158561706543, 1059.5174560546875, -1015.8259887695312, -10034.5048828125, 0.0, 0.03200000151991844, 1.0080000162124634, 0.0, 0.0, 0.0, 0.0, 0.0, 1.6024560040065827E9, 2020-10-11 17:40:04.006
49.0, -53.15332794189453, 1016.8787841796875, -1053.041748046875, -10090.5302734375, 0.0, 0.03200000151991844, 1.0080000162124634, 0.0, 0.0, 0.0, 0.0, 0.0, 1.6024560040065827E9, 2020-10-11 17:40:04.006
50.0, -218.66259765625, 831.6303100585938, -1207.331298828125, -10183.5478515625, 0.0, 0.03200000151991844, 1.0080000162124634, 0.0, 0.0, 0.0, 0.0, 0.0, 1.602456004022264E9, 2020-10-11 17:40:04.022
50.0, -81.2474594116211, 984.5099487304688, -1081.5921630859375, -10358.466796875, 0.0, 0.03200000151991844, 1.0080000162124634, 0.0, 0.0, 0.0, 0.0, 0.0, 1.602456004022264E9, 2020-10-11 17:40:04.022
51.0, 7.683624267578125, 1086.8709716796875, -993.79052734375, -10398.1357421875, 0.0, 0.03200000151991844, 1.0080000162124634, 0.0, 0.0, 0.0, 0.0, 0.0, 1.602456004022961E9, 2020-10-11 17:40:04.022
51.0, -208.9575653076172, 847.21826171875, -1201.83740234375, -10611.7041015625, 0.0, 0.03200000151991844, 1.0080000162124634, 0.0, 0.0, 0.0, 0.0, 0.0, 1.602456004022961E9, 2020-10-11 17:40:04.022
52.0, -132.9852294921875, 929.4436645507812, -1125.756591796875, -10618.7880859375, 0.0, 0.03200000151991844, 1.0080000162124634, 0.0, 0.0, 0.0, 0.0, 0.0, 1.60245600403658E9, 2020-10-11 17:40:04.036
52.0, 33.87788391113281, 1112.8895263671875, -969.469970703125, -10550.4619140625, 0.0, 0.03200000151991844, 1.0080000162124634, 0.0, 0.0, 0.0, 0.0, 0.0, 1.60245600403658E9, 2020-10-11 17:40:04.036
53.0, -135.01974487304688, 927.2147216796875, -1133.38232421875, -10752.8779296875, 0.0, 0.03200000151991844, 1.0080000162124634, 0.0, 0.0, 0.0, 0.0, 0.0, 1.6024560040522707E9, 2020-10-11 17:40:04.052
53.0, -203.8638153076172, 841.8253173828125, -1210.6298828125, -10876.5341796875, 0.0, 0.03200000151991844, 1.0080000162124634, 0.0, 0.0, 0.0, 0.0, 0.0, 1.6024560040522707E9, 2020-10-11 17:40:04.052
54.0, -8.697136878967285, 1060.5047607421875, -1021.6602783203125, -11018.8486328125, 0.0, 0.03200000151991844, 1.0080000162124634, 0.0, 0.0, 0.0, 0.0, 0.0, 1.60245600405296E9, 2020-10-11 17:40:04.052
54.0, -50.09035110473633, 1021.4639282226562, -1049.859130859375, -11065.158203125, 0.0, 0.03200000151991844, 1.0080000162124634, 0.0, 0.0, 0.0, 0.0, 0.0, 1.60245600405296E9, 2020-10-11 17:40:04.052
55.0, -218.00437927246094, 828.6758422851562, -1214.8970947265625, -11162.8125, 0.0, 0.03200000151991844, 1.0080000162124634, 0.0, 0.0, 0.0, 0.0, 0.0, 1.6024560040665567E9, 2020-10-11 17:40:04.066
55.0, -65.03872680664062, 999.4359130859375, -1073.558837890625, -11331.2197265625, 0.0, 0.03200000151991844, 1.0080000162124634, 0.0, 0.0, 0.0, 0.0, 0.0, 1.6024560040665567E9, 2020-10-11 17:40:04.066
56.0, 24.677730560302734, 1094.317138671875, -1000.3727416992188, -11367.25390625, 0.0, 0.03200000151991844, 1.0080000162124634, 0.0, 0.0, 0.0, 0.0, 0.0, 1.6024560040824592E9, 2020-10-11 17:40:04.082
56.0, -187.09036254882812, 864.919189453125, -1189.2340087890625, -11575.9716796875, 0.0, 0.03200000151991844, 1.0080000162124634, 0.0, 0.0, 0.0, 0.0, 0.0, 1.6024560040824592E9, 2020-10-11 17:40:04.082
57.0, -107.84562683105469, 939.5750732421875, -1113.79638671875, -11581.3916015625, 0.0, 0.03200000151991844, 1.0080000162124634, 0.0, 0.0, 0.0, 0.0, 0.0, 1.6024560040831304E9, 2020-10-11 17:40:04.083
57.0, 47.38266372680664, 1124.79736328125, -967.1212768554688, -11526.11328125, 0.0, 0.03200000151991844, 1.0080000162124634, 0.0, 0.0, 0.0, 0.0, 0.0, 1.6024560040831304E9, 2020-10-11 17:40:04.083
58.0, -118.65019226074219, 939.5601196289062, -1124.1746826171875, -11716.337890625, 0.0, 0.03200000151991844, 1.0080000162124634, 0.0, 0.0, 0.0, 0.0, 0.0, 1.602456004096583E9, 2020-10-11 17:40:04.096
58.0, -177.90142822265625, 873.3189697265625, -1182.6405029296875, -11839.1005859375, 0.0, 0.03200000151991844, 1.0080000162124634, 0.0, 0.0, 0.0, 0.0, 0.0, 1.602456004096583E9, 2020-10-11 17:40:04.096
59.0, 8.177290916442871, 1075.7073974609375, -994.2617797851562, -11985.7900390625, 0.0, 0.03200000151991844, 1.0080000162124634, 0.0, 0.0, 0.0, 0.0, 0.0, 1.602456004112304E9, 2020-10-11 17:40:04.112
59.0, -34.67074203491211, 1039.85302734375, -1030.7332763671875, -12028.244140625, 0.0, 0.03200000151991844, 1.0080000162124634, 0.0, 0.0, 0.0, 0.0, 0.0, 1.602456004112304E9, 2020-10-11 17:40:04.112
60.0, -208.1422576904297, 837.0868530273438, -1206.287841796875, -12142.275390625, 0.0, 0.03200000151991844, 1.0080000162124634, 0.0, 0.0, 0.0, 0.0, 0.0, 1.6024560041129787E9, 2020-10-11 17:40:04.112
60.0, -65.06117248535156, 999.8622436523438, -1069.1832275390625, -12311.248046875, 0.0, 0.03200000151991844, 1.0080000162124634, 0.0, 0.0, 0.0, 0.0, 0.0, 1.6024560041129787E9, 2020-10-11 17:40:04.112
61.0, 0.43943825364112854, 1071.0924072265625, -1011.2222290039062, -12367.013671875, 0.0, 0.03200000151991844, 1.0080000162124634, 0.0, 0.0, 0.0, 0.0, 0.0, 1.6024560041265824E9, 2020-10-11 17:40:04.126
61.0, -220.5250701904297, 829.072265625, -1218.2406005859375, -12584.3486328125, 0.0, 0.03200000151991844, 1.0080000162124634, 0.0, 0.0, 0.0, 0.0, 0.0, 1.6024560041265824E9, 2020-10-11 17:40:04.126
62.0, -142.81369018554688, 908.9602661132812, -1145.9820556640625, -12590.0810546875, 0.0, 0.03200000151991844, 1.0080000162124634, 0.0, 0.0, 0.0, 0.0, 0.0, 1.6024560041586385E9, 2020-10-11 17:40:04.158
62.0, 14.76325511932373, 1094.8258056640625, -991.09033203125, -12529.1376953125, 0.0, 0.03200000151991844, 1.0080000162124634, 0.0, 0.0, 0.0, 0.0, 0.0, 1.6024560041586385E9, 2020-10-11 17:40:04.158
63.0, -157.193603515625, 909.5511474609375, -1143.147216796875, -12724.69140625, 0.0, 0.03200000151991844, 1.0080000162124634, 0.0, 0.0, 0.0, 0.0, 0.0, 1.602456004159366E9, 2020-10-11 17:40:04.159
63.0, -203.85633850097656, 845.2734985351562, -1186.8067626953125, -12837.4755859375, 0.0, 0.03200000151991844, 1.0080000162124634, 0.0, 0.0, 0.0, 0.0, 0.0, 1.602456004159366E9, 2020-10-11 17:40:04.159
64.0, -12.504355430603027, 1067.2626953125, -999.6846313476562, -12977.306640625, 0.0, 0.03200000151991844, 1.0080000162124634, 0.0, 0.0, 0.0, 0.0, 0.0, 1.6024560041601157E9, 2020-10-11 17:40:04.160
64.0, -59.713111877441406, 1018.550537109375, -1046.6839599609375, -13023.4775390625, 0.0, 0.03200000151991844, 1.0080000162124634, 0.0, 0.0, 0.0, 0.0, 0.0, 1.6024560041601157E9, 2020-10-11 17:40:04.160
65.0, -223.99569702148438, 821.9328002929688, -1222.0516357421875, -13128.3798828125, 0.0, 0.03200000151991844, 1.0080000162124634, 0.0, 0.0, 0.0, 0.0, 0.0, 1.6024560041608517E9, 2020-10-11 17:40:04.160
65.0, -63.565208435058594, 1005.0681762695312, -1063.461181640625, -13291.1591796875, 0.0, 0.03200000151991844, 1.0080000162124634, 0.0, 0.0, 0.0, 0.0, 0.0, 1.6024560041608517E9, 2020-10-11 17:40:04.160
66.0, 12.029388427734375, 1093.449462890625, -990.162841796875, -13323.90234375, 0.0, 0.03200000151991844, 1.0080000162124634, 0.0, 0.0, 0.0, 0.0, 0.0, 1.6024560041716082E9, 2020-10-11 17:40:04.171
66.0, -217.6790008544922, 1324.0386962890625, -1208.11669921875, -13555.564453125, 0.0, 0.03200000151991844, 1.0080000162124634, 0.0, 0.0, 0.0, 0.0, 0.0, 1.6024560041716082E9, 2020-10-11 17:40:04.171
67.0, -141.94602966308594, 1410.1236572265625, -1141.015380859375, -13568.8974609375, 0.0, 0.03200000151991844, 1.0080000162124634, 0.0, 0.0, 0.0, 0.0, 0.0, 1.602456004186607E9, 2020-10-11 17:40:04.186
67.0, 23.694135665893555, 1589.14892578125, -980.7457275390625, -13499.97265625, 0.0, 0.03200000151991844, 1.0080000162124634, 0.0, 0.0, 0.0, 0.0, 0.0, 1.602456004186607E9, 2020-10-11 17:40:04.186
68.0, -151.5987091064453, 1402.172607421875, -1144.901123046875, -13698.2119140625, 0.0, 0.03200000151991844, 1.0080000162124634, 0.0, 0.0, 0.0, 0.0, 0.0, 1.6024560042022817E9, 2020-10-11 17:40:04.202
68.0, -193.75112915039062, 1348.23583984375, -1184.27490234375, -13809.806640625, 0.0, 0.03200000151991844, 1.0080000162124634, 0.0, 0.0, 0.0, 0.0, 0.0, 1.6024560042022817E9, 2020-10-11 17:40:04.202
69.0, -8.472743034362793, 1556.30517578125, -1011.0277099609375, -13961.1083984375, 0.0, 0.03200000151991844, 1.0080000162124634, 0.0, 0.0, 0.0, 0.0, 0.0, 1.6024560042030053E9, 2020-10-11 17:40:04.203
69.0, -55.32994842529297, 1511.14208984375, -1063.2703857421875, -14005.263671875, 0.0, 0.03200000151991844, 1.0080000162124634, 0.0, 0.0, 0.0, 0.0, 0.0, 1.6024560042030053E9, 2020-10-11 17:40:04.203
70.0, -224.53424072265625, 1315.8743896484375, -1213.19921875, -14107.4052734375, 0.0, 0.03200000151991844, 1.0080000162124634, 0.0, 0.0, 0.0, 0.0, 0.0, 1.6024560042166276E9, 2020-10-11 17:40:04.216
70.0, -65.85028839111328, 1487.5882568359375, -1070.2191162109375, -14277.14453125, 0.0, 0.03200000151991844, 1.0080000162124634, 0.0, 0.0, 0.0, 0.0, 0.0, 1.6024560042166276E9, 2020-10-11 17:40:04.216
71.0, 3.192004680633545, 1573.4263916015625, -1001.5508422851562, -14313.671875, 0.0, 0.03200000151991844, 1.0080000162124634, 0.0, 0.0, 0.0, 0.0, 0.0, 1.6024560042322876E9, 2020-10-11 17:40:04.232
71.0, -205.96563720703125, 1332.6068115234375, -1214.8970947265625, -14538.36328125, 0.0, 0.03200000151991844, 1.0080000162124634, 0.0, 0.0, 0.0, 0.0, 0.0, 1.6024560042322876E9, 2020-10-11 17:40:04.232
72.0, -136.6353759765625, 1408.6090087890625, -1136.942626953125, -14551.240234375, 0.0, 0.03200000151991844, 1.0080000162124634, 0.0, 0.0, 0.0, 0.0, 0.0, 1.6024560042329836E9, 2020-10-11 17:40:04.232
72.0, 21.225801467895508, 1594.04443359375, -980.2184448242188, -14482.1171875, 0.0, 0.03200000151991844, 1.0080000162124634, 0.0, 0.0, 0.0, 0.0, 0.0, 1.6024560042329836E9, 2020-10-11 17:40:04.232
73.0, -147.54466247558594, 1403.5377197265625, -1151.6666259765625, -14679.900390625, 0.0, 0.03200000151991844, 1.0080000162124634, 0.0, 0.0, 0.0, 0.0, 0.0, 1.6024560042466056E9, 2020-10-11 17:40:04.246
73.0, -191.4473419189453, 1349.68310546875, -1185.34814453125, -14784.62109375, 0.0, 0.03200000151991844, 1.0080000162124634, 0.0, 0.0, 0.0, 0.0, 0.0, 1.6024560042466056E9, 2020-10-11 17:40:04.246
74.0, -14.546340942382812, 1550.987060546875, -1013.8513793945312, -14941.158203125, 0.0, 0.03200000151991844, 1.0080000162124634, 0.0, 0.0, 0.0, 0.0, 0.0, 1.6024560042622647E9, 2020-10-11 17:40:04.262
74.0, -60.46109390258789, 1497.7681884765625, -1064.564453125, -14984.7490234375, 0.0, 0.03200000151991844, 1.0080000162124634, 0.0, 0.0, 0.0, 0.0, 0.0, 1.6024560042622647E9, 2020-10-11 17:40:04.262
75.0, -218.12779235839844, 1315.492919921875, -1215.970458984375, -15083.962890625, 0.0, 0.03200000151991844, 1.0080000162124634, 0.0, 0.0, 0.0, 0.0, 0.0, 1.6024560042630143E9, 2020-10-11 17:40:04.263
75.0, -71.43022155761719, 1486.690673828125, -1070.4884033203125, -15249.6923828125, 0.0, 0.03200000151991844, 1.0080000162124634, 0.0, 0.0, 0.0, 0.0, 0.0, 1.6024560042630143E9, 2020-10-11 17:40:04.263
76.0, 21.16970443725586, 1584.638671875, -982.1407470703125, -15287.619140625, 0.0, 0.03200000151991844, 1.0080000162124634, 0.0, 0.0, 0.0, 0.0, 0.0, 1.602456004276589E9, 2020-10-11 17:40:04.276
76.0, -191.63433837890625, 1346.111572265625, -1188.1494140625, -15503.0126953125, 0.0, 0.03200000151991844, 1.0080000162124634, 0.0, 0.0, 0.0, 0.0, 0.0, 1.602456004276589E9, 2020-10-11 17:40:04.276
77.0, -113.9715805053711, 1427.9031982421875, -1118.6358642578125, -15515.1455078125, 0.0, 0.03200000151991844, 1.0080000162124634, 0.0, 0.0, 0.0, 0.0, 0.0, 1.6024560042922604E9, 2020-10-11 17:40:04.292
77.0, 30.291318893432617, 1596.2061767578125, -978.4008178710938, -15456.19140625, 0.0, 0.03200000151991844, 1.0080000162124634, 0.0, 0.0, 0.0, 0.0, 0.0, 1.6024560042922604E9, 2020-10-11 17:40:04.292
78.0, -143.13905334472656, 1405.2506103515625, -1141.5802001953125, -15652.4775390625, 0.0, 0.03200000151991844, 1.0080000162124634, 0.0, 0.0, 0.0, 0.0, 0.0, 1.602456004292988E9, 2020-10-11 17:40:04.292
78.0, -191.59320068359375, 1349.41015625, -1191.8818359375, -15777.5400390625, 0.0, 0.03200000151991844, 1.0080000162124634, 0.0, 0.0, 0.0, 0.0, 0.0, 1.602456004292988E9, 2020-10-11 17:40:04.292
79.0, -14.086333274841309, 1548.724365234375, -1014.9097290039062, -15922.958984375, 0.0, 0.03200000151991844, 1.0080000162124634, 0.0, 0.0, 0.0, 0.0, 0.0, 1.6024560043066113E9, 2020-10-11 17:40:04.306
79.0, -47.61453628540039, 1507.046875, -1051.90478515625, -15958.3583984375, 0.0, 0.03200000151991844, 1.0080000162124634, 0.0, 0.0, 0.0, 0.0, 0.0, 1.6024560043066113E9, 2020-10-11 17:40:04.306
80.0, -213.1425018310547, 1322.224853515625, -1201.6541748046875, -16060.9384765625, 0.0, 0.03200000151991844, 1.0240000486373901, 0.0, 0.0, 0.0, 0.0, 0.0, 1.6024560043222384E9, 2020-10-11 17:40:04.322
80.0, -62.45446014404297, 1490.580078125, -1072.253662109375, -16236.0966796875, 0.0, 0.03200000151991844, 1.0240000486373901, 0.0, 0.0, 0.0, 0.0, 0.0, 1.6024560043222384E9, 2020-10-11 17:40:04.322
81.0, 12.773628234863281, 1581.096923828125, -999.4863891601562, -16269.322265625, 0.0, 0.03200000151991844, 1.0240000486373901, 0.0, 0.0, 0.0, 0.0, 0.0, 1.602456004322997E9, 2020-10-11 17:40:04.322
81.0, -205.2326202392578, 1821.858642578125, -1208.150390625, -16489.267578125, 0.0, 0.03200000151991844, 1.0240000486373901, 0.0, 0.0, 0.0, 0.0, 0.0, 1.602456004322997E9, 2020-10-11 17:40:04.322
82.0, -127.81295013427734, 1900.172119140625, -1128.8382568359375, -16507.0390625, 0.0, 0.03200000151991844, 1.0240000486373901, 0.0, 0.0, 0.0, 0.0, 0.0, 1.6024560043366115E9, 2020-10-11 17:40:04.336
82.0, 48.246578216552734, 2102.26513671875, -965.6964111328125, -16429.91796875, 0.0, 0.03200000151991844, 1.0240000486373901, 0.0, 0.0, 0.0, 0.0, 0.0, 1.6024560043366115E9, 2020-10-11 17:40:04.336
83.0, -136.23519897460938, 1902.651611328125, -1148.1025390625, -16625.134765625, 0.0, 0.03200000151991844, 1.0240000486373901, 0.0, 0.0, 0.0, 0.0, 0.0, 1.6024560043522968E9, 2020-10-11 17:40:04.352
83.0, -180.71383666992188, 1838.6844482421875, -1191.107666015625, -16749.564453125, 0.0, 0.03200000151991844, 1.0240000486373901, 0.0, 0.0, 0.0, 0.0, 0.0, 1.6024560043522968E9, 2020-10-11 17:40:04.352
84.0, 5.3574066162109375, 2050.4375, -1003.5628662109375, -16895.92578125, 0.0, 0.03200000151991844, 1.0240000486373901, 0.0, 0.0, 0.0, 0.0, 0.0, 1.602456004353E9, 2020-10-11 17:40:04.353
84.0, -45.32197570800781, 2002.1741943359375, -1054.5302734375, -16938.80859375, 0.0, 0.03200000151991844, 1.0240000486373901, 0.0, 0.0, 0.0, 0.0, 0.0, 1.602456004353E9, 2020-10-11 17:40:04.353
85.0, -220.29319763183594, 1806.6484375, -1221.24755859375, -17051.60546875, 0.0, 0.03200000151991844, 1.0240000486373901, 0.0, 0.0, 0.0, 0.0, 0.0, 1.6024560043665884E9, 2020-10-11 17:40:04.366
85.0, -67.39112854003906, 1974.5625, -1081.4388427734375, -17227.27734375, 0.0, 0.03200000151991844, 1.0240000486373901, 0.0, 0.0, 0.0, 0.0, 0.0, 1.6024560043665884E9, 2020-10-11 17:40:04.366
86.0, 7.65370512008667, 2061.765625, -998.8767700195312, -17253.232421875, 0.0, 0.03200000151991844, 1.0240000486373901, 0.0, 0.0, 0.0, 0.0, 0.0, 1.6024560043822787E9, 2020-10-11 17:40:04.382
86.0, -211.96444702148438, 1817.9803466796875, -1210.427978515625, -17477.4921875, 0.0, 0.03200000151991844, 1.0240000486373901, 0.0, 0.0, 0.0, 0.0, 0.0, 1.6024560043822787E9, 2020-10-11 17:40:04.382
87.0, -143.52053833007812, 1892.8531494140625, -1136.3853759765625, -17500.8046875, 0.0, 0.03200000151991844, 1.0240000486373901, 0.0, 0.0, 0.0, 0.0, 0.0, 1.6024560043829997E9, 2020-10-11 17:40:04.382
87.0, 34.760501861572266, 2086.475341796875, -977.110595703125, -17423.44921875, 0.0, 0.03200000151991844, 1.0240000486373901, 0.0, 0.0, 0.0, 0.0, 0.0, 1.6024560043829997E9, 2020-10-11 17:40:04.382
88.0, -133.0675048828125, 1906.0025634765625, -1140.60400390625, -17603.7890625, 0.0, 0.03200000151991844, 1.0240000486373901, 0.0, 0.0, 0.0, 0.0, 0.0, 1.6024560043965518E9, 2020-10-11 17:40:04.396
88.0, -187.10157775878906, 1840.3973388671875, -1186.025146484375, -17728.6953125, 0.0, 0.03200000151991844, 1.0240000486373901, 0.0, 0.0, 0.0, 0.0, 0.0, 1.6024560043965518E9, 2020-10-11 17:40:04.396
89.0, 0.43569833040237427, 2044.1134033203125, -1014.9696044921875, -17881.462890625, 0.0, 0.03200000151991844, 1.0240000486373901, 0.0, 0.0, 0.0, 0.0, 0.0, 1.602456004412252E9, 2020-10-11 17:40:04.412
89.0, -47.86137008666992, 2001.736572265625, -1050.375244140625, -17915.6953125, 0.0, 0.03200000151991844, 1.0240000486373901, 0.0, 0.0, 0.0, 0.0, 0.0, 1.602456004412252E9, 2020-10-11 17:40:04.412
90.0, -212.85079956054688, 1816.177734375, -1209.47802734375, -18022.62890625, 0.0, 0.03200000151991844, 1.0080000162124634, 0.0, 0.0, 0.0, 0.0, 0.0, 1.6024560044129674E9, 2020-10-11 17:40:04.412
90.0, -59.63457489013672, 1987.79052734375, -1053.99169921875, -18192.01171875, 0.0, 0.03200000151991844, 1.0080000162124634, 0.0, 0.0, 0.0, 0.0, 0.0, 1.6024560044129674E9, 2020-10-11 17:40:04.412
91.0, 33.33933639526367, 2088.621826171875, -973.9017333984375, -18214.537109375, 0.0, 0.03200000151991844, 1.0080000162124634, 0.0, 0.0, 0.0, 0.0, 0.0, 1.6024560044265883E9, 2020-10-11 17:40:04.426
91.0, -178.4324951171875, 1851.6094970703125, -1183.078125, -18429.95703125, 0.0, 0.03200000151991844, 1.0080000162124634, 0.0, 0.0, 0.0, 0.0, 0.0, 1.6024560044265883E9, 2020-10-11 17:40:04.426
92.0, -114.61858367919922, 1921.414794921875, -1110.7222900390625, -18453.0, 0.0, 0.03200000151991844, 1.0080000162124634, 0.0, 0.0, 0.0, 0.0, 0.0, 1.6024560044422667E9, 2020-10-11 17:40:04.442
92.0, 42.50583267211914, 2100.15576171875, -965.2962036132812, -18393.447265625, 0.0, 0.03200000151991844, 1.0080000162124634, 0.0, 0.0, 0.0, 0.0, 0.0, 1.6024560044422667E9, 2020-10-11 17:40:04.442
93.0, -123.01091766357422, 1911.62744140625, -1133.37109375, -18576.841796875, 0.0, 0.03200000151991844, 1.0080000162124634, 0.0, 0.0, 0.0, 0.0, 0.0, 1.6024560044429994E9, 2020-10-11 17:40:04.442
93.0, -171.7380828857422, 1859.384765625, -1168.010009765625, -18701.392578125, 0.0, 0.03200000151991844, 1.0080000162124634, 0.0, 0.0, 0.0, 0.0, 0.0, 1.6024560044429994E9, 2020-10-11 17:40:04.442
94.0, -3.1059868335723877, 2055.000244140625, -1011.3418579101562, -18866.123046875, 0.0, 0.03200000151991844, 1.0080000162124634, 0.0, 0.0, 0.0, 0.0, 0.0, 1.602456004456558E9, 2020-10-11 17:40:04.456
94.0, -39.44285583496094, 2011.538818359375, -1051.6990966796875, -18894.06640625, 0.0, 0.03200000151991844, 1.0080000162124634, 0.0, 0.0, 0.0, 0.0, 0.0, 1.602456004456558E9, 2020-10-11 17:40:04.456
95.0, -207.31948852539062, 1818.881591796875, -1208.6029052734375, -19000.45703125, 0.0, 0.03200000151991844, 1.0080000162124634, 0.0, 0.0, 0.0, 0.0, 0.0, 1.602456004472256E9, 2020-10-11 17:40:04.472
95.0, -49.304969787597656, 1994.8551025390625, -1055.8316650390625, -19169.478515625, 0.0, 0.03200000151991844, 1.0080000162124634, 0.0, 0.0, 0.0, 0.0, 0.0, 1.602456004472256E9, 2020-10-11 17:40:04.472
