%OpenBCI Raw EEG Data
%Number of channels = 4
%Sample Rate = 200 Hz
%Board = OpenBCI_GUI$BoardGanglionBLE
Sample Index, EXG Channel 0, EXG Channel 1, EXG Channel 2, EXG Channel 3, Accel Channel 0, Accel Channel 1, Accel Channel 2, Other, Other, Other, Other, Other, Timestamp, Timestamp (Formatted)
0.0, -258.03814697265625, -214.4159393310547, -1300.0584716796875, -132.74774169921875, 0.0, 0.0, 0.0, 0.0, 0.0, 0.0, 0.0, 0.0, 1.6024559117732604E9, 2020-10-11 17:38:31.773
1.0, -237.41258239746094, -201.64044189453125, -1288.1243896484375, -303.40313720703125, 0.0, 0.03200000151991844, 0.0, 0.0, 0.0, 0.0, 0.0, 0.0, 1.6024559117866728E9, 2020-10-11 17:38:31.786
1.0, -53.581546783447266, 5.882862567901611, -1131.29541015625, -411.3067321777344, 0.0, 0.03200000151991844, 0.0, 0.0, 0.0, 0.0, 0.0, 0.0, 1.6024559117866728E9, 2020-10-11 17:38:31.786
2.0, -189.73260498046875, -137.93124389648438, -1240.6090087890625, -654.7162475585938, 0.0, 0.03200000151991844, 0.0, 0.0, 0.0, 0.0, 0.0, 0.0, 1.6024559118033924E9, 2020-10-11 17:38:31.803
2.0, -288.6305236816406, -243.41139221191406, -1308.742431640625, -659.144287109375, 0.0, 0.03200000151991844, 0.0, 0.0, 0.0, 0.0, 0.0, 0.0, 1.6024559118033924E9, 2020-10-11 17:38:31.803
3.0, -115.80226135253906, -56.71184158325195, -1169.371337890625, -842.89306640625, 0.0, 0.03200000151991844, 0.0, 0.0, 0.0, 0.0, 0.0, 0.0, 1.6024559118041873E9, 2020-10-11 17:38:31.804
3.0, -99.84037017822266, -36.7258186340332, -1159.9393310546875, -688.02001953125, 0.0, 0.03200000151991844, 0.0, 0.0, 0.0, 0.0, 0.0, 0.0, 1.6024559118041873E9, 2020-10-11 17:38:31.804
4.0, -333.86834716796875, 206.9978485107422, -1349.492431640625, -506.07391357421875, 0.0, 0.03200000151991844, 0.0, 0.0, 0.0, 0.0, 0.0, 0.0, 1.6024559118165064E9, 2020-10-11 17:38:31.816
4.0, -210.97149658203125, 336.940673828125, -1245.7886962890625, -695.2567749023438, 0.0, 0.03200000151991844, 0.0, 0.0, 0.0, 0.0, 0.0, 0.0, 1.6024559118165064E9, 2020-10-11 17:38:31.816
5.0, -87.28926849365234, 476.13226318359375, -1141.1500244140625, -666.1939697265625, 0.0, 0.03200000151991844, 0.0, 0.0, 0.0, 0.0, 0.0, 0.0, 1.6024559118322191E9, 2020-10-11 17:38:31.832
5.0, 155.38723754882812, 696.2235107421875, -1358.587890625, -849.0582885742188, 0.0, 0.03200000151991844, 0.0, 0.0, 0.0, 0.0, 0.0, 0.0, 1.6024559118322191E9, 2020-10-11 17:38:31.832
6.0, 173.9745330810547, 711.4898071289062, -1338.3212890625, -976.21484375, 0.0, 0.03200000151991844, 0.0, 0.0, 0.0, 0.0, 0.0, 0.0, 1.6024559118328743E9, 2020-10-11 17:38:31.832
6.0, 368.19500732421875, 923.3401489257812, -1178.05908203125, -1059.47998046875, 0.0, 0.03200000151991844, 0.0, 0.0, 0.0, 0.0, 0.0, 0.0, 1.6024559118328743E9, 2020-10-11 17:38:31.832
7.0, 207.79818725585938, 759.52880859375, -1312.6881103515625, -1230.877685546875, 0.0, 0.03200000151991844, 0.0, 0.0, 0.0, 0.0, 0.0, 0.0, 1.602455911846523E9, 2020-10-11 17:38:31.846
7.0, 52.697059631347656, 593.6268310546875, -1437.675537109375, -1195.7039794921875, 0.0, 0.03200000151991844, 0.0, 0.0, 0.0, 0.0, 0.0, 0.0, 1.602455911846523E9, 2020-10-11 17:38:31.846
8.0, 249.22132873535156, 798.5658569335938, -1273.80810546875, -1339.2750244140625, 0.0, 0.03200000151991844, 0.0, 0.0, 0.0, 0.0, 0.0, 0.0, 1.6024559118621445E9, 2020-10-11 17:38:31.862
8.0, 254.015869140625, 812.41845703125, -1270.2139892578125, -1130.259521484375, 0.0, 0.03200000151991844, 0.0, 0.0, 0.0, 0.0, 0.0, 0.0, 1.6024559118621445E9, 2020-10-11 17:38:31.862
9.0, 490.330810546875, 1029.0465087890625, -1488.79248046875, -912.836669921875, 0.0, 0.03200000151991844, 0.0, 0.0, 0.0, 0.0, 0.0, 0.0, 1.6024559118628628E9, 2020-10-11 17:38:31.862
9.0, 615.5538940429688, 1157.9384765625, -1389.187744140625, -1087.994873046875, 0.0, 0.03200000151991844, 0.0, 0.0, 0.0, 0.0, 0.0, 0.0, 1.6024559118628628E9, 2020-10-11 17:38:31.862
10.0, 745.8108520507812, 1304.6959228515625, -1273.0263671875, -1054.051513671875, 0.0, 0.03200000151991844, 1.0240000486373901, 0.0, 0.0, 0.0, 0.0, 0.0, 1.6024559118765051E9, 2020-10-11 17:38:31.876
10.0, 986.5276489257812, 1538.000244140625, -1480.99853515625, -1245.3118896484375, 0.0, 0.03200000151991844, 1.0240000486373901, 0.0, 0.0, 0.0, 0.0, 0.0, 1.6024559118765051E9, 2020-10-11 17:38:31.876
11.0, 1015.5380249023438, 1563.4315185546875, -1460.9189453125, -1460.2962646484375, 0.0, 0.01600000075995922, 1.0240000486373901, 0.0, 0.0, 0.0, 0.0, 0.0, 1.602455911892141E9, 2020-10-11 17:38:31.892
11.0, 1235.5264892578125, 1796.917236328125, -1277.2301025390625, -1657.104736328125, 0.0, 0.01600000075995922, 1.0240000486373901, 0.0, 0.0, 0.0, 0.0, 0.0, 1.602455911892141E9, 2020-10-11 17:38:31.892
12.0, 1120.3824462890625, 1680.2921142578125, -1359.5826416015625, -1468.445556640625, 0.0, 0.01600000075995922, 1.0240000486373901, 0.0, 0.0, 0.0, 0.0, 0.0, 1.602455911892904E9, 2020-10-11 17:38:31.892
12.0, 1012.1459350585938, 1567.2237548828125, -1450.694091796875, -1608.7852783203125, 0.0, 0.01600000075995922, 1.0240000486373901, 0.0, 0.0, 0.0, 0.0, 0.0, 1.602455911892904E9, 2020-10-11 17:38:31.892
13.0, 1248.4739990234375, 1809.243896484375, -1243.5596923828125, -1434.0665283203125, 0.0, 0.01600000075995922, 1.0240000486373901, 0.0, 0.0, 0.0, 0.0, 0.0, 1.6024559119064956E9, 2020-10-11 17:38:31.906
13.0, 1301.9620361328125, 1872.904541015625, -1200.685546875, -1412.8463134765625, 0.0, 0.01600000075995922, 1.0240000486373901, 0.0, 0.0, 0.0, 0.0, 0.0, 1.6024559119064956E9, 2020-10-11 17:38:31.906
14.0, 1091.6524658203125, 1653.4210205078125, -1358.8048095703125, -1309.479248046875, 0.0, 0.01600000075995922, 1.0240000486373901, 0.0, 0.0, 0.0, 0.0, 0.0, 1.6024559119221451E9, 2020-10-11 17:38:31.922
14.0, 1256.204345703125, 1828.1341552734375, -1213.7938232421875, -1106.4569091796875, 0.0, 0.01600000075995922, 1.0240000486373901, 0.0, 0.0, 0.0, 0.0, 0.0, 1.6024559119221451E9, 2020-10-11 17:38:31.922
15.0, 1429.7618408203125, 2011.30322265625, -1069.77783203125, -1191.56201171875, 0.0, 0.01600000075995922, 1.0240000486373901, 0.0, 0.0, 0.0, 0.0, 0.0, 1.6024559119228797E9, 2020-10-11 17:38:31.922
15.0, 1196.556640625, 1772.3199462890625, -1262.71923828125, -984.2706298828125, 0.0, 0.01600000075995922, 1.0240000486373901, 0.0, 0.0, 0.0, 0.0, 0.0, 1.6024559119228797E9, 2020-10-11 17:38:31.922
16.0, 1182.9322509765625, 1753.983154296875, -1272.1475830078125, -984.72314453125, 0.0, 0.01600000075995922, 1.0240000486373901, 0.0, 0.0, 0.0, 0.0, 0.0, 1.6024559119365103E9, 2020-10-11 17:38:31.936
16.0, 1377.7510986328125, 1953.9031982421875, -1120.5582275390625, -1101.8941650390625, 0.0, 0.01600000075995922, 1.0240000486373901, 0.0, 0.0, 0.0, 0.0, 0.0, 1.6024559119365103E9, 2020-10-11 17:38:31.936
17.0, 1218.58837890625, 1795.567138671875, -1264.5816650390625, -1232.691650390625, 0.0, 0.01600000075995922, 1.0240000486373901, 0.0, 0.0, 0.0, 0.0, 0.0, 1.602455911952148E9, 2020-10-11 17:38:31.952
17.0, 1039.177978515625, 1609.7501220703125, -1407.3074951171875, -1144.7889404296875, 0.0, 0.01600000075995922, 1.0240000486373901, 0.0, 0.0, 0.0, 0.0, 0.0, 1.602455911952148E9, 2020-10-11 17:38:31.952
18.0, 1212.6195068359375, 1779.7398681640625, -1270.277587890625, -1263.388671875, 0.0, 0.01600000075995922, 1.0240000486373901, 0.0, 0.0, 0.0, 0.0, 0.0, 1.6024559119528432E9, 2020-10-11 17:38:31.952
18.0, 1181.9560546875, 1764.039794921875, -1287.79150390625, -1483.177001953125, 0.0, 0.01600000075995922, 1.0240000486373901, 0.0, 0.0, 0.0, 0.0, 0.0, 1.6024559119528432E9, 2020-10-11 17:38:31.952
19.0, 1401.822998046875, 1972.0772705078125, -1519.4559326171875, -1684.7296142578125, 0.0, 0.01600000075995922, 1.0240000486373901, 0.0, 0.0, 0.0, 0.0, 0.0, 1.6024559119664652E9, 2020-10-11 17:38:31.966
19.0, 1527.91748046875, 2096.86279296875, -1418.6656494140625, -1843.5518798828125, 0.0, 0.01600000075995922, 1.0240000486373901, 0.0, 0.0, 0.0, 0.0, 0.0, 1.6024559119664652E9, 2020-10-11 17:38:31.966
20.0, 1643.5999755859375, 2221.958740234375, -1331.544677734375, -1773.282958984375, 0.0, 0.01600000075995922, 0.5120000243186951, 0.0, 0.0, 0.0, 0.0, 0.0, 1.602455911982169E9, 2020-10-11 17:38:31.982
20.0, 1876.317138671875, 2446.87451171875, -1543.630615234375, -1903.1865234375, 0.0, 0.01600000075995922, 0.5120000243186951, 0.0, 0.0, 0.0, 0.0, 0.0, 1.602455911982169E9, 2020-10-11 17:38:31.982
21.0, 1879.13330078125, 2446.844482421875, -1530.3277587890625, -2055.08251953125, 0.0, 0.01600000075995922, 0.5120000243186951, 0.0, 0.0, 0.0, 0.0, 0.0, 1.6024559119829156E9, 2020-10-11 17:38:31.982
21.0, 2080.755126953125, 2648.00634765625, -1382.0108642578125, -2169.57958984375, 0.0, 0.01600000075995922, 0.5120000243186951, 0.0, 0.0, 0.0, 0.0, 0.0, 1.6024559119829156E9, 2020-10-11 17:38:31.982
22.0, 1938.4854736328125, 2520.09033203125, -1489.4320068359375, -2382.579833984375, 0.0, 0.01600000075995922, 0.5120000243186951, 0.0, 0.0, 0.0, 0.0, 0.0, 1.6024559119965267E9, 2020-10-11 17:38:31.996
22.0, 1835.514892578125, 2411.334228515625, -1560.942626953125, -2422.9521484375, 0.0, 0.01600000075995922, 0.5120000243186951, 0.0, 0.0, 0.0, 0.0, 0.0, 1.6024559119965267E9, 2020-10-11 17:38:31.996
23.0, 2026.799560546875, 2608.905517578125, -1406.7578125, -2187.650634765625, 0.0, 0.01600000075995922, 0.5120000243186951, 0.0, 0.0, 0.0, 0.0, 0.0, 1.6024559120119596E9, 2020-10-11 17:38:32.011
23.0, 2074.408447265625, 2659.525146484375, -1378.7608642578125, -2078.318603515625, 0.0, 0.01600000075995922, 0.5120000243186951, 0.0, 0.0, 0.0, 0.0, 0.0, 1.6024559120119596E9, 2020-10-11 17:38:32.011
24.0, 1866.13720703125, 2442.016357421875, -1537.44482421875, -1988.6768798828125, 0.0, 0.01600000075995922, 0.5120000243186951, 0.0, 0.0, 0.0, 0.0, 0.0, 1.6024559120435317E9, 2020-10-11 17:38:32.043
24.0, 2015.7293701171875, 2589.312255859375, -1410.08251953125, -1810.9586181640625, 0.0, 0.01600000075995922, 0.5120000243186951, 0.0, 0.0, 0.0, 0.0, 0.0, 1.6024559120435317E9, 2020-10-11 17:38:32.043
25.0, 2172.461181640625, 2762.6865234375, -1274.4364013671875, -1872.0611572265625, 0.0, 0.01600000075995922, 0.5120000243186951, 0.0, 0.0, 0.0, 0.0, 0.0, 1.602455912044276E9, 2020-10-11 17:38:32.044
25.0, 1954.3426513671875, 2540.637451171875, -1445.0543212890625, -1677.2572021484375, 0.0, 0.01600000075995922, 0.5120000243186951, 0.0, 0.0, 0.0, 0.0, 0.0, 1.602455912044276E9, 2020-10-11 17:38:32.044
26.0, 2004.62939453125, 2585.36669921875, -1408.882080078125, -1462.9815673828125, 0.0, 0.01600000075995922, 0.5120000243186951, 0.0, 0.0, 0.0, 0.0, 0.0, 1.6024559120451128E9, 2020-10-11 17:38:32.045
26.0, 2222.310302734375, 2803.421630859375, -1244.98095703125, -1679.5030517578125, 0.0, 0.01600000075995922, 0.5120000243186951, 0.0, 0.0, 0.0, 0.0, 0.0, 1.6024559120451128E9, 2020-10-11 17:38:32.045
27.0, 2124.859619140625, 2713.14404296875, -1307.601806640625, -1492.5379638671875, 0.0, 0.01600000075995922, 0.5120000243186951, 0.0, 0.0, 0.0, 0.0, 0.0, 1.6024559120457268E9, 2020-10-11 17:38:32.045
27.0, 2035.9996337890625, 2617.9599609375, -1359.3470458984375, -1644.8154296875, 0.0, 0.01600000075995922, 0.5120000243186951, 0.0, 0.0, 0.0, 0.0, 0.0, 1.6024559120457268E9, 2020-10-11 17:38:32.045
28.0, 2260.827392578125, 2851.4306640625, -1167.748291015625, -1475.0557861328125, 0.0, 0.01600000075995922, 0.5120000243186951, 0.0, 0.0, 0.0, 0.0, 0.0, 1.6024559120564506E9, 2020-10-11 17:38:32.056
28.0, 2318.492919921875, 2915.640869140625, -1126.55322265625, -1452.2125244140625, 0.0, 0.01600000075995922, 0.5120000243186951, 0.0, 0.0, 0.0, 0.0, 0.0, 1.6024559120564506E9, 2020-10-11 17:38:32.056
29.0, 2128.603271484375, 2714.292236328125, -1277.0093994140625, -1441.8193359375, 0.0, 0.01600000075995922, 0.5120000243186951, 0.0, 0.0, 0.0, 0.0, 0.0, 1.6024559120718396E9, 2020-10-11 17:38:32.071
29.0, 2303.6904296875, 2890.751953125, -1133.45703125, -1313.0040283203125, 0.0, 0.01600000075995922, 0.5120000243186951, 0.0, 0.0, 0.0, 0.0, 0.0, 1.6024559120718396E9, 2020-10-11 17:38:32.071
30.0, 2472.23291015625, 3067.52197265625, -996.3486328125, -1416.7003173828125, 0.0, 0.01600000075995922, 0.7680000066757202, 0.0, 0.0, 0.0, 0.0, 0.0, 1.6024559120872364E9, 2020-10-11 17:38:32.087
30.0, 2260.4609375, 2852.62353515625, -1153.992919921875, -1183.7232666015625, 0.0, 0.01600000075995922, 0.7680000066757202, 0.0, 0.0, 0.0, 0.0, 0.0, 1.6024559120872364E9, 2020-10-11 17:38:32.087
31.0, 2295.922607421875, 2879.075927734375, -1124.40283203125, -1421.3265380859375, 0.0, 0.03200000151991844, 0.7680000066757202, 0.0, 0.0, 0.0, 0.0, 0.0, 1.6024559120879316E9, 2020-10-11 17:38:32.087
31.0, 2498.31494140625, 3090.507568359375, -961.9863891601562, -1612.2484130859375, 0.0, 0.03200000151991844, 0.7680000066757202, 0.0, 0.0, 0.0, 0.0, 0.0, 1.6024559120879316E9, 2020-10-11 17:38:32.087
32.0, 2379.363525390625, 2976.12255859375, -1061.96142578125, -1382.7906494140625, 0.0, 0.03200000151991844, 0.7680000066757202, 0.0, 0.0, 0.0, 0.0, 0.0, 1.602455912102136E9, 2020-10-11 17:38:32.102
32.0, 2275.353271484375, 2858.326904296875, -1136.119873046875, -1466.1268310546875, 0.0, 0.03200000151991844, 0.7680000066757202, 0.0, 0.0, 0.0, 0.0, 0.0, 1.602455912102136E9, 2020-10-11 17:38:32.102
33.0, 2489.26806640625, 3081.19140625, -965.0531616210938, -1268.8414306640625, 0.0, 0.03200000151991844, 0.7680000066757202, 0.0, 0.0, 0.0, 0.0, 0.0, 1.6024559121028748E9, 2020-10-11 17:38:32.102
33.0, 2520.417724609375, 3117.31884765625, -941.5216674804688, -1192.2333984375, 0.0, 0.03200000151991844, 0.7680000066757202, 0.0, 0.0, 0.0, 0.0, 0.0, 1.6024559121028748E9, 2020-10-11 17:38:32.102
34.0, 2300.45166015625, 2884.19970703125, -1122.4056396484375, -1061.6435546875, 0.0, 0.03200000151991844, 0.7680000066757202, 0.0, 0.0, 0.0, 0.0, 0.0, 1.6024559121164813E9, 2020-10-11 17:38:32.116
34.0, 2448.95556640625, 3034.663330078125, -997.1414794921875, -878.2631225585938, 0.0, 0.03200000151991844, 0.7680000066757202, 0.0, 0.0, 0.0, 0.0, 0.0, 1.6024559121164813E9, 2020-10-11 17:38:32.116
35.0, 2592.298583984375, 3194.506591796875, -873.975341796875, -949.6428833007812, 0.0, 0.03200000151991844, 0.7680000066757202, 0.0, 0.0, 0.0, 0.0, 0.0, 1.6024559121319237E9, 2020-10-11 17:38:32.131
35.0, 2357.73583984375, 3439.4794921875, -1056.6619873046875, -1146.4195556640625, 0.0, 0.03200000151991844, 0.7680000066757202, 0.0, 0.0, 0.0, 0.0, 0.0, 1.6024559121319237E9, 2020-10-11 17:38:32.131
36.0, 2405.57275390625, 3479.66845703125, -1030.9127197265625, -1347.7982177734375, 0.0, 0.03200000151991844, 0.7680000066757202, 0.0, 0.0, 0.0, 0.0, 0.0, 1.6024559121471736E9, 2020-10-11 17:38:32.147
36.0, 2597.04833984375, 3686.806396484375, -870.8787231445312, -1567.5771484375, 0.0, 0.03200000151991844, 0.7680000066757202, 0.0, 0.0, 0.0, 0.0, 0.0, 1.6024559121471736E9, 2020-10-11 17:38:32.147
37.0, 2471.810302734375, 3560.19580078125, -979.8855590820312, -1743.5526123046875, 0.0, 0.03200000151991844, 0.7680000066757202, 0.0, 0.0, 0.0, 0.0, 0.0, 1.602455912148219E9, 2020-10-11 17:38:32.148
37.0, 2357.11865234375, 3429.374267578125, -1088.6680908203125, -1717.4593505859375, 0.0, 0.03200000151991844, 0.7680000066757202, 0.0, 0.0, 0.0, 0.0, 0.0, 1.602455912148219E9, 2020-10-11 17:38:32.148
38.0, 2546.92236328125, 3621.7734375, -917.9229125976562, -1543.926025390625, 0.0, 0.03200000151991844, 0.7680000066757202, 0.0, 0.0, 0.0, 0.0, 0.0, 1.602455912162373E9, 2020-10-11 17:38:32.162
38.0, 2569.047607421875, 3657.22021484375, -897.4806518554688, -1431.6243896484375, 0.0, 0.03200000151991844, 0.7680000066757202, 0.0, 0.0, 0.0, 0.0, 0.0, 1.602455912162373E9, 2020-10-11 17:38:32.162
39.0, 2362.5341796875, 3442.381591796875, -1076.55078125, -1571.7939453125, 0.0, 0.03200000151991844, 0.7680000066757202, 0.0, 0.0, 0.0, 0.0, 0.0, 1.6024559121632783E9, 2020-10-11 17:38:32.163
39.0, 2465.08203125, 3542.311767578125, -980.3530883789062, -1450.6417236328125, 0.0, 0.03200000151991844, 0.7680000066757202, 0.0, 0.0, 0.0, 0.0, 0.0, 1.6024559121632783E9, 2020-10-11 17:38:32.163
40.0, 2598.49560546875, 3683.549072265625, -875.359130859375, -1610.5748291015625, 0.0, 0.03200000151991844, 0.8960000276565552, 0.0, 0.0, 0.0, 0.0, 0.0, 1.6024559121765337E9, 2020-10-11 17:38:32.176
40.0, 2401.750732421875, 3483.415771484375, -1040.060546875, -1620.6220703125, 0.0, 0.03200000151991844, 0.8960000276565552, 0.0, 0.0, 0.0, 0.0, 0.0, 1.6024559121765337E9, 2020-10-11 17:38:32.176
41.0, 2396.862548828125, 3471.3134765625, -1039.4434814453125, -1822.3934326171875, 0.0, 0.03200000151991844, 0.8960000276565552, 0.0, 0.0, 0.0, 0.0, 0.0, 1.602455912192345E9, 2020-10-11 17:38:32.192
41.0, 2581.1162109375, 3659.69970703125, -892.5289916992188, -1670.1776123046875, 0.0, 0.03200000151991844, 0.8960000276565552, 0.0, 0.0, 0.0, 0.0, 0.0, 1.602455912192345E9, 2020-10-11 17:38:32.192
42.0, 2493.10888671875, 3578.42041015625, -957.5733642578125, -1793.4840087890625, 0.0, 0.03200000151991844, 0.8960000276565552, 0.0, 0.0, 0.0, 0.0, 0.0, 1.6024559121933212E9, 2020-10-11 17:38:32.193
42.0, 2365.821533203125, 3439.587890625, -1060.6038818359375, -1701.5048828125, 0.0, 0.03200000151991844, 0.8960000276565552, 0.0, 0.0, 0.0, 0.0, 0.0, 1.6024559121933212E9, 2020-10-11 17:38:32.193
43.0, 2552.80908203125, 3626.029296875, -918.3754272460938, -1602.51904296875, 0.0, 0.03200000151991844, 0.8960000276565552, 0.0, 0.0, 0.0, 0.0, 0.0, 1.6024559122065241E9, 2020-10-11 17:38:32.206
43.0, 2592.6875, 3670.384521484375, -877.2515258789062, -1499.6307373046875, 0.0, 0.03200000151991844, 0.8960000276565552, 0.0, 0.0, 0.0, 0.0, 0.0, 1.6024559122065241E9, 2020-10-11 17:38:32.206
44.0, 2364.662109375, 3435.025146484375, -1079.4454345703125, -1626.598388671875, 0.0, 0.03200000151991844, 0.8960000276565552, 0.0, 0.0, 0.0, 0.0, 0.0, 1.602455912222191E9, 2020-10-11 17:38:32.222
44.0, 2457.748291015625, 3531.114501953125, -991.9879150390625, -1501.3472900390625, 0.0, 0.03200000151991844, 0.8960000276565552, 0.0, 0.0, 0.0, 0.0, 0.0, 1.602455912222191E9, 2020-10-11 17:38:32.222
45.0, 2597.1005859375, 3680.88623046875, -874.480224609375, -1651.8446044921875, 0.0, 0.03200000151991844, 0.8960000276565552, 0.0, 0.0, 0.0, 0.0, 0.0, 1.6024559122232316E9, 2020-10-11 17:38:32.223
45.0, 2394.525146484375, 3461.589599609375, -1076.4722900390625, -1651.8839111328125, 0.0, 0.03200000151991844, 0.8960000276565552, 0.0, 0.0, 0.0, 0.0, 0.0, 1.6024559122232316E9, 2020-10-11 17:38:32.223
46.0, 2392.2138671875, 3461.189453125, -1054.5078125, -1827.3525390625, 0.0, 0.03200000151991844, 0.8960000276565552, 0.0, 0.0, 0.0, 0.0, 0.0, 1.602455912236532E9, 2020-10-11 17:38:32.236
46.0, 2584.85986328125, 3659.0751953125, -878.1640625, -1657.7462158203125, 0.0, 0.03200000151991844, 0.8960000276565552, 0.0, 0.0, 0.0, 0.0, 0.0, 1.602455912236532E9, 2020-10-11 17:38:32.236
47.0, 2467.857177734375, 3546.997802734375, -974.2607421875, -1777.2379150390625, 0.0, 0.03200000151991844, 0.8960000276565552, 0.0, 0.0, 0.0, 0.0, 0.0, 1.602455912252196E9, 2020-10-11 17:38:32.252
47.0, 2337.772216796875, 3405.36767578125, -1098.2010498046875, -1663.1783447265625, 0.0, 0.03200000151991844, 0.8960000276565552, 0.0, 0.0, 0.0, 0.0, 0.0, 1.602455912252196E9, 2020-10-11 17:38:32.252
48.0, 2515.06591796875, 3583.611328125, -946.196533203125, -1564.25244140625, 0.0, 0.03200000151991844, 0.8960000276565552, 0.0, 0.0, 0.0, 0.0, 0.0, 1.60245591225321E9, 2020-10-11 17:38:32.253
48.0, 2559.05078125, 3637.06201171875, -905.3456420898438, -1449.5047607421875, 0.0, 0.03200000151991844, 0.8960000276565552, 0.0, 0.0, 0.0, 0.0, 0.0, 1.60245591225321E9, 2020-10-11 17:38:32.253
49.0, 2333.082275390625, 3399.2529296875, -1111.421630859375, -1559.75146484375, 0.0, 0.03200000151991844, 0.8960000276565552, 0.0, 0.0, 0.0, 0.0, 0.0, 1.6024559122669933E9, 2020-10-11 17:38:32.266
49.0, 2442.829833984375, 3509.01904296875, -1016.8021240234375, -1411.4962158203125, 0.0, 0.03200000151991844, 0.8960000276565552, 0.0, 0.0, 0.0, 0.0, 0.0, 1.6024559122669933E9, 2020-10-11 17:38:32.266
50.0, 2593.876708984375, 3673.428955078125, -881.33544921875, -1551.6826171875, 0.0, 0.03200000151991844, 0.9440000653266907, 0.0, 0.0, 0.0, 0.0, 0.0, 1.602455912282262E9, 2020-10-11 17:38:32.282
50.0, 2391.065673828125, 3461.8740234375, -1061.8829345703125, -1544.09814453125, 0.0, 0.03200000151991844, 0.9440000653266907, 0.0, 0.0, 0.0, 0.0, 0.0, 1.602455912282262E9, 2020-10-11 17:38:32.282
51.0, 2377.3291015625, 3438.39111328125, -1074.54248046875, -1719.6041259765625, 0.0, 0.03200000151991844, 0.9440000653266907, 0.0, 0.0, 0.0, 0.0, 0.0, 1.6024559122830763E9, 2020-10-11 17:38:32.283
51.0, 2556.986328125, 3625.07568359375, -917.9453735351562, -1560.7088623046875, 0.0, 0.03200000151991844, 0.9440000653266907, 0.0, 0.0, 0.0, 0.0, 0.0, 1.6024559122830763E9, 2020-10-11 17:38:32.283
52.0, 2468.73974609375, 3536.68310546875, -1004.0154418945312, -1670.1551513671875, 0.0, 0.03200000151991844, 0.9440000653266907, 0.0, 0.0, 0.0, 0.0, 0.0, 1.6024559122965965E9, 2020-10-11 17:38:32.296
52.0, 2312.59521484375, 3375.68798828125, -1131.377685546875, -1567.2630615234375, 0.0, 0.03200000151991844, 0.9440000653266907, 0.0, 0.0, 0.0, 0.0, 0.0, 1.6024559122965965E9, 2020-10-11 17:38:32.296
53.0, 2489.413818359375, 3558.479248046875, -976.3065185546875, -1457.3231201171875, 0.0, 0.03200000151991844, 0.9440000653266907, 0.0, 0.0, 0.0, 0.0, 0.0, 1.6024559123121774E9, 2020-10-11 17:38:32.312
53.0, 2537.318359375, 3605.833984375, -940.1416625976562, -1355.91943359375, 0.0, 0.03200000151991844, 0.9440000653266907, 0.0, 0.0, 0.0, 0.0, 0.0, 1.6024559123121774E9, 2020-10-11 17:38:32.312
54.0, 2311.031982421875, 3374.465087890625, -1134.50048828125, -1458.2486572265625, 0.0, 0.03200000151991844, 0.9440000653266907, 0.0, 0.0, 0.0, 0.0, 0.0, 1.6024559123128908E9, 2020-10-11 17:38:32.312
54.0, 2427.006103515625, 3496.72607421875, -1024.457763671875, -1303.9833984375, 0.0, 0.03200000151991844, 0.9440000653266907, 0.0, 0.0, 0.0, 0.0, 0.0, 1.6024559123128908E9, 2020-10-11 17:38:32.312
55.0, 2564.380126953125, 3640.734619140625, -905.5587768554688, -1453.2315673828125, 0.0, 0.03200000151991844, 0.9440000653266907, 0.0, 0.0, 0.0, 0.0, 0.0, 1.6024559123265152E9, 2020-10-11 17:38:32.326
55.0, 2355.92578125, 3429.448974609375, -1085.4329833984375, -1446.4736328125, 0.0, 0.03200000151991844, 0.9440000653266907, 0.0, 0.0, 0.0, 0.0, 0.0, 1.6024559123265152E9, 2020-10-11 17:38:32.326
56.0, 2352.742919921875, 3417.57861328125, -1093.7655029296875, -1622.088134765625, 0.0, 0.03200000151991844, 0.9440000653266907, 0.0, 0.0, 0.0, 0.0, 0.0, 1.6024559123422124E9, 2020-10-11 17:38:32.342
56.0, 2545.73681640625, 3616.29443359375, -922.7586059570312, -1445.92578125, 0.0, 0.03200000151991844, 0.9440000653266907, 0.0, 0.0, 0.0, 0.0, 0.0, 1.6024559123422124E9, 2020-10-11 17:38:32.342
57.0, 2429.00341796875, 3502.36962890625, -1032.595703125, -1578.133056640625, 0.0, 0.03200000151991844, 0.9440000653266907, 0.0, 0.0, 0.0, 0.0, 0.0, 1.6024559123429232E9, 2020-10-11 17:38:32.342
57.0, 2291.356201171875, 3355.791748046875, -1154.0714111328125, -1455.935546875, 0.0, 0.03200000151991844, 0.9440000653266907, 0.0, 0.0, 0.0, 0.0, 0.0, 1.6024559123429232E9, 2020-10-11 17:38:32.342
58.0, 2470.31787109375, 3539.5703125, -992.6386108398438, -1335.83056640625, 0.0, 0.03200000151991844, 0.9440000653266907, 0.0, 0.0, 0.0, 0.0, 0.0, 1.602455912356932E9, 2020-10-11 17:38:32.356
58.0, 2506.80078125, 3583.641357421875, -970.2777709960938, -1235.3543701171875, 0.0, 0.03200000151991844, 0.9440000653266907, 0.0, 0.0, 0.0, 0.0, 0.0, 1.602455912356932E9, 2020-10-11 17:38:32.356
59.0, 2285.125732421875, 3350.720458984375, -1159.217529296875, -1332.1785888671875, 0.0, 0.03200000151991844, 0.9440000653266907, 0.0, 0.0, 0.0, 0.0, 0.0, 1.6024559123727365E9, 2020-10-11 17:38:32.372
59.0, 2388.10009765625, 3454.805419921875, -1062.06982421875, -1170.964599609375, 0.0, 0.03200000151991844, 0.9440000653266907, 0.0, 0.0, 0.0, 0.0, 0.0, 1.6024559123727365E9, 2020-10-11 17:38:32.372
60.0, 2529.483154296875, 3603.20849609375, -937.5424194335938, -1320.2950439453125, 0.0, 0.03200000151991844, 0.9760000705718994, 0.0, 0.0, 0.0, 0.0, 0.0, 1.6024559123729243E9, 2020-10-11 17:38:32.372
60.0, 2323.777587890625, 3392.607177734375, -1123.4940185546875, -1299.31787109375, 0.0, 0.03200000151991844, 0.9760000705718994, 0.0, 0.0, 0.0, 0.0, 0.0, 1.6024559123729243E9, 2020-10-11 17:38:32.372
61.0, 2306.7646484375, 3372.1650390625, -1127.43212890625, -1456.655517578125, 0.0, 0.03200000151991844, 0.9760000705718994, 0.0, 0.0, 0.0, 0.0, 0.0, 1.6024559123868504E9, 2020-10-11 17:38:32.386
61.0, 2499.16748046875, 3569.740234375, -969.8551635742188, -1280.85595703125, 0.0, 0.03200000151991844, 0.9760000705718994, 0.0, 0.0, 0.0, 0.0, 0.0, 1.6024559123868504E9, 2020-10-11 17:38:32.386
62.0, 2403.73291015625, 3475.4609375, -1046.642822265625, -1385.8853759765625, 0.0, 0.03200000151991844, 0.9760000705718994, 0.0, 0.0, 0.0, 0.0, 0.0, 1.602455912402701E9, 2020-10-11 17:38:32.402
62.0, 2246.99365234375, 3304.547607421875, -1194.6568603515625, -1267.9364013671875, 0.0, 0.03200000151991844, 0.9760000705718994, 0.0, 0.0, 0.0, 0.0, 0.0, 1.602455912402701E9, 2020-10-11 17:38:32.402
63.0, 2430.5068359375, 3490.903076171875, -1027.101806640625, -1142.4609375, 0.0, 0.03200000151991844, 0.9760000705718994, 0.0, 0.0, 0.0, 0.0, 0.0, 1.6024559124029977E9, 2020-10-11 17:38:32.402
63.0, 2470.70703125, 3540.6025390625, -986.5762329101562, -1033.783203125, 0.0, 0.03200000151991844, 0.9760000705718994, 0.0, 0.0, 0.0, 0.0, 0.0, 1.6024559124029977E9, 2020-10-11 17:38:32.402
64.0, 2245.561279296875, 3310.580078125, -1179.169921875, -1145.91845703125, 0.0, 0.03200000151991844, 0.9760000705718994, 0.0, 0.0, 0.0, 0.0, 0.0, 1.6024559124168265E9, 2020-10-11 17:38:32.416
64.0, 2344.806884765625, 3409.062744140625, -1102.4832763671875, -1028.0162353515625, 0.0, 0.03200000151991844, 0.9760000705718994, 0.0, 0.0, 0.0, 0.0, 0.0, 1.6024559124168265E9, 2020-10-11 17:38:32.416
65.0, 2489.731689453125, 3561.201904296875, -971.7288818359375, -1195.6123046875, 0.0, 0.03200000151991844, 0.9760000705718994, 0.0, 0.0, 0.0, 0.0, 0.0, 1.6024559124321744E9, 2020-10-11 17:38:32.432
65.0, 2279.635498046875, 3358.03564453125, -1145.353759765625, -1182.7171630859375, 0.0, 0.03200000151991844, 0.9760000705718994, 0.0, 0.0, 0.0, 0.0, 0.0, 1.6024559124321744E9, 2020-10-11 17:38:32.432
66.0, 2246.75048828125, 3313.11181640625, -1175.9610595703125, -1290.8564453125, 0.0, 0.03200000151991844, 0.9760000705718994, 0.0, 0.0, 0.0, 0.0, 0.0, 1.602455912432896E9, 2020-10-11 17:38:32.432
66.0, 2421.934814453125, 3486.82275390625, -1036.73583984375, -1067.806884765625, 0.0, 0.03200000151991844, 0.9760000705718994, 0.0, 0.0, 0.0, 0.0, 0.0, 1.602455912432896E9, 2020-10-11 17:38:32.432
67.0, 2304.416015625, 3376.331298828125, -1151.3936767578125, -1141.3201904296875, 0.0, 0.03200000151991844, 0.9760000705718994, 0.0, 0.0, 0.0, 0.0, 0.0, 1.6024559124465313E9, 2020-10-11 17:38:32.446
67.0, 2154.86865234375, 3215.17138671875, -1278.389404296875, -968.9781494140625, 0.0, 0.03200000151991844, 0.9760000705718994, 0.0, 0.0, 0.0, 0.0, 0.0, 1.6024559124465313E9, 2020-10-11 17:38:32.446
68.0, 2300.58251953125, 3369.382568359375, -1139.4334716796875, -869.3004760742188, 0.0, 0.03200000151991844, 0.9760000705718994, 0.0, 0.0, 0.0, 0.0, 0.0, 1.6024559124625328E9, 2020-10-11 17:38:32.462
68.0, 2348.924560546875, 3424.044921875, -1097.3819580078125, -754.1826171875, 0.0, 0.03200000151991844, 0.9760000705718994, 0.0, 0.0, 0.0, 0.0, 0.0, 1.6024559124625328E9, 2020-10-11 17:38:32.462
69.0, 2141.55078125, 3208.076904296875, -1279.5936279296875, -774.798828125, 0.0, 0.03200000151991844, 0.9760000705718994, 0.0, 0.0, 0.0, 0.0, 0.0, 1.602455912462925E9, 2020-10-11 17:38:32.462
69.0, 2230.003173828125, 3291.083984375, -1207.1219482421875, -644.730712890625, 0.0, 0.03200000151991844, 0.9760000705718994, 0.0, 0.0, 0.0, 0.0, 0.0, 1.602455912462925E9, 2020-10-11 17:38:32.462
70.0, 2375.556396484375, 3440.96044921875, -1072.8743896484375, -828.9581909179688, 0.0, 0.03200000151991844, 0.9920000433921814, 0.0, 0.0, 0.0, 0.0, 0.0, 1.602455912476685E9, 2020-10-11 17:38:32.476
70.0, 2191.968505859375, 3258.03076171875, -1243.68310546875, -760.484375, 0.0, 0.03200000151991844, 0.9920000433921814, 0.0, 0.0, 0.0, 0.0, 0.0, 1.602455912476685E9, 2020-10-11 17:38:32.476
71.0, 2163.59375, 3226.12939453125, -1270.674072265625, -902.0283203125, 0.0, 0.03200000151991844, 0.9920000433921814, 0.0, 0.0, 0.0, 0.0, 0.0, 1.6024559124925692E9, 2020-10-11 17:38:32.492
71.0, 2336.68017578125, 3405.670654296875, -1120.5245361328125, -792.2791137695312, 0.0, 0.03200000151991844, 0.9920000433921814, 0.0, 0.0, 0.0, 0.0, 0.0, 1.6024559124925692E9, 2020-10-11 17:38:32.492
72.0, 2261.19775390625, 3329.870361328125, -1187.6220703125, -889.5520629882812, 0.0, 0.03200000151991844, 0.9920000433921814, 0.0, 0.0, 0.0, 0.0, 0.0, 1.6024559124934666E9, 2020-10-11 17:38:32.493
72.0, 2109.447509765625, 3169.368896484375, -1315.1563720703125, -708.653076171875, 0.0, 0.03200000151991844, 0.9920000433921814, 0.0, 0.0, 0.0, 0.0, 0.0, 1.6024559124934666E9, 2020-10-11 17:38:32.493
73.0, 2262.82080078125, 3326.620361328125, -1167.3367919921875, -650.3685913085938, 0.0, 0.03200000151991844, 0.9920000433921814, 0.0, 0.0, 0.0, 0.0, 0.0, 1.602455912506911E9, 2020-10-11 17:38:32.506
73.0, 2300.4404296875, 3372.12744140625, -1146.015625, -586.472412109375, 0.0, 0.03200000151991844, 0.9920000433921814, 0.0, 0.0, 0.0, 0.0, 0.0, 1.602455912506911E9, 2020-10-11 17:38:32.506
74.0, 2089.611083984375, 3160.067626953125, -1329.9552001953125, -601.8265991210938, 0.0, 0.03200000151991844, 0.9920000433921814, 0.0, 0.0, 0.0, 0.0, 0.0, 1.6024559125223563E9, 2020-10-11 17:38:32.522
74.0, 2194.6201171875, 3254.840576171875, -1241.1849365234375, -471.2872314453125, 0.0, 0.03200000151991844, 0.9920000433921814, 0.0, 0.0, 0.0, 0.0, 0.0, 1.6024559125223563E9, 2020-10-11 17:38:32.522
75.0, 2336.949462890625, 3405.812744140625, -1120.4683837890625, -683.4293212890625, 0.0, 0.03200000151991844, 0.9920000433921814, 0.0, 0.0, 0.0, 0.0, 0.0, 1.6024559125231948E9, 2020-10-11 17:38:32.523
75.0, 2166.941162109375, 3228.8857421875, -1281.089599609375, -614.2374267578125, 0.0, 0.03200000151991844, 0.9920000433921814, 0.0, 0.0, 0.0, 0.0, 0.0, 1.6024559125231948E9, 2020-10-11 17:38:32.523
76.0, 2132.62744140625, 3198.951416015625, -1292.18212890625, -784.0924682617188, 0.0, 0.03200000151991844, 0.9920000433921814, 0.0, 0.0, 0.0, 0.0, 0.0, 1.6024559125367706E9, 2020-10-11 17:38:32.536
76.0, 2312.763427734375, 3379.349365234375, -1135.745849609375, -707.4188842773438, 0.0, 0.03200000151991844, 0.9920000433921814, 0.0, 0.0, 0.0, 0.0, 0.0, 1.6024559125367706E9, 2020-10-11 17:38:32.536
77.0, 2232.142578125, 3310.5537109375, -1205.442626953125, -840.5125732421875, 0.0, 0.03200000151991844, 0.9920000433921814, 0.0, 0.0, 0.0, 0.0, 0.0, 1.602455912552183E9, 2020-10-11 17:38:32.552
77.0, 2113.112548828125, 3173.12744140625, -1321.102783203125, -674.8612060546875, 0.0, 0.03200000151991844, 0.9920000433921814, 0.0, 0.0, 0.0, 0.0, 0.0, 1.602455912552183E9, 2020-10-11 17:38:32.552
78.0, 2279.710205078125, 3345.974365234375, -1179.1773681640625, -651.8776245117188, 0.0, 0.03200000151991844, 0.9920000433921814, 0.0, 0.0, 0.0, 0.0, 0.0, 1.6024559125529025E9, 2020-10-11 17:38:32.552
78.0, 2323.8896484375, 3400.01220703125, -1127.809814453125, -612.6124267578125, 0.0, 0.03200000151991844, 0.9920000433921814, 0.0, 0.0, 0.0, 0.0, 0.0, 1.6024559125529025E9, 2020-10-11 17:38:32.552
79.0, 2138.611328125, 3206.801513671875, -1297.62744140625, -656.7974853515625, 0.0, 0.03200000151991844, 0.9920000433921814, 0.0, 0.0, 0.0, 0.0, 0.0, 1.6024559125828536E9, 2020-10-11 17:38:32.582
79.0, 2238.436767578125, 3312.6630859375, -1193.9051513671875, -558.7504272460938, 0.0, 0.03200000151991844, 0.9920000433921814, 0.0, 0.0, 0.0, 0.0, 0.0, 1.6024559125828536E9, 2020-10-11 17:38:32.582
80.0, 2385.676513671875, 3457.97314453125, -1066.655029296875, -320.20648193359375, 0.0, 0.03200000151991844, 1.0080000162124634, 0.0, 0.0, 0.0, 0.0, 0.0, 1.602455912583599E9, 2020-10-11 17:38:32.583
80.0, 2214.4453125, 3282.474609375, -1223.17724609375, -288.5931091308594, 0.0, 0.03200000151991844, 1.0080000162124634, 0.0, 0.0, 0.0, 0.0, 0.0, 1.602455912583599E9, 2020-10-11 17:38:32.583
81.0, 2203.206787109375, 3269.7177734375, -1230.043701171875, -474.6830749511719, 0.0, 0.03200000151991844, 1.0080000162124634, 0.0, 0.0, 0.0, 0.0, 0.0, 1.602455912584344E9, 2020-10-11 17:38:32.584
81.0, 2389.016357421875, 3458.309814453125, -1071.09423828125, -420.5835266113281, 0.0, 0.03200000151991844, 1.0080000162124634, 0.0, 0.0, 0.0, 0.0, 0.0, 1.602455912584344E9, 2020-10-11 17:38:32.584
82.0, 2333.523681640625, 3403.56884765625, -1124.3616943359375, -549.7353515625, 0.0, 0.03200000151991844, 1.0080000162124634, 0.0, 0.0, 0.0, 0.0, 0.0, 1.6024559125964808E9, 2020-10-11 17:38:32.596
82.0, 2201.153564453125, 3257.263916015625, -1239.7674560546875, -408.9019470214844, 0.0, 0.03200000151991844, 1.0080000162124634, 0.0, 0.0, 0.0, 0.0, 0.0, 1.6024559125964808E9, 2020-10-11 17:38:32.596
83.0, 2357.859130859375, 3420.1591796875, -1108.6092529296875, -414.62774658203125, 0.0, 0.03200000151991844, 1.0080000162124634, 0.0, 0.0, 0.0, 0.0, 0.0, 1.6024559126126199E9, 2020-10-11 17:38:32.612
83.0, 2412.427978515625, 3481.92724609375, -1053.842041015625, -378.0328369140625, 0.0, 0.03200000151991844, 1.0080000162124634, 0.0, 0.0, 0.0, 0.0, 0.0, 1.6024559126126199E9, 2020-10-11 17:38:32.612
84.0, 2223.858642578125, 3290.39208984375, -1209.80712890625, -415.40753173828125, 0.0, 0.03200000151991844, 1.0080000162124634, 0.0, 0.0, 0.0, 0.0, 0.0, 1.6024559126129773E9, 2020-10-11 17:38:32.612
84.0, 2324.005615234375, 3378.12646484375, -1126.9346923828125, -356.6144104003906, 0.0, 0.03200000151991844, 1.0080000162124634, 0.0, 0.0, 0.0, 0.0, 0.0, 1.6024559126129773E9, 2020-10-11 17:38:32.612
85.0, 2472.906005859375, 3543.650634765625, -990.7537231445312, -600.1866455078125, 0.0, 0.03200000151991844, 1.0080000162124634, 0.0, 0.0, 0.0, 0.0, 0.0, 1.6024559126264436E9, 2020-10-11 17:38:32.626
85.0, 2314.32666015625, 3377.72998046875, -1139.9981689453125, -541.7020874023438, 0.0, 0.03200000151991844, 1.0080000162124634, 0.0, 0.0, 0.0, 0.0, 0.0, 1.6024559126264436E9, 2020-10-11 17:38:32.626
86.0, 2307.35546875, 3361.248291015625, -1146.3148193359375, -735.7542724609375, 0.0, 0.03200000151991844, 1.0080000162124634, 0.0, 0.0, 0.0, 0.0, 0.0, 1.602455912642547E9, 2020-10-11 17:38:32.642
86.0, 2464.891357421875, 3532.40478515625, -1001.984619140625, -708.3538818359375, 0.0, 0.03200000151991844, 1.0080000162124634, 0.0, 0.0, 0.0, 0.0, 0.0, 1.602455912642547E9, 2020-10-11 17:38:32.642
87.0, 2418.39697265625, 3484.58642578125, -1060.7720947265625, -829.19189453125, 0.0, 0.03200000151991844, 1.0080000162124634, 0.0, 0.0, 0.0, 0.0, 0.0, 1.6024559126429548E9, 2020-10-11 17:38:32.642
87.0, 2292.620361328125, 3352.21630859375, -1167.0638427734375, -669.7786865234375, 0.0, 0.03200000151991844, 1.0080000162124634, 0.0, 0.0, 0.0, 0.0, 0.0, 1.6024559126429548E9, 2020-10-11 17:38:32.642
88.0, 2444.912841796875, 3519.51708984375, -1020.57568359375, -680.2803344726562, 0.0, 0.03200000151991844, 1.0080000162124634, 0.0, 0.0, 0.0, 0.0, 0.0, 1.602455912656466E9, 2020-10-11 17:38:32.656
88.0, 2510.884765625, 3579.486328125, -966.3209838867188, -634.3244018554688, 0.0, 0.03200000151991844, 1.0080000162124634, 0.0, 0.0, 0.0, 0.0, 0.0, 1.602455912656466E9, 2020-10-11 17:38:32.656
89.0, 2333.58349609375, 3382.79736328125, -1140.084228515625, -654.3235473632812, 0.0, 0.03200000151991844, 1.0080000162124634, 0.0, 0.0, 0.0, 0.0, 0.0, 1.602455912672393E9, 2020-10-11 17:38:32.672
89.0, 2399.14013671875, 3458.115234375, -1070.133056640625, -606.144287109375, 0.0, 0.03200000151991844, 1.0080000162124634, 0.0, 0.0, 0.0, 0.0, 0.0, 1.602455912672393E9, 2020-10-11 17:38:32.672
90.0, 2556.268310546875, 3627.48046875, -915.9482421875, -840.3854370117188, 0.0, 0.03200000151991844, 1.0080000162124634, 0.0, 0.0, 0.0, 0.0, 0.0, 1.602455912673354E9, 2020-10-11 17:38:32.673
90.0, 2368.33837890625, 3433.390869140625, -1086.741943359375, -762.0308227539062, 0.0, 0.03200000151991844, 1.0080000162124634, 0.0, 0.0, 0.0, 0.0, 0.0, 1.602455912673354E9, 2020-10-11 17:38:32.673
91.0, 2366.40869140625, 3424.938720703125, -1090.7213134765625, -937.9781494140625, 0.0, 0.03200000151991844, 1.0080000162124634, 0.0, 0.0, 0.0, 0.0, 0.0, 1.602455912686485E9, 2020-10-11 17:38:32.686
91.0, 2521.5322265625, 3592.134521484375, -947.9617919921875, -907.907470703125, 0.0, 0.03200000151991844, 1.0080000162124634, 0.0, 0.0, 0.0, 0.0, 0.0, 1.602455912686485E9, 2020-10-11 17:38:32.686
92.0, 2446.188232421875, 3517.314208984375, -1018.4551391601562, -1018.0269775390625, -0.01600000075995922, 0.03200000151991844, 1.0080000162124634, 0.0, 0.0, 0.0, 0.0, 0.0, 1.6024559127023344E9, 2020-10-11 17:38:32.702
92.0, 2342.27880859375, 3403.30712890625, -1113.05224609375, -818.3013305664062, -0.01600000075995922, 0.03200000151991844, 1.0080000162124634, 0.0, 0.0, 0.0, 0.0, 0.0, 1.6024559127023344E9, 2020-10-11 17:38:32.702
93.0, 2498.288818359375, 3563.763671875, -968.591064453125, -820.810791015625, -0.01600000075995922, 0.03200000151991844, 1.0080000162124634, 0.0, 0.0, 0.0, 0.0, 0.0, 1.602455912703328E9, 2020-10-11 17:38:32.703
93.0, 2548.994384765625, 3623.082275390625, -920.596923828125, -773.0111694335938, -0.01600000075995922, 0.03200000151991844, 1.0080000162124634, 0.0, 0.0, 0.0, 0.0, 0.0, 1.602455912703328E9, 2020-10-11 17:38:32.703
94.0, 2343.83837890625, 3399.742919921875, -1107.7789306640625, -762.0457763671875, -0.01600000075995922, 0.03200000151991844, 1.0080000162124634, 0.0, 0.0, 0.0, 0.0, 0.0, 1.6024559127165475E9, 2020-10-11 17:38:32.716
94.0, 2433.001220703125, 3496.5615234375, -1027.9656982421875, -683.9248657226562, -0.01600000075995922, 0.03200000151991844, 1.0080000162124634, 0.0, 0.0, 0.0, 0.0, 0.0, 1.6024559127165475E9, 2020-10-11 17:38:32.716
95.0, 2571.299072265625, 3650.043212890625, -894.9674072265625, -916.0043334960938, -0.01600000075995922, 0.03200000151991844, 1.0080000162124634, 0.0, 0.0, 0.0, 0.0, 0.0, 1.602455912732284E9, 2020-10-11 17:38:32.732
95.0, 2390.549560546875, 3457.68896484375, -1070.047119140625, -807.43505859375, -0.01600000075995922, 0.03200000151991844, 1.0080000162124634, 0.0, 0.0, 0.0, 0.0, 0.0, 1.602455912732284E9, 2020-10-11 17:38:32.732
96.0, 2368.199951171875, 3429.927734375, -1083.8809814453125, -959.248779296875, -0.01600000075995922, 0.03200000151991844, 1.0080000162124634, 0.0, 0.0, 0.0, 0.0, 0.0, 1.6024559127333386E9, 2020-10-11 17:38:32.733
96.0, 2535.7587890625, 3607.01953125, -935.3059692382812, -902.5463256835938, -0.01600000075995922, 0.03200000151991844, 1.0080000162124634, 0.0, 0.0, 0.0, 0.0, 0.0, 1.6024559127333386E9, 2020-10-11 17:38:32.733
97.0, 2449.415771484375, 3524.43115234375, -1007.1195068359375, -994.5160522460938, -0.01600000075995922, 0.03200000151991844, 1.0080000162124634, 0.0, 0.0, 0.0, 0.0, 0.0, 1.6024559127465198E9, 2020-10-11 17:38:32.746
97.0, 2322.446044921875, 3384.86181640625, -1125.85009765625, -781.8878173828125, -0.01600000075995922, 0.03200000151991844, 1.0080000162124634, 0.0, 0.0, 0.0, 0.0, 0.0, 1.6024559127465198E9, 2020-10-11 17:38:32.746
98.0, 2473.85595703125, 3548.942626953125, -986.0639038085938, -777.65234375, -0.01600000075995922, 0.03200000151991844, 1.0080000162124634, 0.0, 0.0, 0.0, 0.0, 0.0, 1.6024559127621803E9, 2020-10-11 17:38:32.762
98.0, 2507.111083984375, 3585.197021484375, -963.62451171875, -726.7448120117188, -0.01600000075995922, 0.03200000151991844, 1.0080000162124634, 0.0, 0.0, 0.0, 0.0, 0.0, 1.6024559127621803E9, 2020-10-11 17:38:32.762
99.0, 2306.1513671875, 3363.948486328125, -1150.6943359375, -700.748779296875, -0.01600000075995922, 0.03200000151991844, 1.0080000162124634, 0.0, 0.0, 0.0, 0.0, 0.0, 1.602455912762931E9, 2020-10-11 17:38:32.762
99.0, 2390.478515625, 3458.25, -1061.6173095703125, -618.3195190429688, -0.01600000075995922, 0.03200000151991844, 1.0080000162124634, 0.0, 0.0, 0.0, 0.0, 0.0, 1.602455912762931E9, 2020-10-11 17:38:32.762
100.0, 2536.716064453125, 3615.224853515625, -921.1167602539062, -853.622802734375, -0.01600000075995922, 0.03200000151991844, 1.0080000162124634, 0.0, 0.0, 0.0, 0.0, 0.0, 1.6024559127772164E9, 2020-10-11 17:38:32.777
100.0, 2362.616455078125, 3426.801025390625, -1091.596435546875, -726.6307983398438, -0.01600000075995922, 0.03200000151991844, 1.0080000162124634, 0.0, 0.0, 0.0, 0.0, 0.0, 1.6024559127772164E9, 2020-10-11 17:38:32.777
0.0, -108.03262329101562, -30.906532287597656, -1112.5491943359375, -397.00347900390625, -0.01600000075995922, 0.03200000151991844, 1.0080000162124634, 0.0, 0.0, 0.0, 0.0, 0.0, 1.6024559127779334E9, 2020-10-11 17:38:32.777
1.0, 67.54072570800781, 152.83848571777344, -949.205322265625, -347.54888916015625, -0.01600000075995922, 0.03200000151991844, 1.0080000162124634, 0.0, 0.0, 0.0, 0.0, 0.0, 1.6024559127917545E9, 2020-10-11 17:38:32.791
1.0, 5.219030380249023, 90.78233337402344, -1024.2276611328125, -417.4046325683594, -0.01600000075995922, 0.03200000151991844, 1.0080000162124634, 0.0, 0.0, 0.0, 0.0, 0.0, 1.6024559127917545E9, 2020-10-11 17:38:32.791
2.0, -145.2333984375, -71.41339111328125, -1161.81494140625, -209.83270263671875, 0.0, 0.03200000151991844, 1.0080000162124634, 0.0, 0.0, 0.0, 0.0, 0.0, 1.6024559128072567E9, 2020-10-11 17:38:32.807
2.0, 23.0994930267334, 103.75604248046875, -997.9736328125, -191.43426513671875, 0.0, 0.03200000151991844, 1.0080000162124634, 0.0, 0.0, 0.0, 0.0, 0.0, 1.6024559128072567E9, 2020-10-11 17:38:32.807
3.0, 64.1635971069336, 154.15867614746094, -956.8309936523438, -146.9032745361328, 0.0, 0.03200000151991844, 1.0080000162124634, 0.0, 0.0, 0.0, 0.0, 0.0, 1.602455912808074E9, 2020-10-11 17:38:32.808
3.0, -148.554443359375, -73.2309799194336, -1153.1719970703125, -105.28192138671875, 0.0, 0.03200000151991844, 1.0080000162124634, 0.0, 0.0, 0.0, 0.0, 0.0, 1.602455912808074E9, 2020-10-11 17:38:32.808
4.0, -69.3283920288086, 10.030411720275879, -1079.87744140625, -30.26888084411621, 0.0, 0.03200000151991844, 1.0080000162124634, 0.0, 0.0, 0.0, 0.0, 0.0, 1.6024559128215308E9, 2020-10-11 17:38:32.821
4.0, 75.41695404052734, 162.91378784179688, -958.0838012695312, 205.49627685546875, 0.0, 0.03200000151991844, 1.0080000162124634, 0.0, 0.0, 0.0, 0.0, 0.0, 1.6024559128215308E9, 2020-10-11 17:38:32.821
5.0, -112.59903717041016, -28.520477294921875, -1119.7821044921875, 329.8703918457031, 0.0, 0.03200000151991844, 1.0080000162124634, 0.0, 0.0, 0.0, 0.0, 0.0, 1.6024559128375208E9, 2020-10-11 17:38:32.837
5.0, -121.35414123535156, -50.563446044921875, -1141.9635009765625, 169.89991760253906, 0.0, 0.03200000151991844, 1.0080000162124634, 0.0, 0.0, 0.0, 0.0, 0.0, 1.6024559128375208E9, 2020-10-11 17:38:32.837
6.0, 44.31220626831055, 126.68537139892578, -979.4573364257812, 213.92041015625, 0.0, 0.03200000151991844, 1.0080000162124634, 0.0, 0.0, 0.0, 0.0, 0.0, 1.6024559128383963E9, 2020-10-11 17:38:32.838
6.0, -44.383262634277344, 44.81148147583008, -1052.7593994140625, 119.61322021484375, 0.0, 0.03200000151991844, 1.0080000162124634, 0.0, 0.0, 0.0, 0.0, 0.0, 1.6024559128383963E9, 2020-10-11 17:38:32.838
7.0, -180.44456481933594, -101.80007934570312, -1176.2396240234375, 345.4433288574219, 0.0, 0.03200000151991844, 1.0080000162124634, 0.0, 0.0, 0.0, 0.0, 0.0, 1.6024559128519237E9, 2020-10-11 17:38:32.851
7.0, -20.245948791503906, 68.72066497802734, -1035.6231689453125, 337.5970153808594, 0.0, 0.03200000151991844, 1.0080000162124634, 0.0, 0.0, 0.0, 0.0, 0.0, 1.6024559128519237E9, 2020-10-11 17:38:32.851
8.0, 31.697521209716797, 121.85716247558594, -988.1676025390625, 399.941162109375, 0.0, 0.03200000151991844, 1.0080000162124634, 0.0, 0.0, 0.0, 0.0, 0.0, 1.60245591286741E9, 2020-10-11 17:38:32.867
8.0, -193.2425079345703, -102.92952728271484, -1189.1273193359375, 430.8402099609375, 0.0, 0.03200000151991844, 1.0080000162124634, 0.0, 0.0, 0.0, 0.0, 0.0, 1.60245591286741E9, 2020-10-11 17:38:32.867
9.0, -105.51192474365234, -17.34565544128418, -1111.980712890625, 505.7672424316406, 0.0, 0.03200000151991844, 1.0080000162124634, 0.0, 0.0, 0.0, 0.0, 0.0, 1.6024559128683093E9, 2020-10-11 17:38:32.868
9.0, 65.06864929199219, 163.1007843017578, -942.4398193359375, 272.45733642578125, 0.0, 0.03200000151991844, 1.0080000162124634, 0.0, 0.0, 0.0, 0.0, 0.0, 1.6024559128683093E9, 2020-10-11 17:38:32.868
10.0, -141.96847534179688, -43.46885681152344, -1134.8951416015625, 374.5752868652344, 0.0, 0.03200000151991844, 1.0080000162124634, 0.0, 0.0, 0.0, 0.0, 0.0, 1.6024559128816564E9, 2020-10-11 17:38:32.881
10.0, -169.42681884765625, -82.57698822021484, -1151.8480224609375, 209.3278045654297, 0.0, 0.03200000151991844, 1.0080000162124634, 0.0, 0.0, 0.0, 0.0, 0.0, 1.6024559128816564E9, 2020-10-11 17:38:32.881
11.0, 21.644670486450195, 110.5477066040039, -997.2555541992188, 243.38894653320312, 0.0, 0.03200000151991844, 1.0080000162124634, 0.0, 0.0, 0.0, 0.0, 0.0, 1.6024559128973072E9, 2020-10-11 17:38:32.897
11.0, -50.692474365234375, 39.066993713378906, -1069.1513671875, 157.369384765625, 0.0, 0.03200000151991844, 1.0080000162124634, 0.0, 0.0, 0.0, 0.0, 0.0, 1.6024559128973072E9, 2020-10-11 17:38:32.897
12.0, -200.32212829589844, -119.73289489746094, -1197.474853515625, 378.0384521484375, 0.0, 0.03200000151991844, 1.0080000162124634, 0.0, 0.0, 0.0, 0.0, 0.0, 1.602455912898112E9, 2020-10-11 17:38:32.898
12.0, -14.88293170928955, 64.31880187988281, -1035.54833984375, 365.9099426269531, 0.0, 0.03200000151991844, 1.0080000162124634, 0.0, 0.0, 0.0, 0.0, 0.0, 1.602455912898112E9, 2020-10-11 17:38:32.898
13.0, 14.220969200134277, 102.6565170288086, -1007.2335815429688, 402.5572204589844, 0.0, 0.03200000151991844, 1.0080000162124634, 0.0, 0.0, 0.0, 0.0, 0.0, 1.6024559129117095E9, 2020-10-11 17:38:32.911
13.0, -196.28677368164062, -118.00506591796875, -1189.8304443359375, 443.7559509277344, 0.0, 0.03200000151991844, 1.0080000162124634, 0.0, 0.0, 0.0, 0.0, 0.0, 1.6024559129117095E9, 2020-10-11 17:38:32.911
14.0, -112.21756744384766, -34.1378059387207, -1121.6221923828125, 513.3311767578125, 0.0, 0.03200000151991844, 1.0080000162124634, 0.0, 0.0, 0.0, 0.0, 0.0, 1.602455912927152E9, 2020-10-11 17:38:32.927
14.0, 62.7835693359375, 148.49647521972656, -967.2353515625, 751.3253173828125, 0.0, 0.03200000151991844, 1.0080000162124634, 0.0, 0.0, 0.0, 0.0, 0.0, 1.602455912927152E9, 2020-10-11 17:38:32.927
15.0, -132.7234344482422, -49.475135803222656, -1138.952880859375, 866.9817504882812, 0.0, 0.03200000151991844, 1.0080000162124634, 0.0, 0.0, 0.0, 0.0, 0.0, 1.6024559129279103E9, 2020-10-11 17:38:32.927
15.0, -168.6414337158203, -87.925048828125, -1169.294677734375, 705.6686401367188, 0.0, 0.03200000151991844, 1.0080000162124634, 0.0, 0.0, 0.0, 0.0, 0.0, 1.6024559129279103E9, 2020-10-11 17:38:32.927
16.0, 37.853397369384766, 122.72481536865234, -983.1823120117188, 739.1239013671875, 0.0, 0.03200000151991844, 1.0080000162124634, 0.0, 0.0, 0.0, 0.0, 0.0, 1.6024559129414935E9, 2020-10-11 17:38:32.941
16.0, -43.07429885864258, 40.05432891845703, -1045.1749267578125, 650.0151977539062, 0.0, 0.03200000151991844, 1.0080000162124634, 0.0, 0.0, 0.0, 0.0, 0.0, 1.6024559129414935E9, 2020-10-11 17:38:32.941
17.0, -197.5097198486328, -122.41814422607422, -1199.1689453125, 862.1348266601562, 0.0, 0.03200000151991844, 1.0080000162124634, 0.0, 0.0, 0.0, 0.0, 0.0, 1.602455912957136E9, 2020-10-11 17:38:32.957
17.0, -19.965456008911133, 54.42302322387695, -1045.3095703125, 850.4775390625, 0.0, 0.03200000151991844, 1.0080000162124634, 0.0, 0.0, 0.0, 0.0, 0.0, 1.602455912957136E9, 2020-10-11 17:38:32.957
18.0, 46.15971374511719, 127.20895385742188, -990.0076293945312, 897.3160400390625, 0.0, 0.03200000151991844, 1.0080000162124634, 0.0, 0.0, 0.0, 0.0, 0.0, 1.602455912957894E9, 2020-10-11 17:38:32.957
18.0, -184.88755798339844, -114.65411376953125, -1194.1463623046875, 938.3951416015625, 0.0, 0.03200000151991844, 1.0080000162124634, 0.0, 0.0, 0.0, 0.0, 0.0, 1.602455912957894E9, 2020-10-11 17:38:32.957
19.0, -100.19378662109375, -29.085201263427734, -1114.987548828125, 1005.1055908203125, 0.0, 0.03200000151991844, 1.0080000162124634, 0.0, 0.0, 0.0, 0.0, 0.0, 1.6024559129714987E9, 2020-10-11 17:38:32.971
19.0, 63.150081634521484, 153.21621704101562, -967.1007080078125, 1233.185302734375, 0.0, 0.03200000151991844, 1.0080000162124634, 0.0, 0.0, 0.0, 0.0, 0.0, 1.6024559129714987E9, 2020-10-11 17:38:32.971
20.0, -141.2092742919922, -56.19199752807617, -1148.8935546875, 1351.7513427734375, 0.0, 0.03200000151991844, 1.0240000486373901, 0.0, 0.0, 0.0, 0.0, 0.0, 1.6024559129871795E9, 2020-10-11 17:38:32.987
20.0, -168.92567443847656, -94.29035949707031, -1173.7750244140625, 1189.005859375, 0.0, 0.03200000151991844, 1.0240000486373901, 0.0, 0.0, 0.0, 0.0, 0.0, 1.6024559129871795E9, 2020-10-11 17:38:32.987
21.0, 29.681716918945312, 116.61382293701172, -987.5841674804688, 1222.49853515625, 0.0, 0.03200000151991844, 1.0240000486373901, 0.0, 0.0, 0.0, 0.0, 0.0, 1.6024559129879038E9, 2020-10-11 17:38:32.987
21.0, -49.08431625366211, 39.392364501953125, -1059.902587890625, 1127.10302734375, 0.0, 0.03200000151991844, 1.0240000486373901, 0.0, 0.0, 0.0, 0.0, 0.0, 1.6024559129879038E9, 2020-10-11 17:38:32.987
22.0, -200.33709716796875, -127.92327880859375, -1196.7567138671875, 1351.87841796875, 0.0, 0.03200000151991844, 1.0240000486373901, 0.0, 0.0, 0.0, 0.0, 0.0, 1.6024559130014677E9, 2020-10-11 17:38:33.001
22.0, -27.748188018798828, 51.490943908691406, -1040.473876953125, 1332.8572998046875, 0.0, 0.03200000151991844, 1.0240000486373901, 0.0, 0.0, 0.0, 0.0, 0.0, 1.6024559130014677E9, 2020-10-11 17:38:33.001
23.0, 50.890689849853516, 137.92376708984375, -973.5520629882812, 1375.4361572265625, 0.0, 0.03200000151991844, 1.0240000486373901, 0.0, 0.0, 0.0, 0.0, 0.0, 1.6024559130171704E9, 2020-10-11 17:38:33.017
23.0, 294.03094482421875, 373.5243835449219, -1199.68505859375, 1403.7957763671875, 0.0, 0.03200000151991844, 1.0240000486373901, 0.0, 0.0, 0.0, 0.0, 0.0, 1.6024559130171704E9, 2020-10-11 17:38:33.017
24.0, 373.4252624511719, 456.1649475097656, -1117.4521484375, 1459.23046875, 0.0, 0.03200000151991844, 1.0240000486373901, 0.0, 0.0, 0.0, 0.0, 0.0, 1.6024559130179267E9, 2020-10-11 17:38:33.017
24.0, 569.6390991210938, 649.659912109375, -949.6727905273438, 1684.3106689453125, 0.0, 0.03200000151991844, 1.0240000486373901, 0.0, 0.0, 0.0, 0.0, 0.0, 1.6024559130179267E9, 2020-10-11 17:38:33.017
25.0, 370.5231018066406, 445.0499572753906, -1131.7685546875, 1800.243896484375, 0.0, 0.03200000151991844, 1.0240000486373901, 0.0, 0.0, 0.0, 0.0, 0.0, 1.6024559130314746E9, 2020-10-11 17:38:33.031
25.0, 332.5780944824219, 403.6268310546875, -1173.333740234375, 1634.667236328125, 0.0, 0.03200000151991844, 1.0240000486373901, 0.0, 0.0, 0.0, 0.0, 0.0, 1.6024559130314746E9, 2020-10-11 17:38:33.031
26.0, 547.06884765625, 611.6176147460938, -996.4627075195312, 1650.49267578125, 0.0, 0.03200000151991844, 1.0240000486373901, 0.0, 0.0, 0.0, 0.0, 0.0, 1.6024559130635943E9, 2020-10-11 17:38:33.063
26.0, 470.5691833496094, 538.0911865234375, -1072.307861328125, 1559.4578857421875, 0.0, 0.03200000151991844, 1.0240000486373901, 0.0, 0.0, 0.0, 0.0, 0.0, 1.6024559130635943E9, 2020-10-11 17:38:33.063
27.0, 294.2852478027344, 341.2228698730469, -1234.1519775390625, 1789.787109375, 0.0, 0.03200000151991844, 1.0240000486373901, 0.0, 0.0, 0.0, 0.0, 0.0, 1.6024559130642257E9, 2020-10-11 17:38:33.064
27.0, 442.87896728515625, 503.0445861816406, -1107.49658203125, 1749.6055908203125, 0.0, 0.03200000151991844, 1.0240000486373901, 0.0, 0.0, 0.0, 0.0, 0.0, 1.6024559130642257E9, 2020-10-11 17:38:33.064
28.0, 521.2223510742188, 577.909912109375, -1049.8385009765625, 1795.6849365234375, 0.0, 0.03200000151991844, 1.0240000486373901, 0.0, 0.0, 0.0, 0.0, 0.0, 1.6024559130650823E9, 2020-10-11 17:38:33.065
28.0, 765.2489624023438, 819.7486572265625, -1262.5452880859375, 1856.7462158203125, 0.0, 0.03200000151991844, 1.0240000486373901, 0.0, 0.0, 0.0, 0.0, 0.0, 1.6024559130650823E9, 2020-10-11 17:38:33.065
29.0, 866.8209228515625, 916.7392578125, -1170.8392333984375, 1925.98486328125, 0.0, 0.03200000151991844, 1.0240000486373901, 0.0, 0.0, 0.0, 0.0, 0.0, 1.602455913065774E9, 2020-10-11 17:38:33.065
29.0, 1029.177490234375, 1092.2789306640625, -1018.150390625, 2135.697998046875, 0.0, 0.03200000151991844, 1.0240000486373901, 0.0, 0.0, 0.0, 0.0, 0.0, 1.602455913065774E9, 2020-10-11 17:38:33.065
30.0, 832.2230834960938, 891.034912109375, -1205.1004638671875, 2270.390380859375, 0.0, 0.03200000151991844, 1.0080000162124634, 0.0, 0.0, 0.0, 0.0, 0.0, 1.6024559130764873E9, 2020-10-11 17:38:33.076
30.0, 794.3341674804688, 849.4808959960938, -1228.2242431640625, 2114.47021484375, 0.0, 0.03200000151991844, 1.0080000162124634, 0.0, 0.0, 0.0, 0.0, 0.0, 1.6024559130764873E9, 2020-10-11 17:38:33.076
31.0, 1016.914306640625, 1074.865966796875, -1031.6177978515625, 2134.125244140625, 0.0, 0.03200000151991844, 1.0080000162124634, 0.0, 0.0, 0.0, 0.0, 0.0, 1.6024559130914795E9, 2020-10-11 17:38:33.091
31.0, 937.1908569335938, 999.8847045898438, -1102.79931640625, 2045.4765625, 0.0, 0.03200000151991844, 1.0080000162124634, 0.0, 0.0, 0.0, 0.0, 0.0, 1.6024559130914795E9, 2020-10-11 17:38:33.091
32.0, 776.2704467773438, 820.2535400390625, -1249.9156494140625, 1806.9139404296875, 0.0, 0.03200000151991844, 1.0080000162124634, 0.0, 0.0, 0.0, 0.0, 0.0, 1.6024559131073396E9, 2020-10-11 17:38:33.107
32.0, 943.0325927734375, 1000.7785034179688, -1099.2425537109375, 1770.4910888671875, 0.0, 0.03200000151991844, 1.0080000162124634, 0.0, 0.0, 0.0, 0.0, 0.0, 1.6024559131073396E9, 2020-10-11 17:38:33.107
33.0, 1014.47216796875, 1071.88525390625, -1025.708740234375, 1802.9384765625, 0.0, 0.03200000151991844, 1.0080000162124634, 0.0, 0.0, 0.0, 0.0, 0.0, 1.6024559131083407E9, 2020-10-11 17:38:33.108
33.0, 780.5975341796875, 838.3733520507812, -1239.6683349609375, 1882.9835205078125, 0.0, 0.03200000151991844, 1.0080000162124634, 0.0, 0.0, 0.0, 0.0, 0.0, 1.6024559131083407E9, 2020-10-11 17:38:33.108
34.0, 866.0729370117188, 925.0567626953125, -1152.4801025390625, 1948.654296875, 0.0, 0.03200000151991844, 1.0080000162124634, 0.0, 0.0, 0.0, 0.0, 0.0, 1.602455913137935E9, 2020-10-11 17:38:33.137
34.0, 1041.376953125, 1092.271484375, -1007.4318237304688, 2152.1142578125, 0.0, 0.03200000151991844, 1.0080000162124634, 0.0, 0.0, 0.0, 0.0, 0.0, 1.602455913137935E9, 2020-10-11 17:38:33.137
35.0, 853.6602172851562, 909.1135864257812, -1174.7998046875, 2304.62744140625, 0.0, 0.03200000151991844, 1.0080000162124634, 0.0, 0.0, 0.0, 0.0, 0.0, 1.602455913138746E9, 2020-10-11 17:38:33.138
35.0, 816.77734375, 867.712890625, -1207.9876708984375, 2162.645751953125, 0.0, 0.03200000151991844, 1.0080000162124634, 0.0, 0.0, 0.0, 0.0, 0.0, 1.602455913138746E9, 2020-10-11 17:38:33.138
36.0, 1023.9864501953125, 1067.906005859375, -1024.24267578125, 2168.4482421875, 0.0, 0.03200000151991844, 1.0080000162124634, 0.0, 0.0, 0.0, 0.0, 0.0, 1.6024559131396952E9, 2020-10-11 17:38:33.139
36.0, 933.4322509765625, 998.9197998046875, -1099.560546875, 2067.263427734375, 0.0, 0.03200000151991844, 1.0080000162124634, 0.0, 0.0, 0.0, 0.0, 0.0, 1.6024559131396952E9, 2020-10-11 17:38:33.139
37.0, 777.564453125, 827.5276489257812, -1243.8907470703125, 1842.3514404296875, 0.0, 0.03200000151991844, 1.0080000162124634, 0.0, 0.0, 0.0, 0.0, 0.0, 1.602455913151598E9, 2020-10-11 17:38:33.151
37.0, 948.743408203125, 1003.0972900390625, -1085.7864990234375, 1798.09716796875, 0.0, 0.03200000151991844, 1.0080000162124634, 0.0, 0.0, 0.0, 0.0, 0.0, 1.602455913151598E9, 2020-10-11 17:38:33.151
38.0, 1011.1660766601562, 1076.8218994140625, -1032.272216796875, 1816.5086669921875, 0.0, 0.03200000151991844, 1.0080000162124634, 0.0, 0.0, 0.0, 0.0, 0.0, 1.6024559131675076E9, 2020-10-11 17:38:33.167
38.0, 786.9403686523438, 852.9739379882812, -1224.7274169921875, 1915.1373291015625, 0.0, 0.03200000151991844, 1.0080000162124634, 0.0, 0.0, 0.0, 0.0, 0.0, 1.6024559131675076E9, 2020-10-11 17:38:33.167
39.0, 858.3088989257812, 926.8182373046875, -1151.3282470703125, 1970.3812255859375, 0.0, 0.03200000151991844, 1.0080000162124634, 0.0, 0.0, 0.0, 0.0, 0.0, 1.6024559131683297E9, 2020-10-11 17:38:33.168
39.0, 1021.6640014648438, 1096.1534423828125, -1014.2234497070312, 2157.6435546875, 0.0, 0.03200000151991844, 1.0080000162124634, 0.0, 0.0, 0.0, 0.0, 0.0, 1.6024559131683297E9, 2020-10-11 17:38:33.168
40.0, 844.9387817382812, 915.5162963867188, -1173.763916015625, 2320.9501953125, 0.0, 0.03200000151991844, 1.0080000162124634, 0.0, 0.0, 0.0, 0.0, 0.0, 1.602455913181532E9, 2020-10-11 17:38:33.181
40.0, 810.5391845703125, 869.156494140625, -1199.681396484375, 2177.124755859375, 0.0, 0.03200000151991844, 1.0080000162124634, 0.0, 0.0, 0.0, 0.0, 0.0, 1.602455913181532E9, 2020-10-11 17:38:33.181
41.0, 1002.5531005859375, 1067.094482421875, -1036.2926025390625, 2168.769775390625, 0.0, 0.03200000151991844, 1.0080000162124634, 0.0, 0.0, 0.0, 0.0, 0.0, 1.602455913197182E9, 2020-10-11 17:38:33.197
41.0, 950.0299682617188, 1023.9060668945312, -1074.5330810546875, 2079.111328125, 0.0, 0.03200000151991844, 1.0080000162124634, 0.0, 0.0, 0.0, 0.0, 0.0, 1.602455913197182E9, 2020-10-11 17:38:33.197
42.0, 788.9038696289062, 847.3902587890625, -1215.258056640625, 1858.8668212890625, 0.0, 0.03200000151991844, 1.0080000162124634, 0.0, 0.0, 0.0, 0.0, 0.0, 1.6024559131981723E9, 2020-10-11 17:38:33.198
42.0, 954.0578002929688, 1016.8563842773438, -1076.1787109375, 1796.631103515625, 0.0, 0.03200000151991844, 1.0080000162124634, 0.0, 0.0, 0.0, 0.0, 0.0, 1.6024559131981723E9, 2020-10-11 17:38:33.198
43.0, 1019.5472412109375, 1089.8629150390625, -1012.8397216796875, 1813.976806640625, 0.0, 0.03200000151991844, 1.0080000162124634, 0.0, 0.0, 0.0, 0.0, 0.0, 1.602455913211512E9, 2020-10-11 17:38:33.211
43.0, 798.2349243164062, 866.66943359375, -1208.5224609375, 1907.8594970703125, 0.0, 0.03200000151991844, 1.0080000162124634, 0.0, 0.0, 0.0, 0.0, 0.0, 1.602455913211512E9, 2020-10-11 17:38:33.211
44.0, 888.306640625, 950.2300415039062, -1134.7828369140625, 1965.455810546875, 0.0, 0.03200000151991844, 1.0080000162124634, 0.0, 0.0, 0.0, 0.0, 0.0, 1.602455913227169E9, 2020-10-11 17:38:33.227
44.0, 1042.66357421875, 1115.6944580078125, -982.1014404296875, 2151.9814453125, 0.0, 0.03200000151991844, 1.0080000162124634, 0.0, 0.0, 0.0, 0.0, 0.0, 1.602455913227169E9, 2020-10-11 17:38:33.227
45.0, 862.0076904296875, 929.5521240234375, -1152.54736328125, 2306.121337890625, 0.0, 0.03200000151991844, 1.0080000162124634, 0.0, 0.0, 0.0, 0.0, 0.0, 1.6024559132278874E9, 2020-10-11 17:38:33.227
45.0, 818.6884155273438, 884.1609497070312, -1181.699951171875, 2165.6806640625, 0.0, 0.03200000151991844, 1.0080000162124634, 0.0, 0.0, 0.0, 0.0, 0.0, 1.6024559132278874E9, 2020-10-11 17:38:33.227
46.0, 1015.0144653320312, 1089.283203125, -1005.816162109375, 2146.7568359375, 0.0, 0.03200000151991844, 1.0080000162124634, 0.0, 0.0, 0.0, 0.0, 0.0, 1.6024559132417326E9, 2020-10-11 17:38:33.241
46.0, 947.7000122070312, 1027.24951171875, -1065.456298828125, 2061.2607421875, 0.0, 0.03200000151991844, 1.0080000162124634, 0.0, 0.0, 0.0, 0.0, 0.0, 1.6024559132417326E9, 2020-10-11 17:38:33.241
47.0, 781.072509765625, 852.8206176757812, -1216.0322265625, 1849.4085693359375, 0.0, 0.03200000151991844, 1.0080000162124634, 0.0, 0.0, 0.0, 0.0, 0.0, 1.6024559132571492E9, 2020-10-11 17:38:33.257
47.0, 953.167724609375, 1019.758544921875, -1067.07568359375, 1793.2763671875, 0.0, 0.03200000151991844, 1.0080000162124634, 0.0, 0.0, 0.0, 0.0, 0.0, 1.6024559132571492E9, 2020-10-11 17:38:33.257
48.0, 1022.898193359375, 1097.43994140625, -1007.6749267578125, 1816.7218017578125, 0.0, 0.03200000151991844, 1.0080000162124634, 0.0, 0.0, 0.0, 0.0, 0.0, 1.602455913257886E9, 2020-10-11 17:38:33.257
48.0, 792.5016479492188, 863.4793090820312, -1208.3280029296875, 1927.3070068359375, 0.0, 0.03200000151991844, 1.0080000162124634, 0.0, 0.0, 0.0, 0.0, 0.0, 1.602455913257886E9, 2020-10-11 17:38:33.257
49.0, 884.2152099609375, 948.853759765625, -1131.4169921875, 1992.042724609375, 0.0, 0.03200000151991844, 1.0080000162124634, 0.0, 0.0, 0.0, 0.0, 0.0, 1.602455913271845E9, 2020-10-11 17:38:33.271
49.0, 1024.2669677734375, 1097.2081298828125, -1003.4487915039062, 2160.867431640625, 0.0, 0.03200000151991844, 1.0080000162124634, 0.0, 0.0, 0.0, 0.0, 0.0, 1.602455913271845E9, 2020-10-11 17:38:33.271
50.0, 838.891357421875, 912.6178588867188, -1156.3770751953125, 2345.2333984375, 0.0, 0.03200000151991844, 1.0080000162124634, 0.0, 0.0, 0.0, 0.0, 0.0, 1.6024559132874205E9, 2020-10-11 17:38:33.287
50.0, 795.8226318359375, 869.298583984375, -1195.750732421875, 2222.224365234375, 0.0, 0.03200000151991844, 1.0080000162124634, 0.0, 0.0, 0.0, 0.0, 0.0, 1.6024559132874205E9, 2020-10-11 17:38:33.287
51.0, 982.6792602539062, 1058.2869873046875, -1031.052978515625, 2203.248046875, 0.0, 0.03200000151991844, 1.0080000162124634, 0.0, 0.0, 0.0, 0.0, 0.0, 1.6024559132881973E9, 2020-10-11 17:38:33.288
51.0, 920.1294555664062, 999.9968872070312, -1088.7484130859375, 2126.615478515625, 0.0, 0.03200000151991844, 1.0080000162124634, 0.0, 0.0, 0.0, 0.0, 0.0, 1.6024559132881973E9, 2020-10-11 17:38:33.288
52.0, 775.8403930664062, 843.4371948242188, -1224.357177734375, 1951.2535400390625, -0.01600000075995922, 0.03200000151991844, 1.0080000162124634, 0.0, 0.0, 0.0, 0.0, 0.0, 1.6024559133015163E9, 2020-10-11 17:38:33.301
52.0, 926.27783203125, 991.7578735351562, -1087.0916748046875, 1887.678955078125, -0.01600000075995922, 0.03200000151991844, 1.0080000162124634, 0.0, 0.0, 0.0, 0.0, 0.0, 1.6024559133015163E9, 2020-10-11 17:38:33.301
53.0, 989.5419921875, 1061.6192626953125, -1032.1937255859375, 1893.584228515625, -0.01600000075995922, 0.03200000151991844, 1.0080000162124634, 0.0, 0.0, 0.0, 0.0, 0.0, 1.6024559133174472E9, 2020-10-11 17:38:33.317
53.0, 765.8997192382812, 834.4913330078125, -1232.7906494140625, 2031.683837890625, -0.01600000075995922, 0.03200000151991844, 1.0080000162124634, 0.0, 0.0, 0.0, 0.0, 0.0, 1.6024559133174472E9, 2020-10-11 17:38:33.317
54.0, 847.8035278320312, 915.800537109375, -1160.7078857421875, 2098.19970703125, -0.01600000075995922, 0.03200000151991844, 1.0080000162124634, 0.0, 0.0, 0.0, 0.0, 0.0, 1.6024559133181632E9, 2020-10-11 17:38:33.318
54.0, 1001.947265625, 1072.74169921875, -1014.40673828125, 2271.2880859375, -0.01600000075995922, 0.03200000151991844, 1.0080000162124634, 0.0, 0.0, 0.0, 0.0, 0.0, 1.6024559133181632E9, 2020-10-11 17:38:33.318
55.0, 820.4686279296875, 890.0999145507812, -1181.3184814453125, 2454.674072265625, -0.01600000075995922, 0.03200000151991844, 1.0080000162124634, 0.0, 0.0, 0.0, 0.0, 0.0, 1.6024559133315322E9, 2020-10-11 17:38:33.331
55.0, 794.6370849609375, 858.3967895507812, -1201.8916015625, 2350.873046875, -0.01600000075995922, 0.03200000151991844, 1.0080000162124634, 0.0, 0.0, 0.0, 0.0, 0.0, 1.6024559133315322E9, 2020-10-11 17:38:33.331
56.0, 973.0191040039062, 1042.5233154296875, -1037.83349609375, 2309.27783203125, -0.01600000075995922, 0.03200000151991844, 1.0080000162124634, 0.0, 0.0, 0.0, 0.0, 0.0, 1.60245591334718E9, 2020-10-11 17:38:33.347
56.0, 915.9445190429688, 995.6885375976562, -1094.45556640625, 2225.977294921875, -0.01600000075995922, 0.03200000151991844, 1.0080000162124634, 0.0, 0.0, 0.0, 0.0, 0.0, 1.60245591334718E9, 2020-10-11 17:38:33.347
57.0, 760.005615234375, 830.5831909179688, -1228.5758056640625, 2047.8739013671875, -0.01600000075995922, 0.03200000151991844, 1.0080000162124634, 0.0, 0.0, 0.0, 0.0, 0.0, 1.602455913347885E9, 2020-10-11 17:38:33.347
57.0, 934.62158203125, 1005.520751953125, -1073.037109375, 1984.501220703125, -0.01600000075995922, 0.03200000151991844, 1.0080000162124634, 0.0, 0.0, 0.0, 0.0, 0.0, 1.602455913347885E9, 2020-10-11 17:38:33.347
58.0, 973.9241943359375, 1055.052001953125, -1042.4522705078125, 1964.159912109375, -0.01600000075995922, 0.03200000151991844, 1.0080000162124634, 0.0, 0.0, 0.0, 0.0, 0.0, 1.6024559133614435E9, 2020-10-11 17:38:33.361
58.0, 761.355712890625, 832.9205932617188, -1235.84619140625, 2104.148193359375, -0.01600000075995922, 0.03200000151991844, 1.0080000162124634, 0.0, 0.0, 0.0, 0.0, 0.0, 1.6024559133614435E9, 2020-10-11 17:38:33.361
59.0, 833.3525390625, 896.9888305664062, -1175.2747802734375, 2144.226806640625, -0.01600000075995922, 0.03200000151991844, 1.0080000162124634, 0.0, 0.0, 0.0, 0.0, 0.0, 1.6024559133771648E9, 2020-10-11 17:38:33.377
59.0, 998.637451171875, 1076.533935546875, -1017.8362426757812, 2298.75390625, -0.01600000075995922, 0.03200000151991844, 1.0080000162124634, 0.0, 0.0, 0.0, 0.0, 0.0, 1.6024559133771648E9, 2020-10-11 17:38:33.377
60.0, 814.312744140625, 885.35400390625, -1199.55419921875, 2470.486328125, -0.01600000075995922, 0.03200000151991844, 1.0080000162124634, 0.0, 0.0, 0.0, 0.0, 0.0, 1.6024559133782852E9, 2020-10-11 17:38:33.378
60.0, 783.8923950195312, 850.4757080078125, -1216.361328125, 2343.935546875, -0.01600000075995922, 0.03200000151991844, 1.0080000162124634, 0.0, 0.0, 0.0, 0.0, 0.0, 1.6024559133782852E9, 2020-10-11 17:38:33.378
61.0, 977.1517333984375, 1046.7493896484375, -1040.3280029296875, 2292.070556640625, -0.01600000075995922, 0.03200000151991844, 1.0080000162124634, 0.0, 0.0, 0.0, 0.0, 0.0, 1.602455913391499E9, 2020-10-11 17:38:33.391
61.0, 939.8873291015625, 1006.7025146484375, -1082.7122802734375, 2195.37744140625, -0.01600000075995922, 0.03200000151991844, 1.0080000162124634, 0.0, 0.0, 0.0, 0.0, 0.0, 1.602455913391499E9, 2020-10-11 17:38:33.391
62.0, 756.9127197265625, 820.0142211914062, -1245.786865234375, 1983.8018798828125, 0.0, 0.03200000151991844, 1.0080000162124634, 0.0, 0.0, 0.0, 0.0, 0.0, 1.6024559134071944E9, 2020-10-11 17:38:33.407
62.0, 930.0476684570312, 1001.47412109375, -1078.2506103515625, 1902.6497802734375, 0.0, 0.03200000151991844, 1.0080000162124634, 0.0, 0.0, 0.0, 0.0, 0.0, 1.6024559134071944E9, 2020-10-11 17:38:33.407
63.0, 999.9351806640625, 1075.008056640625, -1015.9550170898438, 1888.146484375, 0.0, 0.03200000151991844, 1.0080000162124634, 0.0, 0.0, 0.0, 0.0, 0.0, 1.6024559134081612E9, 2020-10-11 17:38:33.408
63.0, 777.646728515625, 842.0496826171875, -1226.75830078125, 2009.6370849609375, 0.0, 0.03200000151991844, 1.0080000162124634, 0.0, 0.0, 0.0, 0.0, 0.0, 1.6024559134081612E9, 2020-10-11 17:38:33.408
64.0, 867.7484130859375, 934.6945190429688, -1147.031005859375, 2059.634033203125, 0.0, 0.03200000151991844, 1.0080000162124634, 0.0, 0.0, 0.0, 0.0, 0.0, 1.6024559134217582E9, 2020-10-11 17:38:33.421
64.0, 1039.3836669921875, 1108.2109375, -986.4584350585938, 2202.61962890625, 0.0, 0.03200000151991844, 1.0080000162124634, 0.0, 0.0, 0.0, 0.0, 0.0, 1.6024559134217582E9, 2020-10-11 17:38:33.421
65.0, 862.8416748046875, 928.3217163085938, -1154.013427734375, 2393.23486328125, 0.0, 0.03200000151991844, 1.0080000162124634, 0.0, 0.0, 0.0, 0.0, 0.0, 1.602455913437194E9, 2020-10-11 17:38:33.437
65.0, 805.2247924804688, 869.3584594726562, -1202.923828125, 2265.075927734375, 0.0, 0.03200000151991844, 1.0080000162124634, 0.0, 0.0, 0.0, 0.0, 0.0, 1.602455913437194E9, 2020-10-11 17:38:33.437
66.0, 1002.874755859375, 1070.01904296875, -1022.1370849609375, 2223.667724609375, 0.0, 0.03200000151991844, 1.0080000162124634, 0.0, 0.0, 0.0, 0.0, 0.0, 1.6024559134381812E9, 2020-10-11 17:38:33.438
66.0, 945.6654663085938, 1013.7223510742188, -1087.5592041015625, 2130.845458984375, 0.0, 0.03200000151991844, 1.0080000162124634, 0.0, 0.0, 0.0, 0.0, 0.0, 1.6024559134381812E9, 2020-10-11 17:38:33.438
67.0, 763.7118530273438, 829.823974609375, -1239.6534423828125, 1946.58984375, 0.0, 0.03200000151991844, 1.0080000162124634, 0.0, 0.0, 0.0, 0.0, 0.0, 1.6024559134519725E9, 2020-10-11 17:38:33.451
67.0, 931.2219848632812, 998.560791015625, -1086.182861328125, 1878.6171875, 0.0, 0.03200000151991844, 1.0080000162124634, 0.0, 0.0, 0.0, 0.0, 0.0, 1.6024559134519725E9, 2020-10-11 17:38:33.451
68.0, 1002.79248046875, 1079.0770263671875, -1021.82666015625, 1875.8758544921875, 0.0, 0.03200000151991844, 1.0080000162124634, 0.0, 0.0, 0.0, 0.0, 0.0, 1.6024559134671752E9, 2020-10-11 17:38:33.467
68.0, 783.2154541015625, 849.7052612304688, -1218.616455078125, 2025.886962890625, 0.0, 0.03200000151991844, 1.0080000162124634, 0.0, 0.0, 0.0, 0.0, 0.0, 1.6024559134671752E9, 2020-10-11 17:38:33.467
69.0, 863.952392578125, 927.90283203125, -1144.648681640625, 2080.55859375, 0.0, 0.03200000151991844, 1.0080000162124634, 0.0, 0.0, 0.0, 0.0, 0.0, 1.6024559134678957E9, 2020-10-11 17:38:33.467
69.0, 1037.76806640625, 1113.0390625, -991.3016357421875, 2236.275146484375, 0.0, 0.03200000151991844, 1.0080000162124634, 0.0, 0.0, 0.0, 0.0, 0.0, 1.6024559134678957E9, 2020-10-11 17:38:33.467
70.0, 842.283447265625, 911.7838745117188, -1172.8251953125, 2412.607666015625, 0.0, 0.03200000151991844, 1.0240000486373901, 0.0, 0.0, 0.0, 0.0, 0.0, 1.602455913481865E9, 2020-10-11 17:38:33.481
70.0, 784.4982299804688, 850.6402587890625, -1217.9656982421875, 2293.828369140625, 0.0, 0.03200000151991844, 1.0240000486373901, 0.0, 0.0, 0.0, 0.0, 0.0, 1.602455913481865E9, 2020-10-11 17:38:33.481
71.0, 991.1015625, 1063.9827880859375, -1033.6260986328125, 2256.134033203125, 0.0, 0.03200000151991844, 1.0240000486373901, 0.0, 0.0, 0.0, 0.0, 0.0, 1.6024559134971964E9, 2020-10-11 17:38:33.497
71.0, 931.41650390625, 1003.2655639648438, -1085.161865234375, 2165.061767578125, 0.0, 0.03200000151991844, 1.0240000486373901, 0.0, 0.0, 0.0, 0.0, 0.0, 1.6024559134971964E9, 2020-10-11 17:38:33.497
72.0, 745.9249267578125, 809.647216796875, -1253.8948974609375, 1980.5594482421875, 0.0, 0.03200000151991844, 1.0240000486373901, 0.0, 0.0, 0.0, 0.0, 0.0, 1.6024559134979625E9, 2020-10-11 17:38:33.497
72.0, 919.5086059570312, 991.941162109375, -1093.1802978515625, 1917.4635009765625, 0.0, 0.03200000151991844, 1.0240000486373901, 0.0, 0.0, 0.0, 0.0, 0.0, 1.6024559134979625E9, 2020-10-11 17:38:33.497
73.0, 987.945068359375, 1069.607666015625, -1028.659423828125, 1906.550537109375, 0.0, 0.03200000151991844, 1.0240000486373901, 0.0, 0.0, 0.0, 0.0, 0.0, 1.6024559135119615E9, 2020-10-11 17:38:33.511
73.0, 756.3629760742188, 838.2462158203125, -1228.3065185546875, 2055.088134765625, 0.0, 0.03200000151991844, 1.0240000486373901, 0.0, 0.0, 0.0, 0.0, 0.0, 1.6024559135119615E9, 2020-10-11 17:38:33.511
74.0, 851.8987426757812, 921.2271118164062, -1149.3685302734375, 2117.602294921875, 0.0, 0.03200000151991844, 1.0240000486373901, 0.0, 0.0, 0.0, 0.0, 0.0, 1.6024559135272465E9, 2020-10-11 17:38:33.527
74.0, 1012.4600830078125, 1087.7611083984375, -1002.5213012695312, 2259.941162109375, 0.0, 0.03200000151991844, 1.0240000486373901, 0.0, 0.0, 0.0, 0.0, 0.0, 1.6024559135272465E9, 2020-10-11 17:38:33.527
75.0, 844.5123901367188, 914.0951538085938, -1166.2802734375, 2446.779052734375, 0.0, 0.03200000151991844, 1.0240000486373901, 0.0, 0.0, 0.0, 0.0, 0.0, 1.6024559135279644E9, 2020-10-11 17:38:33.527
75.0, 794.9849243164062, 860.8651123046875, -1206.9329833984375, 2333.729248046875, 0.0, 0.03200000151991844, 1.0240000486373901, 0.0, 0.0, 0.0, 0.0, 0.0, 1.6024559135279644E9, 2020-10-11 17:38:33.527
76.0, 983.0009155273438, 1058.2532958984375, -1038.60009765625, 2280.787353515625, 0.0, 0.03200000151991844, 1.0240000486373901, 0.0, 0.0, 0.0, 0.0, 0.0, 1.6024559135419302E9, 2020-10-11 17:38:33.541
76.0, 927.4484252929688, 1006.1864013671875, -1092.768798828125, 2187.1533203125, 0.0, 0.03200000151991844, 1.0240000486373901, 0.0, 0.0, 0.0, 0.0, 0.0, 1.6024559135419302E9, 2020-10-11 17:38:33.541
77.0, 760.0841674804688, 828.0400390625, -1242.6116943359375, 2013.7734375, 0.0, 0.03200000151991844, 1.0240000486373901, 0.0, 0.0, 0.0, 0.0, 0.0, 1.602455913557228E9, 2020-10-11 17:38:33.557
77.0, 916.9205932617188, 993.3473510742188, -1091.26171875, 1942.666748046875, 0.0, 0.03200000151991844, 1.0240000486373901, 0.0, 0.0, 0.0, 0.0, 0.0, 1.602455913557228E9, 2020-10-11 17:38:33.557
78.0, 993.8204345703125, 1073.437255859375, -1018.034423828125, 1936.529541015625, 0.0, 0.03200000151991844, 1.0240000486373901, 0.0, 0.0, 0.0, 0.0, 0.0, 1.6024559135579476E9, 2020-10-11 17:38:33.557
78.0, 768.9664306640625, 841.2493286132812, -1227.1285400390625, 2083.90771484375, 0.0, 0.03200000151991844, 1.0240000486373901, 0.0, 0.0, 0.0, 0.0, 0.0, 1.6024559135579476E9, 2020-10-11 17:38:33.557
79.0, 842.728515625, 916.716796875, -1159.3726806640625, 2153.8046875, 0.0, 0.03200000151991844, 1.0240000486373901, 0.0, 0.0, 0.0, 0.0, 0.0, 1.602455913571763E9, 2020-10-11 17:38:33.571
79.0, 1010.5565185546875, 1090.487548828125, -1007.5851440429688, 2296.465087890625, 0.0, 0.03200000151991844, 1.0240000486373901, 0.0, 0.0, 0.0, 0.0, 0.0, 1.602455913571763E9, 2020-10-11 17:38:33.571
80.0, 833.0608520507812, 906.5480346679688, -1176.243408203125, 2482.719482421875, 0.0, 0.03200000151991844, 1.0240000486373901, 0.0, 0.0, 0.0, 0.0, 0.0, 1.6024559135877151E9, 2020-10-11 17:38:33.587
80.0, 783.4772338867188, 849.5220336914062, -1218.3060302734375, 2384.7939453125, 0.0, 0.03200000151991844, 1.0240000486373901, 0.0, 0.0, 0.0, 0.0, 0.0, 1.6024559135877151E9, 2020-10-11 17:38:33.587
81.0, 980.622314453125, 1056.14404296875, -1036.180419921875, 2349.668701171875, 0.0, 0.03200000151991844, 1.0240000486373901, 0.0, 0.0, 0.0, 0.0, 0.0, 1.6024559135884244E9, 2020-10-11 17:38:33.588
81.0, 906.5424194335938, 987.9319458007812, -1096.7181396484375, 2238.7041015625, 0.0, 0.03200000151991844, 1.0240000486373901, 0.0, 0.0, 0.0, 0.0, 0.0, 1.6024559135884244E9, 2020-10-11 17:38:33.588
82.0, 745.67431640625, 809.624755859375, -1255.73876953125, 2077.363037109375, 0.0, 0.03200000151991844, 1.0240000486373901, 0.0, 0.0, 0.0, 0.0, 0.0, 1.6024559136014638E9, 2020-10-11 17:38:33.601
82.0, 913.1021728515625, 982.6923828125, -1102.8441162109375, 2012.4869384765625, 0.0, 0.03200000151991844, 1.0240000486373901, 0.0, 0.0, 0.0, 0.0, 0.0, 1.6024559136014638E9, 2020-10-11 17:38:33.601
83.0, 992.9004516601562, 1070.9951171875, -1023.4946899414062, 2004.7977294921875, 0.0, 0.03200000151991844, 1.0240000486373901, 0.0, 0.0, 0.0, 0.0, 0.0, 1.6024559136177144E9, 2020-10-11 17:38:33.617
83.0, 760.9967041015625, 834.0350952148438, -1225.056640625, 2149.494384765625, 0.0, 0.03200000151991844, 1.0240000486373901, 0.0, 0.0, 0.0, 0.0, 0.0, 1.6024559136177144E9, 2020-10-11 17:38:33.617
84.0, 811.9341430664062, 885.8327026367188, -1178.0235595703125, 2191.536376953125, 0.0, 0.03200000151991844, 1.0240000486373901, 0.0, 0.0, 0.0, 0.0, 0.0, 1.6024559136183949E9, 2020-10-11 17:38:33.618
84.0, 982.7503662109375, 1071.6982421875, -1022.4736938476562, 2331.6611328125, 0.0, 0.03200000151991844, 1.0240000486373901, 0.0, 0.0, 0.0, 0.0, 0.0, 1.6024559136183949E9, 2020-10-11 17:38:33.618
85.0, 807.670654296875, 886.8873291015625, -1183.955078125, 2504.4931640625, 0.0, 0.03200000151991844, 1.0240000486373901, 0.0, 0.0, 0.0, 0.0, 0.0, 1.6024559136314602E9, 2020-10-11 17:38:33.631
85.0, 770.14453125, 837.5206909179688, -1214.0426025390625, 2408.833984375, 0.0, 0.03200000151991844, 1.0240000486373901, 0.0, 0.0, 0.0, 0.0, 0.0, 1.6024559136314602E9, 2020-10-11 17:38:33.631
86.0, 959.140380859375, 1036.1280517578125, -1044.2286376953125, 2356.179931640625, 0.0, 0.03200000151991844, 1.0240000486373901, 0.0, 0.0, 0.0, 0.0, 0.0, 1.602455913647581E9, 2020-10-11 17:38:33.647
86.0, 923.2373046875, 1000.3783569335938, -1087.4881591796875, 2254.54248046875, 0.0, 0.03200000151991844, 1.0240000486373901, 0.0, 0.0, 0.0, 0.0, 0.0, 1.602455913647581E9, 2020-10-11 17:38:33.647
87.0, 734.34619140625, 802.993896484375, -1256.8944091796875, 2072.88623046875, 0.0, 0.03200000151991844, 1.0240000486373901, 0.0, 0.0, 0.0, 0.0, 0.0, 1.602455913648305E9, 2020-10-11 17:38:33.648
87.0, 898.50537109375, 976.1924438476562, -1102.0849609375, 2005.6353759765625, 0.0, 0.03200000151991844, 1.0240000486373901, 0.0, 0.0, 0.0, 0.0, 0.0, 1.602455913648305E9, 2020-10-11 17:38:33.648
88.0, 981.9051513671875, 1062.602783203125, -1014.4740600585938, 1997.17578125, 0.0, 0.03200000151991844, 1.0240000486373901, 0.0, 0.0, 0.0, 0.0, 0.0, 1.6024559136614652E9, 2020-10-11 17:38:33.661
88.0, 740.62548828125, 818.088134765625, -1232.7047119140625, 2137.7998046875, 0.0, 0.03200000151991844, 1.0240000486373901, 0.0, 0.0, 0.0, 0.0, 0.0, 1.6024559136614652E9, 2020-10-11 17:38:33.661
89.0, 819.4251708984375, 896.9065551757812, -1166.3514404296875, 2200.0, 0.0, 0.03200000151991844, 1.0240000486373901, 0.0, 0.0, 0.0, 0.0, 0.0, 1.6024559136936412E9, 2020-10-11 17:38:33.693
89.0, 988.0086669921875, 1070.2620849609375, -1009.066162109375, 2349.388427734375, 0.0, 0.03200000151991844, 1.0240000486373901, 0.0, 0.0, 0.0, 0.0, 0.0, 1.6024559136936412E9, 2020-10-11 17:38:33.693
90.0, 826.5048217773438, 903.9899291992188, -1168.415771484375, 2526.487548828125, 0.0, 0.03200000151991844, 1.0240000486373901, 0.0, 0.0, 0.0, 0.0, 0.0, 1.602455913694473E9, 2020-10-11 17:38:33.694
90.0, 769.45263671875, 840.2171630859375, -1220.12744140625, 2430.925537109375, 0.0, 0.03200000151991844, 1.0240000486373901, 0.0, 0.0, 0.0, 0.0, 0.0, 1.602455913694473E9, 2020-10-11 17:38:33.694
91.0, 948.612548828125, 1032.859375, -1049.561767578125, 2372.86376953125, 0.0, 0.03200000151991844, 1.0240000486373901, 0.0, 0.0, 0.0, 0.0, 0.0, 1.6024559136951535E9, 2020-10-11 17:38:33.695
91.0, 888.706787109375, 981.9743041992188, -1106.064208984375, 2255.892578125, 0.0, 0.03200000151991844, 1.0240000486373901, 0.0, 0.0, 0.0, 0.0, 0.0, 1.6024559136951535E9, 2020-10-11 17:38:33.695
92.0, 715.8748168945312, 793.9508666992188, -1256.9205322265625, 2084.91748046875, 0.0, 0.03200000151991844, 1.0240000486373901, 0.0, 0.0, 0.0, 0.0, 0.0, 1.6024559136958516E9, 2020-10-11 17:38:33.695
92.0, 891.0816650390625, 973.080810546875, -1104.572021484375, 2019.345947265625, 0.0, 0.03200000151991844, 1.0240000486373901, 0.0, 0.0, 0.0, 0.0, 0.0, 1.6024559136958516E9, 2020-10-11 17:38:33.695
93.0, 966.5565795898438, 1049.49072265625, -1043.8734130859375, 1979.242919921875, 0.0, 0.03200000151991844, 1.0240000486373901, 0.0, 0.0, 0.0, 0.0, 0.0, 1.6024559137065773E9, 2020-10-11 17:38:33.706
93.0, 748.688720703125, 823.6643676757812, -1236.2501220703125, 2126.78564453125, 0.0, 0.03200000151991844, 1.0240000486373901, 0.0, 0.0, 0.0, 0.0, 0.0, 1.6024559137065773E9, 2020-10-11 17:38:33.706
94.0, 834.4520874023438, 906.1927490234375, -1152.7156982421875, 2190.47802734375, 0.0, 0.03200000151991844, 1.0240000486373901, 0.0, 0.0, 0.0, 0.0, 0.0, 1.602455913721526E9, 2020-10-11 17:38:33.721
94.0, 988.932373046875, 1076.0364990234375, -1013.3184204101562, 2312.427001953125, 0.0, 0.03200000151991844, 1.0240000486373901, 0.0, 0.0, 0.0, 0.0, 0.0, 1.602455913721526E9, 2020-10-11 17:38:33.721
95.0, 823.785888671875, 904.2142944335938, -1171.80419921875, 2477.693115234375, 0.0, 0.03200000151991844, 1.0240000486373901, 0.0, 0.0, 0.0, 0.0, 0.0, 1.6024559137371552E9, 2020-10-11 17:38:33.737
95.0, 777.2540283203125, 849.495849609375, -1204.93212890625, 2382.793212890625, 0.0, 0.03200000151991844, 1.0240000486373901, 0.0, 0.0, 0.0, 0.0, 0.0, 1.6024559137371552E9, 2020-10-11 17:38:33.737
96.0, 969.9262084960938, 1054.711669921875, -1032.152587890625, 2322.633056640625, 0.0, 0.03200000151991844, 1.0240000486373901, 0.0, 0.0, 0.0, 0.0, 0.0, 1.6024559137379756E9, 2020-10-11 17:38:33.737
96.0, 924.0451049804688, 1007.3719482421875, -1076.95654296875, 2195.698974609375, 0.0, 0.03200000151991844, 1.0240000486373901, 0.0, 0.0, 0.0, 0.0, 0.0, 1.6024559137379756E9, 2020-10-11 17:38:33.737
97.0, 751.740478515625, 830.6093139648438, -1236.3323974609375, 2032.5888671875, 0.0, 0.03200000151991844, 1.0240000486373901, 0.0, 0.0, 0.0, 0.0, 0.0, 1.6024559137515187E9, 2020-10-11 17:38:33.751
97.0, 914.4111328125, 1002.2520751953125, -1080.4459228515625, 1961.6204833984375, 0.0, 0.03200000151991844, 1.0240000486373901, 0.0, 0.0, 0.0, 0.0, 0.0, 1.6024559137515187E9, 2020-10-11 17:38:33.751
98.0, 981.8228759765625, 1077.9102783203125, -1010.3190307617188, 1914.3631591796875, 0.0, 0.03200000151991844, 1.0240000486373901, 0.0, 0.0, 0.0, 0.0, 0.0, 1.602455913767152E9, 2020-10-11 17:38:33.767
98.0, 773.9816284179688, 849.0059204101562, -1212.3895263671875, 2066.90234375, 0.0, 0.03200000151991844, 1.0240000486373901, 0.0, 0.0, 0.0, 0.0, 0.0, 1.602455913767152E9, 2020-10-11 17:38:33.767
99.0, 857.130859375, 927.0613403320312, -1142.88720703125, 2127.77490234375, 0.0, 0.03200000151991844, 1.0240000486373901, 0.0, 0.0, 0.0, 0.0, 0.0, 1.6024559137678528E9, 2020-10-11 17:38:33.767
99.0, 1012.5498657226562, 1096.931396484375, -996.7693481445312, 2254.1142578125, 0.0, 0.03200000151991844, 1.0240000486373901, 0.0, 0.0, 0.0, 0.0, 0.0, 1.6024559137678528E9, 2020-10-11 17:38:33.767
100.0, 845.3314819335938, 922.5884399414062, -1160.1580810546875, 2420.453857421875, 0.0, 0.03200000151991844, 1.0240000486373901, 0.0, 0.0, 0.0, 0.0, 0.0, 1.6024559137822564E9, 2020-10-11 17:38:33.782
100.0, 797.4981079101562, 867.2042846679688, -1197.912353515625, 2331.186279296875, 0.0, 0.03200000151991844, 1.0240000486373901, 0.0, 0.0, 0.0, 0.0, 0.0, 1.6024559137822564E9, 2020-10-11 17:38:33.782
0.0, -1.9802770614624023, 78.5341567993164, -1035.0845947265625, -678.86474609375, 0.0, 0.03200000151991844, 1.0240000486373901, 0.0, 0.0, 0.0, 0.0, 0.0, 1.6024559137832403E9, 2020-10-11 17:38:33.783
1.0, -39.94026184082031, 36.90159225463867, -1071.5186767578125, -800.8023681640625, 0.0, 0.03200000151991844, 1.0240000486373901, 0.0, 0.0, 0.0, 0.0, 0.0, 1.6024559137965872E9, 2020-10-11 17:38:33.796
1.0, -214.49635314941406, -142.75198364257812, -1225.9093017578125, -950.269287109375, 0.0, 0.03200000151991844, 1.0240000486373901, 0.0, 0.0, 0.0, 0.0, 0.0, 1.6024559137965872E9, 2020-10-11 17:38:33.796
2.0, -55.73386001586914, 16.373281478881836, -1081.5791015625, -1039.3162841796875, 0.0, 0.03200000151991844, 1.0240000486373901, 0.0, 0.0, 0.0, 0.0, 0.0, 1.6024559138121796E9, 2020-10-11 17:38:33.812
2.0, 23.353805541992188, 101.62055969238281, -1017.694091796875, -1078.8919677734375, 0.0, 0.03200000151991844, 1.0240000486373901, 0.0, 0.0, 0.0, 0.0, 0.0, 1.6024559138121796E9, 2020-10-11 17:38:33.812
3.0, -197.5546112060547, -124.03004455566406, -1215.2767333984375, -917.2123413085938, 0.0, 0.03200000151991844, 1.0240000486373901, 0.0, 0.0, 0.0, 0.0, 0.0, 1.6024559138130205E9, 2020-10-11 17:38:33.813
3.0, -125.38575744628906, -52.6951904296875, -1144.1064453125, -858.9053955078125, 0.0, 0.03200000151991844, 1.0240000486373901, 0.0, 0.0, 0.0, 0.0, 0.0, 1.6024559138130205E9, 2020-10-11 17:38:33.813
4.0, 42.7190055847168, 115.83592224121094, -996.167236328125, -740.1355590820312, 0.0, 0.03200000151991844, 1.0240000486373901, 0.0, 0.0, 0.0, 0.0, 0.0, 1.6024559138269792E9, 2020-10-11 17:38:33.826
4.0, -125.48299407958984, -55.12238693237305, -1152.6221923828125, -568.859375, 0.0, 0.03200000151991844, 1.0240000486373901, 0.0, 0.0, 0.0, 0.0, 0.0, 1.6024559138269792E9, 2020-10-11 17:38:33.826
5.0, -174.26998901367188, -109.32475280761719, -1199.845947265625, -658.392578125, 0.0, 0.03200000151991844, 1.0240000486373901, 0.0, 0.0, 0.0, 0.0, 0.0, 1.6024559138421552E9, 2020-10-11 17:38:33.842
5.0, 11.891012191772461, 84.01685333251953, -1020.9365844726562, -722.9207763671875, 0.0, 0.03200000151991844, 1.0240000486373901, 0.0, 0.0, 0.0, 0.0, 0.0, 1.6024559138421552E9, 2020-10-11 17:38:33.842
6.0, -42.61054992675781, 40.73125076293945, -1068.7998046875, -850.3261108398438, 0.0, 0.03200000151991844, 1.0240000486373901, 0.0, 0.0, 0.0, 0.0, 0.0, 1.6024559138428621E9, 2020-10-11 17:38:33.842
6.0, -210.97711181640625, -137.80035400390625, -1206.3271484375, -989.8150024414062, 0.0, 0.03200000151991844, 1.0240000486373901, 0.0, 0.0, 0.0, 0.0, 0.0, 1.6024559138428621E9, 2020-10-11 17:38:33.842
7.0, -58.09373474121094, 23.35941505432129, -1070.3631591796875, -1068.958740234375, 0.0, 0.03200000151991844, 1.0240000486373901, 0.0, 0.0, 0.0, 0.0, 0.0, 1.60245591385693E9, 2020-10-11 17:38:33.856
7.0, 33.500152587890625, 114.9458236694336, -999.7986450195312, -1107.3787841796875, 0.0, 0.03200000151991844, 1.0240000486373901, 0.0, 0.0, 0.0, 0.0, 0.0, 1.60245591385693E9, 2020-10-11 17:38:33.856
8.0, -178.37266540527344, -103.57279205322266, -1190.799072265625, -933.7987670898438, 0.0, 0.03200000151991844, 1.0240000486373901, 0.0, 0.0, 0.0, 0.0, 0.0, 1.6024559138723977E9, 2020-10-11 17:38:33.872
8.0, -114.70834350585938, -39.84489440917969, -1132.946533203125, -876.8831176757812, 0.0, 0.03200000151991844, 1.0240000486373901, 0.0, 0.0, 0.0, 0.0, 0.0, 1.6024559138723977E9, 2020-10-11 17:38:33.872
9.0, 58.74821853637695, 137.80409240722656, -975.4893188476562, -750.6783447265625, 0.0, 0.03200000151991844, 1.0240000486373901, 0.0, 0.0, 0.0, 0.0, 0.0, 1.60245591387296E9, 2020-10-11 17:38:33.872
9.0, -121.04747009277344, -34.03308868408203, -1131.91064453125, -583.871337890625, 0.0, 0.03200000151991844, 1.0240000486373901, 0.0, 0.0, 0.0, 0.0, 0.0, 1.60245591387296E9, 2020-10-11 17:38:33.872
10.0, -182.59500122070312, -114.61297607421875, -1191.6741943359375, -671.4485473632812, 0.0, 0.03200000151991844, 1.0240000486373901, 0.0, 0.0, 0.0, 0.0, 0.0, 1.6024559138869455E9, 2020-10-11 17:38:33.886
10.0, 28.574705123901367, 106.5572280883789, -999.8697509765625, -720.5010986328125, 0.0, 0.03200000151991844, 1.0240000486373901, 0.0, 0.0, 0.0, 0.0, 0.0, 1.6024559138869455E9, 2020-10-11 17:38:33.886
11.0, -36.29759979248047, 46.05686950683594, -1065.3778076171875, -862.8696899414062, 0.0, 0.03200000151991844, 1.0240000486373901, 0.0, 0.0, 0.0, 0.0, 0.0, 1.6024559139022183E9, 2020-10-11 17:38:33.902
11.0, -213.12380981445312, -142.83425903320312, -1230.715087890625, -1002.2015380859375, 0.0, 0.03200000151991844, 1.0240000486373901, 0.0, 0.0, 0.0, 0.0, 0.0, 1.6024559139022183E9, 2020-10-11 17:38:33.902
12.0, -49.12919616699219, 19.13332748413086, -1076.5750732421875, -1080.2158203125, 0.0, 0.03200000151991844, 1.0240000486373901, 0.0, 0.0, 0.0, 0.0, 0.0, 1.6024559139031973E9, 2020-10-11 17:38:33.903
12.0, 34.24813461303711, 115.76860046386719, -1002.435302734375, -1118.5498046875, 0.0, 0.03200000151991844, 1.0240000486373901, 0.0, 0.0, 0.0, 0.0, 0.0, 1.6024559139031973E9, 2020-10-11 17:38:33.903
13.0, -194.80203247070312, -116.82325744628906, -1207.4267578125, -952.0494995117188, 0.0, 0.03200000151991844, 1.0240000486373901, 0.0, 0.0, 0.0, 0.0, 0.0, 1.602455913916901E9, 2020-10-11 17:38:33.916
13.0, -122.48733520507812, -58.37236022949219, -1148.31005859375, -888.1065673828125, 0.0, 0.03200000151991844, 1.0240000486373901, 0.0, 0.0, 0.0, 0.0, 0.0, 1.602455913916901E9, 2020-10-11 17:38:33.916
14.0, 49.342369079589844, 129.06021118164062, -980.874755859375, -766.4345092773438, 0.0, 0.03200000151991844, 1.0240000486373901, 0.0, 0.0, 0.0, 0.0, 0.0, 1.602455913932228E9, 2020-10-11 17:38:33.932
14.0, -116.1781234741211, -34.72871017456055, -1133.0999755859375, -588.4676513671875, 0.0, 0.03200000151991844, 1.0240000486373901, 0.0, 0.0, 0.0, 0.0, 0.0, 1.602455913932228E9, 2020-10-11 17:38:33.932
15.0, -179.4572296142578, -105.90648651123047, -1188.6300048828125, -666.9718627929688, 0.0, 0.03200000151991844, 1.0240000486373901, 0.0, 0.0, 0.0, 0.0, 0.0, 1.6024559139329498E9, 2020-10-11 17:38:33.932
15.0, 13.581446647644043, 87.68195343017578, -1020.1736450195312, -732.375244140625, 0.0, 0.03200000151991844, 1.0240000486373901, 0.0, 0.0, 0.0, 0.0, 0.0, 1.6024559139329498E9, 2020-10-11 17:38:33.932
16.0, -21.6147518157959, 53.01308059692383, -1054.457275390625, -858.6099853515625, 0.0, 0.03200000151991844, 1.0240000486373901, 0.0, 0.0, 0.0, 0.0, 0.0, 1.6024559139464984E9, 2020-10-11 17:38:33.946
16.0, -205.02317810058594, -135.08145141601562, -1214.6072998046875, -992.3132934570312, 0.0, 0.03200000151991844, 1.0240000486373901, 0.0, 0.0, 0.0, 0.0, 0.0, 1.6024559139464984E9, 2020-10-11 17:38:33.946
17.0, -54.226680755615234, 21.695159912109375, -1076.511474609375, -1072.6650390625, 0.0, 0.03200000151991844, 1.0240000486373901, 0.0, 0.0, 0.0, 0.0, 0.0, 1.602455913962288E9, 2020-10-11 17:38:33.962
17.0, 32.43802261352539, 112.18577575683594, -1003.703125, -1119.0135498046875, 0.0, 0.03200000151991844, 1.0240000486373901, 0.0, 0.0, 0.0, 0.0, 0.0, 1.602455913962288E9, 2020-10-11 17:38:33.962
18.0, -188.0889129638672, -113.91361236572266, -1208.107421875, -946.9033813476562, 0.0, 0.03200000151991844, 1.0240000486373901, 0.0, 0.0, 0.0, 0.0, 0.0, 1.6024559139629786E9, 2020-10-11 17:38:33.962
18.0, -113.69483184814453, -42.52266311645508, -1135.1082763671875, -868.8535766601562, 0.0, 0.03200000151991844, 1.0240000486373901, 0.0, 0.0, 0.0, 0.0, 0.0, 1.6024559139629786E9, 2020-10-11 17:38:33.962
19.0, 64.2870101928711, 147.4492950439453, -969.0604248046875, -743.6585083007812, 0.0, 0.03200000151991844, 1.0240000486373901, 0.0, 0.0, 0.0, 0.0, 0.0, 1.602455913976478E9, 2020-10-11 17:38:33.976
19.0, -107.98400115966797, -31.905086517333984, -1136.5069580078125, -576.31298828125, 0.0, 0.03200000151991844, 1.0240000486373901, 0.0, 0.0, 0.0, 0.0, 0.0, 1.602455913976478E9, 2020-10-11 17:38:33.976
20.0, -181.08782958984375, -109.43321228027344, -1198.69775390625, -655.1276245117188, 0.0, 0.03200000151991844, 1.0240000486373901, 0.0, 0.0, 0.0, 0.0, 0.0, 1.6024559139922242E9, 2020-10-11 17:38:33.992
20.0, 20.698476791381836, 100.1545181274414, -1010.4087524414062, -707.149658203125, 0.0, 0.03200000151991844, 1.0240000486373901, 0.0, 0.0, 0.0, 0.0, 0.0, 1.6024559139922242E9, 2020-10-11 17:38:33.992
21.0, -21.824186325073242, 57.22794723510742, -1056.1253662109375, -851.8856201171875, 0.0, 0.03200000151991844, 1.0240000486373901, 0.0, 0.0, 0.0, 0.0, 0.0, 1.602455913992951E9, 2020-10-11 17:38:33.992
21.0, -215.4088897705078, -146.91075134277344, -1235.9322509765625, -989.2465209960938, 0.0, 0.03200000151991844, 1.0240000486373901, 0.0, 0.0, 0.0, 0.0, 0.0, 1.602455913992951E9, 2020-10-11 17:38:33.992
22.0, -53.47496032714844, 18.168434143066406, -1092.623046875, -1060.0615234375, 0.0, 0.03200000151991844, 1.0240000486373901, 0.0, 0.0, 0.0, 0.0, 0.0, 1.6024559140065954E9, 2020-10-11 17:38:34.006
22.0, 52.25575256347656, 135.42552185058594, -987.57666015625, -1091.84326171875, 0.0, 0.03200000151991844, 1.0240000486373901, 0.0, 0.0, 0.0, 0.0, 0.0, 1.6024559140065954E9, 2020-10-11 17:38:34.006
23.0, -187.69248962402344, 373.4720153808594, -1196.880126953125, -925.0736083984375, 0.0, 0.03200000151991844, 1.0240000486373901, 0.0, 0.0, 0.0, 0.0, 0.0, 1.6024559140222344E9, 2020-10-11 17:38:34.022
23.0, -128.69183349609375, 435.3411865234375, -1146.7991943359375, -853.8490600585938, 0.0, 0.03200000151991844, 1.0240000486373901, 0.0, 0.0, 0.0, 0.0, 0.0, 1.6024559140222344E9, 2020-10-11 17:38:34.022
24.0, 54.24163818359375, 624.1612548828125, -975.9006958007812, -741.8035278320312, 0.0, 0.03200000151991844, 1.0240000486373901, 0.0, 0.0, 0.0, 0.0, 0.0, 1.60245591402296E9, 2020-10-11 17:38:34.022
24.0, -127.59230041503906, 444.5824890136719, -1146.97119140625, -573.6427001953125, 0.0, 0.03200000151991844, 1.0240000486373901, 0.0, 0.0, 0.0, 0.0, 0.0, 1.60245591402296E9, 2020-10-11 17:38:34.022
25.0, -190.9948272705078, 370.9887390136719, -1204.2178955078125, -648.8931884765625, 0.0, 0.03200000151991844, 1.0240000486373901, 0.0, 0.0, 0.0, 0.0, 0.0, 1.6024559140364225E9, 2020-10-11 17:38:34.036
25.0, 16.199377059936523, 580.72607421875, -1015.5324096679688, -703.2975463867188, 0.0, 0.03200000151991844, 1.0240000486373901, 0.0, 0.0, 0.0, 0.0, 0.0, 1.6024559140364225E9, 2020-10-11 17:38:34.036
26.0, -20.530179977416992, 547.4671020507812, -1051.626220703125, -833.040283203125, 0.0, 0.03200000151991844, 1.0240000486373901, 0.0, 0.0, 0.0, 0.0, 0.0, 1.6024559140522337E9, 2020-10-11 17:38:34.052
26.0, -212.72738647460938, 352.1620788574219, -1226.653564453125, -967.53271484375, 0.0, 0.03200000151991844, 1.0240000486373901, 0.0, 0.0, 0.0, 0.0, 0.0, 1.6024559140522337E9, 2020-10-11 17:38:34.052
27.0, -36.129302978515625, 528.8910522460938, -1060.126953125, -1024.674560546875, 0.0, 0.03200000151991844, 1.0240000486373901, 0.0, 0.0, 0.0, 0.0, 0.0, 1.6024559140529537E9, 2020-10-11 17:38:34.052
27.0, 41.903709411621094, 616.1129760742188, -992.1393432617188, -1086.0201416015625, 0.0, 0.03200000151991844, 1.0240000486373901, 0.0, 0.0, 0.0, 0.0, 0.0, 1.6024559140529537E9, 2020-10-11 17:38:34.052
28.0, -199.81724548339844, 857.970458984375, -1217.5992431640625, -925.5560302734375, 0.0, 0.03200000151991844, 1.0240000486373901, 0.0, 0.0, 0.0, 0.0, 0.0, 1.6024559140664775E9, 2020-10-11 17:38:34.066
28.0, -136.57179260253906, 917.3488159179688, -1156.27978515625, -853.4675903320312, 0.0, 0.03200000151991844, 1.0240000486373901, 0.0, 0.0, 0.0, 0.0, 0.0, 1.6024559140664775E9, 2020-10-11 17:38:34.066
29.0, 52.37168884277344, 1110.50341796875, -982.0902709960938, -728.5642700195312, 0.0, 0.03200000151991844, 1.0240000486373901, 0.0, 0.0, 0.0, 0.0, 0.0, 1.6024559140821855E9, 2020-10-11 17:38:34.082
29.0, -128.5272674560547, 933.1873168945312, -1149.9444580078125, -563.3953857421875, 0.0, 0.03200000151991844, 1.0240000486373901, 0.0, 0.0, 0.0, 0.0, 0.0, 1.6024559140821855E9, 2020-10-11 17:38:34.082
30.0, -200.4492950439453, 855.6030883789062, -1214.962646484375, -636.3308715820312, 0.0, 0.03200000151991844, 1.0240000486373901, 0.0, 0.0, 0.0, 0.0, 0.0, 1.6024559140828955E9, 2020-10-11 17:38:34.082
30.0, 22.7703800201416, 1086.4483642578125, -1012.0655517578125, -676.0748291015625, 0.0, 0.03200000151991844, 1.0240000486373901, 0.0, 0.0, 0.0, 0.0, 0.0, 1.6024559140828955E9, 2020-10-11 17:38:34.082
31.0, -35.87873077392578, 1031.273681640625, -1060.875, -831.3348999023438, 0.0, 0.03200000151991844, 1.0240000486373901, 0.0, 0.0, 0.0, 0.0, 0.0, 1.6024559140965276E9, 2020-10-11 17:38:34.096
31.0, -219.4666748046875, 834.12109375, -1237.925537109375, -959.5330200195312, 0.0, 0.03200000151991844, 1.0240000486373901, 0.0, 0.0, 0.0, 0.0, 0.0, 1.6024559140965276E9, 2020-10-11 17:38:34.096
32.0, -54.73530578613281, 1003.138427734375, -1079.447265625, -1024.6708984375, 0.0, 0.03200000151991844, 1.0240000486373901, 0.0, 0.0, 0.0, 0.0, 0.0, 1.6024559141122274E9, 2020-10-11 17:38:34.112
32.0, 33.85170364379883, 1102.5972900390625, -998.4373779296875, -1078.301025390625, 0.0, 0.03200000151991844, 1.0240000486373901, 0.0, 0.0, 0.0, 0.0, 0.0, 1.6024559141122274E9, 2020-10-11 17:38:34.112
33.0, -193.33226013183594, 869.41455078125, -1205.949462890625, -901.34765625, 0.0, 0.03200000151991844, 1.0240000486373901, 0.0, 0.0, 0.0, 0.0, 0.0, 1.6024559141130707E9, 2020-10-11 17:38:34.113
33.0, -112.69253540039062, 939.6199340820312, -1138.9490966796875, -819.614013671875, 0.0, 0.03200000151991844, 1.0240000486373901, 0.0, 0.0, 0.0, 0.0, 0.0, 1.6024559141130707E9, 2020-10-11 17:38:34.113
34.0, 74.29124450683594, 1137.591552734375, -966.988525390625, -696.270263671875, 0.0, 0.03200000151991844, 1.0240000486373901, 0.0, 0.0, 0.0, 0.0, 0.0, 1.6024559141264641E9, 2020-10-11 17:38:34.126
34.0, -117.46464538574219, 943.13916015625, -1149.6864013671875, -549.7335205078125, 0.0, 0.03200000151991844, 1.0240000486373901, 0.0, 0.0, 0.0, 0.0, 0.0, 1.6024559141264641E9, 2020-10-11 17:38:34.126
35.0, -175.73602294921875, 870.3345336914062, -1210.4971923828125, -612.3917846679688, 0.0, 0.03200000151991844, 1.0240000486373901, 0.0, 0.0, 0.0, 0.0, 0.0, 1.60245591414226E9, 2020-10-11 17:38:34.142
35.0, 29.098291397094727, 1088.5240478515625, -1019.9791870117188, -661.9417114257812, 0.0, 0.03200000151991844, 1.0240000486373901, 0.0, 0.0, 0.0, 0.0, 0.0, 1.60245591414226E9, 2020-10-11 17:38:34.142
36.0, -8.906571388244629, 1050.4892578125, -1043.7237548828125, -809.6734008789062, 0.0, 0.03200000151991844, 1.0240000486373901, 0.0, 0.0, 0.0, 0.0, 0.0, 1.6024559141432874E9, 2020-10-11 17:38:34.143
36.0, -201.7582550048828, 845.0154418945312, -1215.6058349609375, -932.179443359375, 0.0, 0.03200000151991844, 1.0240000486373901, 0.0, 0.0, 0.0, 0.0, 0.0, 1.6024559141432874E9, 2020-10-11 17:38:34.143
37.0, -46.13727569580078, 1008.5089111328125, -1069.704833984375, -1000.810302734375, 0.0, 0.03200000151991844, 1.0240000486373901, 0.0, 0.0, 0.0, 0.0, 0.0, 1.6024559141564977E9, 2020-10-11 17:38:34.156
37.0, 44.5852165222168, 1110.4473876953125, -996.507568359375, -1059.7249755859375, 0.0, 0.03200000151991844, 1.0240000486373901, 0.0, 0.0, 0.0, 0.0, 0.0, 1.6024559141564977E9, 2020-10-11 17:38:34.156
38.0, -193.39584350585938, 1355.0162353515625, -1206.0054931640625, -892.3270263671875, 0.0, 0.03200000151991844, 1.0240000486373901, 0.0, 0.0, 0.0, 0.0, 0.0, 1.6024559141721509E9, 2020-10-11 17:38:34.172
38.0, -124.17776489257812, 1415.5390625, -1142.9993896484375, -815.8629150390625, 0.0, 0.03200000151991844, 1.0240000486373901, 0.0, 0.0, 0.0, 0.0, 0.0, 1.6024559141721509E9, 2020-10-11 17:38:34.172
39.0, 60.43865203857422, 1611.0797119140625, -978.4625244140625, -697.5343627929688, 0.0, 0.03200000151991844, 1.0240000486373901, 0.0, 0.0, 0.0, 0.0, 0.0, 1.602455914172908E9, 2020-10-11 17:38:34.172
39.0, -119.85444641113281, 1431.5009765625, -1144.51416015625, -538.0799560546875, 0.0, 0.03200000151991844, 1.0240000486373901, 0.0, 0.0, 0.0, 0.0, 0.0, 1.602455914172908E9, 2020-10-11 17:38:34.172
40.0, -185.96466064453125, 1356.7066650390625, -1206.6337890625, -598.1614990234375, 0.0, 0.03200000151991844, 1.0080000162124634, 0.0, 0.0, 0.0, 0.0, 0.0, 1.6024559141865058E9, 2020-10-11 17:38:34.186
40.0, 6.812227725982666, 1552.0416259765625, -1031.3447265625, -663.852783203125, 0.0, 0.03200000151991844, 1.0080000162124634, 0.0, 0.0, 0.0, 0.0, 0.0, 1.6024559141865058E9, 2020-10-11 17:38:34.186
41.0, -25.077899932861328, 1525.1629638671875, -1054.0533447265625, -808.7982177734375, 0.0, 0.03200000151991844, 1.0080000162124634, 0.0, 0.0, 0.0, 0.0, 0.0, 1.6024559142022538E9, 2020-10-11 17:38:34.202
41.0, -220.9102783203125, 1325.2054443359375, -1236.104248046875, -936.6261596679688, 0.0, 0.03200000151991844, 1.0080000162124634, 0.0, 0.0, 0.0, 0.0, 0.0, 1.6024559142022538E9, 2020-10-11 17:38:34.202
42.0, -65.30052185058594, 1480.8153076171875, -1088.4716796875, -1007.6094360351562, 0.0, 0.03200000151991844, 1.0080000162124634, 0.0, 0.0, 0.0, 0.0, 0.0, 1.6024559142029867E9, 2020-10-11 17:38:34.202
42.0, 34.928794860839844, 1581.57568359375, -992.0682983398438, -1057.3837890625, 0.0, 0.03200000151991844, 1.0080000162124634, 0.0, 0.0, 0.0, 0.0, 0.0, 1.6024559142029867E9, 2020-10-11 17:38:34.202
43.0, -206.31344604492188, 1341.9041748046875, -1216.3426513671875, -895.5882568359375, 0.0, 0.03200000151991844, 1.0080000162124634, 0.0, 0.0, 0.0, 0.0, 0.0, 1.6024559142167375E9, 2020-10-11 17:38:34.216
43.0, -140.15835571289062, 1408.2425537109375, -1159.3240966796875, -816.8053588867188, 0.0, 0.03200000151991844, 1.0080000162124634, 0.0, 0.0, 0.0, 0.0, 0.0, 1.6024559142167375E9, 2020-10-11 17:38:34.216
44.0, 47.722991943359375, 1600.2601318359375, -974.9320678710938, -696.9434204101562, 0.0, 0.03200000151991844, 1.0080000162124634, 0.0, 0.0, 0.0, 0.0, 0.0, 1.6024559142487621E9, 2020-10-11 17:38:34.248
44.0, -105.99063110351562, 1436.16455078125, -1129.060791015625, -528.3487548828125, 0.0, 0.03200000151991844, 1.0080000162124634, 0.0, 0.0, 0.0, 0.0, 0.0, 1.6024559142487621E9, 2020-10-11 17:38:34.248
45.0, -164.482666015625, 1375.421142578125, -1187.3621826171875, -582.0948486328125, 0.0, 0.03200000151991844, 1.0080000162124634, 0.0, 0.0, 0.0, 0.0, 0.0, 1.602455914249431E9, 2020-10-11 17:38:34.249
45.0, 19.3259334564209, 1565.355712890625, -1012.9705810546875, -644.8017578125, 0.0, 0.03200000151991844, 1.0080000162124634, 0.0, 0.0, 0.0, 0.0, 0.0, 1.602455914249431E9, 2020-10-11 17:38:34.249
46.0, -20.13749122619629, 1527.4742431640625, -1045.38427734375, -805.50341796875, 0.0, 0.03200000151991844, 1.0080000162124634, 0.0, 0.0, 0.0, 0.0, 0.0, 1.6024559142502196E9, 2020-10-11 17:38:34.250
46.0, -210.16180419921875, 1331.3389892578125, -1215.1083984375, -917.1263427734375, 0.0, 0.03200000151991844, 1.0080000162124634, 0.0, 0.0, 0.0, 0.0, 0.0, 1.6024559142502196E9, 2020-10-11 17:38:34.250
47.0, -51.7920036315918, 1493.7403564453125, -1070.1685791015625, -989.3475341796875, 0.0, 0.03200000151991844, 1.0080000162124634, 0.0, 0.0, 0.0, 0.0, 0.0, 1.6024559142510667E9, 2020-10-11 17:38:34.251
47.0, 39.768226623535156, 1591.733154296875, -992.5469970703125, -1054.2535400390625, 0.0, 0.03200000151991844, 1.0080000162124634, 0.0, 0.0, 0.0, 0.0, 0.0, 1.6024559142510667E9, 2020-10-11 17:38:34.251
48.0, -165.1670684814453, 1377.8333740234375, -1180.106689453125, -868.4963989257812, 0.0, 0.03200000151991844, 1.0080000162124634, 0.0, 0.0, 0.0, 0.0, 0.0, 1.6024559142615132E9, 2020-10-11 17:38:34.261
48.0, -111.49576568603516, 1429.44775390625, -1135.396240234375, -787.3723754882812, 0.0, 0.03200000151991844, 1.0080000162124634, 0.0, 0.0, 0.0, 0.0, 0.0, 1.6024559142615132E9, 2020-10-11 17:38:34.261
49.0, 67.02835845947266, 1611.2554931640625, -970.0140991210938, -685.9369506835938, 0.0, 0.03200000151991844, 1.0080000162124634, 0.0, 0.0, 0.0, 0.0, 0.0, 1.602455914276484E9, 2020-10-11 17:38:34.276
49.0, -96.41648864746094, 1448.7755126953125, -1114.669677734375, -523.92822265625, 0.0, 0.03200000151991844, 1.0080000162124634, 0.0, 0.0, 0.0, 0.0, 0.0, 1.602455914276484E9, 2020-10-11 17:38:34.276
50.0, -161.39724731445312, 1376.9993896484375, -1168.427001953125, -570.2991943359375, 0.0, 0.03200000151991844, 1.0080000162124634, 0.0, 0.0, 0.0, 0.0, 0.0, 1.6024559142922037E9, 2020-10-11 17:38:34.292
50.0, 30.990680694580078, 1574.4698486328125, -994.5852661132812, -638.2195434570312, 0.0, 0.03200000151991844, 1.0080000162124634, 0.0, 0.0, 0.0, 0.0, 0.0, 1.6024559142922037E9, 2020-10-11 17:38:34.292
51.0, -9.527395248413086, 1541.6746826171875, -1039.1910400390625, -796.4677734375, 0.0, 0.03200000151991844, 1.0080000162124634, 0.0, 0.0, 0.0, 0.0, 0.0, 1.6024559142931976E9, 2020-10-11 17:38:34.293
51.0, -195.1348876953125, 1353.3743896484375, -1190.6719970703125, -906.0263061523438, 0.0, 0.03200000151991844, 1.0080000162124634, 0.0, 0.0, 0.0, 0.0, 0.0, 1.6024559142931976E9, 2020-10-11 17:38:34.293
52.0, -38.0815315246582, 1507.60791015625, -1046.237060546875, -975.210693359375, 0.0, 0.03200000151991844, 1.0080000162124634, 0.0, 0.0, 0.0, 0.0, 0.0, 1.6024559143064723E9, 2020-10-11 17:38:34.306
52.0, 49.14789581298828, 1601.591552734375, -971.9102172851562, -1048.639892578125, 0.0, 0.03200000151991844, 1.0080000162124634, 0.0, 0.0, 0.0, 0.0, 0.0, 1.6024559143064723E9, 2020-10-11 17:38:34.306
53.0, -171.947509765625, 1377.3734130859375, -1173.0869140625, -862.822998046875, 0.0, 0.03200000151991844, 1.0080000162124634, 0.0, 0.0, 0.0, 0.0, 0.0, 1.6024559143222196E9, 2020-10-11 17:38:34.322
53.0, -112.1053695678711, 1433.0006103515625, -1121.2032470703125, -782.981689453125, 0.0, 0.03200000151991844, 1.0080000162124634, 0.0, 0.0, 0.0, 0.0, 0.0, 1.6024559143222196E9, 2020-10-11 17:38:34.322
54.0, 59.61961364746094, 1611.25927734375, -964.9614868164062, -679.3546752929688, 0.0, 0.03200000151991844, 1.0080000162124634, 0.0, 0.0, 0.0, 0.0, 0.0, 1.602455914323249E9, 2020-10-11 17:38:34.323
54.0, -109.64825439453125, 1445.64892578125, -1116.4947509765625, -522.121826171875, 0.0, 0.03200000151991844, 1.0080000162124634, 0.0, 0.0, 0.0, 0.0, 0.0, 1.602455914323249E9, 2020-10-11 17:38:34.323
55.0, -179.6143035888672, 1365.465576171875, -1184.366455078125, -572.8535766601562, 0.0, 0.03200000151991844, 1.0080000162124634, 0.0, 0.0, 0.0, 0.0, 0.0, 1.6024559143364773E9, 2020-10-11 17:38:34.336
55.0, 10.855059623718262, 1560.35546875, -1016.871337890625, -638.7356567382812, 0.0, 0.03200000151991844, 1.0080000162124634, 0.0, 0.0, 0.0, 0.0, 0.0, 1.6024559143364773E9, 2020-10-11 17:38:34.336
56.0, -28.645763397216797, 1526.4046630859375, -1043.3946533203125, -802.9303588867188, 0.0, 0.03200000151991844, 1.0080000162124634, 0.0, 0.0, 0.0, 0.0, 0.0, 1.6024559143521583E9, 2020-10-11 17:38:34.352
56.0, -211.85598754882812, 1337.603271484375, -1203.1220703125, -908.3525390625, 0.0, 0.03200000151991844, 1.0080000162124634, 0.0, 0.0, 0.0, 0.0, 0.0, 1.6024559143521583E9, 2020-10-11 17:38:34.352
57.0, -58.075035095214844, 1490.1500244140625, -1071.9189453125, -975.3191528320312, 0.0, 0.03200000151991844, 1.0080000162124634, 0.0, 0.0, 0.0, 0.0, 0.0, 1.6024559143531623E9, 2020-10-11 17:38:34.353
57.0, 31.536706924438477, 1586.893798828125, -993.1304321289062, -1046.8671875, 0.0, 0.03200000151991844, 1.0080000162124634, 0.0, 0.0, 0.0, 0.0, 0.0, 1.6024559143531623E9, 2020-10-11 17:38:34.353
58.0, -195.33309936523438, 1354.619873046875, -1198.4322509765625, -865.7326049804688, 0.0, 0.03200000151991844, 1.0080000162124634, 0.0, 0.0, 0.0, 0.0, 0.0, 1.6024559143669274E9, 2020-10-11 17:38:34.366
58.0, -125.28477478027344, 1420.857177734375, -1141.41748046875, -767.6294555664062, 0.0, 0.03200000151991844, 1.0080000162124634, 0.0, 0.0, 0.0, 0.0, 0.0, 1.6024559143669274E9, 2020-10-11 17:38:34.366
59.0, 45.25465774536133, 1598.397705078125, -979.8014526367188, -673.019287109375, 0.0, 0.03200000151991844, 1.0080000162124634, 0.0, 0.0, 0.0, 0.0, 0.0, 1.6024559143822322E9, 2020-10-11 17:38:34.382
59.0, -122.73416900634766, 1431.6842041015625, -1128.5821533203125, -517.791015625, 0.0, 0.03200000151991844, 1.0080000162124634, 0.0, 0.0, 0.0, 0.0, 0.0, 1.6024559143822322E9, 2020-10-11 17:38:34.382
60.0, -200.04537963867188, 1349.073486328125, -1199.9581298828125, -561.2037963867188, 0.0, 0.03200000151991844, 1.0080000162124634, 0.0, 0.0, 0.0, 0.0, 0.0, 1.6024559143829527E9, 2020-10-11 17:38:34.382
60.0, -2.324347734451294, 1544.969482421875, -1023.6031494140625, -621.2740478515625, 0.0, 0.03200000151991844, 1.0080000162124634, 0.0, 0.0, 0.0, 0.0, 0.0, 1.6024559143829527E9, 2020-10-11 17:38:34.382
61.0, -45.583770751953125, 1506.4111328125, -1062.4906005859375, -797.7169189453125, 0.0, 0.03200000151991844, 1.0080000162124634, 0.0, 0.0, 0.0, 0.0, 0.0, 1.6024559143969817E9, 2020-10-11 17:38:34.396
61.0, -221.26931762695312, 1327.744873046875, -1221.61962890625, -894.4363403320312, 0.0, 0.03200000151991844, 1.0080000162124634, 0.0, 0.0, 0.0, 0.0, 0.0, 1.6024559143969817E9, 2020-10-11 17:38:34.396
62.0, -82.8556137084961, 1469.1729736328125, -1093.09423828125, -977.1779174804688, 0.0, 0.03200000151991844, 1.0080000162124634, 0.0, 0.0, 0.0, 0.0, 0.0, 1.6024559144122138E9, 2020-10-11 17:38:34.412
62.0, 19.067880630493164, 1578.572509765625, -996.6047973632812, -1047.5665283203125, 0.0, 0.03200000151991844, 1.0080000162124634, 0.0, 0.0, 0.0, 0.0, 0.0, 1.6024559144122138E9, 2020-10-11 17:38:34.412
63.0, -203.30282592773438, 1347.1175537109375, -1201.8056640625, -869.8651733398438, 0.0, 0.03200000151991844, 1.0080000162124634, 0.0, 0.0, 0.0, 0.0, 0.0, 1.6024559144129393E9, 2020-10-11 17:38:34.412
63.0, -134.1857452392578, 1414.2076416015625, -1139.678466796875, -779.9710693359375, 0.0, 0.03200000151991844, 1.0080000162124634, 0.0, 0.0, 0.0, 0.0, 0.0, 1.6024559144129393E9, 2020-10-11 17:38:34.412
64.0, 40.7406005859375, 1599.35888671875, -982.0453491210938, -686.2622680664062, 0.0, 0.03200000151991844, 1.0080000162124634, 0.0, 0.0, 0.0, 0.0, 0.0, 1.6024559144268706E9, 2020-10-11 17:38:34.426
64.0, -113.33953857421875, 1439.5791015625, -1119.423095703125, -526.0263061523438, 0.0, 0.03200000151991844, 1.0080000162124634, 0.0, 0.0, 0.0, 0.0, 0.0, 1.6024559144268706E9, 2020-10-11 17:38:34.426
65.0, -186.35360717773438, 1360.783203125, -1183.8541259765625, -575.516357421875, 0.0, 0.03200000151991844, 1.0080000162124634, 0.0, 0.0, 0.0, 0.0, 0.0, 1.6024559144422295E9, 2020-10-11 17:38:34.442
65.0, -2.1710119247436523, 1555.1832275390625, -1015.7418823242188, -647.288818359375, 0.0, 0.03200000151991844, 1.0080000162124634, 0.0, 0.0, 0.0, 0.0, 0.0, 1.6024559144422295E9, 2020-10-11 17:38:34.442
66.0, -21.62223243713379, 1534.662353515625, -1048.256591796875, -819.89453125, 0.0, 0.03200000151991844, 1.0080000162124634, 0.0, 0.0, 0.0, 0.0, 0.0, 1.602455914443195E9, 2020-10-11 17:38:34.443
66.0, -212.51046752929688, 1338.4185791015625, -1218.2911376953125, -917.0140991210938, 0.0, 0.03200000151991844, 1.0080000162124634, 0.0, 0.0, 0.0, 0.0, 0.0, 1.602455914443195E9, 2020-10-11 17:38:34.443
67.0, -62.59657669067383, 1491.99755859375, -1070.4677734375, -987.9749755859375, 0.0, 0.03200000151991844, 1.0080000162124634, 0.0, 0.0, 0.0, 0.0, 0.0, 1.60245591445649E9, 2020-10-11 17:38:34.456
67.0, 42.333797454833984, 1594.5904541015625, -982.2136840820312, -1068.56982421875, 0.0, 0.03200000151991844, 1.0080000162124634, 0.0, 0.0, 0.0, 0.0, 0.0, 1.60245591445649E9, 2020-10-11 17:38:34.456
68.0, -184.248046875, 1369.8861083984375, -1183.4202880859375, -877.6928100585938, 0.0, 0.03200000151991844, 1.0080000162124634, 0.0, 0.0, 0.0, 0.0, 0.0, 1.6024559144722276E9, 2020-10-11 17:38:34.472
68.0, -126.22349548339844, 1424.073486328125, -1124.1951904296875, -785.3154296875, 0.0, 0.03200000151991844, 1.0080000162124634, 0.0, 0.0, 0.0, 0.0, 0.0, 1.6024559144722276E9, 2020-10-11 17:38:34.472
69.0, 59.11472702026367, 1607.6689453125, -963.2149658203125, -689.1420288085938, 0.0, 0.03200000151991844, 1.0080000162124634, 0.0, 0.0, 0.0, 0.0, 0.0, 1.602455914472953E9, 2020-10-11 17:38:34.472
69.0, -109.20694732666016, 1434.7359619140625, -1134.7081298828125, -547.1529541015625, 0.0, 0.03200000151991844, 1.0080000162124634, 0.0, 0.0, 0.0, 0.0, 0.0, 1.602455914472953E9, 2020-10-11 17:38:34.472
70.0, -191.3239288330078, 1353.2772216796875, -1191.2366943359375, -576.7542724609375, 0.0, 0.03200000151991844, 1.0080000162124634, 0.0, 0.0, 0.0, 0.0, 0.0, 1.6024559144868047E9, 2020-10-11 17:38:34.486
70.0, -2.537522077560425, 1544.95458984375, -1022.0996704101562, -654.5105590820312, 0.0, 0.03200000151991844, 1.0080000162124634, 0.0, 0.0, 0.0, 0.0, 0.0, 1.6024559144868047E9, 2020-10-11 17:38:34.486
71.0, -46.679561614990234, 1511.3140869140625, -1049.198974609375, -839.0128784179688, 0.0, 0.03200000151991844, 1.0080000162124634, 0.0, 0.0, 0.0, 0.0, 0.0, 1.6024559145026944E9, 2020-10-11 17:38:34.502
71.0, -224.27993774414062, 1328.1937255859375, -1200.8818359375, -925.6383056640625, 0.0, 0.03200000151991844, 1.0080000162124634, 0.0, 0.0, 0.0, 0.0, 0.0, 1.6024559145026944E9, 2020-10-11 17:38:34.502
72.0, -69.70612335205078, 1478.5638427734375, -1064.64111328125, -986.2135009765625, -0.01600000075995922, 0.03200000151991844, 1.0080000162124634, 0.0, 0.0, 0.0, 0.0, 0.0, 1.602455914503398E9, 2020-10-11 17:38:34.503
72.0, 25.190095901489258, 1584.0926513671875, -983.2384033203125, -1074.030029296875, -0.01600000075995922, 0.03200000151991844, 1.0080000162124634, 0.0, 0.0, 0.0, 0.0, 0.0, 1.602455914503398E9, 2020-10-11 17:38:34.503
73.0, -193.96429443359375, 1366.4490966796875, -1176.4453125, -881.264404296875, -0.01600000075995922, 0.03200000151991844, 1.0080000162124634, 0.0, 0.0, 0.0, 0.0, 0.0, 1.6024559145164807E9, 2020-10-11 17:38:34.516
73.0, -144.3994140625, 1407.0494384765625, -1125.6986083984375, -789.447998046875, -0.01600000075995922, 0.03200000151991844, 1.0080000162124634, 0.0, 0.0, 0.0, 0.0, 0.0, 1.6024559145164807E9, 2020-10-11 17:38:34.516
74.0, 38.474220275878906, 1592.7691650390625, -973.630615234375, -702.197998046875, -0.01600000075995922, 0.03200000151991844, 1.0080000162124634, 0.0, 0.0, 0.0, 0.0, 0.0, 1.6024559145327363E9, 2020-10-11 17:38:34.532
74.0, -128.51979064941406, 1428.8343505859375, -1122.8338623046875, -550.9826049804688, -0.01600000075995922, 0.03200000151991844, 1.0080000162124634, 0.0, 0.0, 0.0, 0.0, 0.0, 1.6024559145327363E9, 2020-10-11 17:38:34.532
75.0, -196.52613830566406, 1353.7147216796875, -1179.942138671875, -577.7977294921875, -0.01600000075995922, 0.03200000151991844, 1.0080000162124634, 0.0, 0.0, 0.0, 0.0, 0.0, 1.602455914533072E9, 2020-10-11 17:38:34.533
75.0, -6.599053382873535, 1544.9620361328125, -1009.6719970703125, -647.0269775390625, -0.01600000075995922, 0.03200000151991844, 1.0080000162124634, 0.0, 0.0, 0.0, 0.0, 0.0, 1.602455914533072E9, 2020-10-11 17:38:34.533
76.0, -35.74409484863281, 1522.926513671875, -1040.1783447265625, -831.1141967773438, -0.01600000075995922, 0.03200000151991844, 1.0080000162124634, 0.0, 0.0, 0.0, 0.0, 0.0, 1.602455914546502E9, 2020-10-11 17:38:34.546
76.0, -228.4947967529297, 1326.2938232421875, -1216.817626953125, -917.4367065429688, -0.01600000075995922, 0.03200000151991844, 1.0080000162124634, 0.0, 0.0, 0.0, 0.0, 0.0, 1.602455914546502E9, 2020-10-11 17:38:34.546
77.0, -77.67211151123047, 1477.11279296875, -1070.254638671875, -983.6778564453125, -0.01600000075995922, 0.03200000151991844, 1.0080000162124634, 0.0, 0.0, 0.0, 0.0, 0.0, 1.6024559145621955E9, 2020-10-11 17:38:34.562
77.0, 25.369611740112305, 1582.001953125, -982.6400146484375, -1070.3238525390625, -0.01600000075995922, 0.03200000151991844, 1.0080000162124634, 0.0, 0.0, 0.0, 0.0, 0.0, 1.6024559145621955E9, 2020-10-11 17:38:34.562
78.0, -214.3467559814453, 1341.1337890625, -1206.102783203125, -893.9576416015625, -0.01600000075995922, 0.03200000151991844, 1.0080000162124634, 0.0, 0.0, 0.0, 0.0, 0.0, 1.6024559145634336E9, 2020-10-11 17:38:34.563
78.0, -151.46034240722656, 1394.9957275390625, -1152.2744140625, -796.1648559570312, -0.01600000075995922, 0.03200000151991844, 1.0080000162124634, 0.0, 0.0, 0.0, 0.0, 0.0, 1.6024559145634336E9, 2020-10-11 17:38:34.563
79.0, 31.2449951171875, 1588.46826171875, -979.4573364257812, -704.86083984375, -0.01600000075995922, 0.03200000151991844, 1.0080000162124634, 0.0, 0.0, 0.0, 0.0, 0.0, 1.602455914576455E9, 2020-10-11 17:38:34.576
79.0, -130.04566955566406, 1426.6502685546875, -1118.8433837890625, -550.1561279296875, -0.01600000075995922, 0.03200000151991844, 1.0080000162124634, 0.0, 0.0, 0.0, 0.0, 0.0, 1.602455914576455E9, 2020-10-11 17:38:34.576
80.0, -205.5953826904297, 1341.41796875, -1185.6529541015625, -571.9859008789062, -0.01600000075995922, 0.03200000151991844, 1.0080000162124634, 0.0, 0.0, 0.0, 0.0, 0.0, 1.602455914592474E9, 2020-10-11 17:38:34.592
80.0, -3.356560230255127, 1544.84228515625, -1019.1339721679688, -640.2802124023438, -0.01600000075995922, 0.03200000151991844, 1.0080000162124634, 0.0, 0.0, 0.0, 0.0, 0.0, 1.602455914592474E9, 2020-10-11 17:38:34.592
81.0, -40.673282623291016, 1517.11474609375, -1046.9849853515625, -831.2189331054688, -0.01600000075995922, 0.03200000151991844, 1.0080000162124634, 0.0, 0.0, 0.0, 0.0, 0.0, 1.602455914593367E9, 2020-10-11 17:38:34.593
81.0, -231.72607421875, 1315.3359375, -1219.8282470703125, -923.1812133789062, -0.01600000075995922, 0.03200000151991844, 1.0080000162124634, 0.0, 0.0, 0.0, 0.0, 0.0, 1.602455914593367E9, 2020-10-11 17:38:34.593
82.0, -72.00242614746094, 1477.2286376953125, -1075.984130859375, -978.6626586914062, 0.0, 0.03200000151991844, 1.0080000162124634, 0.0, 0.0, 0.0, 0.0, 0.0, 1.6024559146065865E9, 2020-10-11 17:38:34.606
82.0, 13.49916934967041, 1570.9356689453125, -997.5659790039062, -1077.762451171875, 0.0, 0.03200000151991844, 1.0080000162124634, 0.0, 0.0, 0.0, 0.0, 0.0, 1.6024559146065865E9, 2020-10-11 17:38:34.606
83.0, -210.775146484375, 1343.927490234375, -1199.109130859375, -887.6409301757812, 0.0, 0.03200000151991844, 1.0080000162124634, 0.0, 0.0, 0.0, 0.0, 0.0, 1.6024559146222603E9, 2020-10-11 17:38:34.622
83.0, -151.13870239257812, 1399.76416015625, -1143.0816650390625, -780.3563232421875, 0.0, 0.03200000151991844, 1.0080000162124634, 0.0, 0.0, 0.0, 0.0, 0.0, 1.6024559146222603E9, 2020-10-11 17:38:34.622
84.0, 21.9962215423584, 1573.302978515625, -988.0180053710938, -702.9534912109375, 0.0, 0.03200000151991844, 1.0080000162124634, 0.0, 0.0, 0.0, 0.0, 0.0, 1.6024559146230044E9, 2020-10-11 17:38:34.623
84.0, -129.47720336914062, 1427.8843994140625, -1124.3560791015625, -550.432861328125, 0.0, 0.03200000151991844, 1.0080000162124634, 0.0, 0.0, 0.0, 0.0, 0.0, 1.6024559146230044E9, 2020-10-11 17:38:34.623
85.0, -197.71168518066406, 1348.662109375, -1195.212158203125, -564.4088745117188, 0.0, 0.03200000151991844, 1.0080000162124634, 0.0, 0.0, 0.0, 0.0, 0.0, 1.60245591463667E9, 2020-10-11 17:38:34.636
85.0, -7.754682540893555, 1551.072998046875, -1013.632568359375, -635.3211059570312, 0.0, 0.03200000151991844, 1.0080000162124634, 0.0, 0.0, 0.0, 0.0, 0.0, 1.60245591463667E9, 2020-10-11 17:38:34.636
86.0, -38.15633010864258, 1519.1043701171875, -1042.6429443359375, -829.3826293945312, 0.0, 0.03200000151991844, 1.0080000162124634, 0.0, 0.0, 0.0, 0.0, 0.0, 1.6024559146521895E9, 2020-10-11 17:38:34.652
86.0, -226.3368682861328, 1317.2021484375, -1206.652587890625, -907.63818359375, 0.0, 0.03200000151991844, 1.0080000162124634, 0.0, 0.0, 0.0, 0.0, 0.0, 1.6024559146521895E9, 2020-10-11 17:38:34.652
87.0, -78.52854919433594, 1466.8729248046875, -1080.7076416015625, -976.8487548828125, 0.0, 0.03200000151991844, 1.0080000162124634, 0.0, 0.0, 0.0, 0.0, 0.0, 1.6024559146528988E9, 2020-10-11 17:38:34.652
87.0, 13.091519355773926, 1567.7978515625, -1002.4876708984375, -1082.94970703125, 0.0, 0.03200000151991844, 1.0080000162124634, 0.0, 0.0, 0.0, 0.0, 0.0, 1.6024559146528988E9, 2020-10-11 17:38:34.652
88.0, -195.5724639892578, 1349.656982421875, -1191.7901611328125, -881.4551391601562, 0.0, 0.03200000151991844, 1.0080000162124634, 0.0, 0.0, 0.0, 0.0, 0.0, 1.6024559146664991E9, 2020-10-11 17:38:34.666
88.0, -138.39312744140625, 1401.3909912109375, -1137.1427001953125, -776.077880859375, 0.0, 0.03200000151991844, 1.0080000162124634, 0.0, 0.0, 0.0, 0.0, 0.0, 1.6024559146664991E9, 2020-10-11 17:38:34.666
89.0, 31.289873123168945, 1588.4046630859375, -981.80224609375, -696.7265625, 0.0, 0.03200000151991844, 1.0080000162124634, 0.0, 0.0, 0.0, 0.0, 0.0, 1.602455914682331E9, 2020-10-11 17:38:34.682
89.0, -111.66032409667969, 1435.4053955078125, -1127.6920166015625, -545.5597534179688, 0.0, 0.03200000151991844, 1.0080000162124634, 0.0, 0.0, 0.0, 0.0, 0.0, 1.602455914682331E9, 2020-10-11 17:38:34.682
90.0, -198.49705505371094, 1347.2559814453125, -1194.531494140625, -559.6554565429688, 0.0, 0.03200000151991844, 1.0080000162124634, 0.0, 0.0, 0.0, 0.0, 0.0, 1.6024559146832173E9, 2020-10-11 17:38:34.683
90.0, -16.15823745727539, 1537.3251953125, -1034.52734375, -640.8972778320312, 0.0, 0.03200000151991844, 1.0080000162124634, 0.0, 0.0, 0.0, 0.0, 0.0, 1.6024559146832173E9, 2020-10-11 17:38:34.683
91.0, -40.93133544921875, 1514.661376953125, -1049.81982421875, -833.6536254882812, 0.0, 0.03200000151991844, 1.0080000162124634, 0.0, 0.0, 0.0, 0.0, 0.0, 1.6024559146969504E9, 2020-10-11 17:38:34.696
91.0, -218.77479553222656, 1324.25927734375, -1213.59375, -900.8876953125, 0.0, 0.03200000151991844, 1.0080000162124634, 0.0, 0.0, 0.0, 0.0, 0.0, 1.6024559146969504E9, 2020-10-11 17:38:34.696
92.0, -79.3401107788086, 1475.1231689453125, -1084.185791015625, -972.0803833007812, 0.0, 0.03200000151991844, 1.0080000162124634, 0.0, 0.0, 0.0, 0.0, 0.0, 1.6024559147285185E9, 2020-10-11 17:38:34.728
92.0, 30.88970375061035, 1584.373046875, -982.8195190429688, -1065.3984375, 0.0, 0.03200000151991844, 1.0080000162124634, 0.0, 0.0, 0.0, 0.0, 0.0, 1.6024559147285185E9, 2020-10-11 17:38:34.728
93.0, -196.94500732421875, 1348.9014892578125, -1189.5574951171875, -878.1939697265625, 0.0, 0.03200000151991844, 1.0080000162124634, 0.0, 0.0, 0.0, 0.0, 0.0, 1.6024559147294705E9, 2020-10-11 17:38:34.729
93.0, -145.30445861816406, 1399.5771484375, -1150.632568359375, -774.9185180664062, 0.0, 0.03200000151991844, 1.0080000162124634, 0.0, 0.0, 0.0, 0.0, 0.0, 1.6024559147294705E9, 2020-10-11 17:38:34.729
94.0, 32.7820930480957, 1582.22265625, -989.0838623046875, -694.3031005859375, 0.0, 0.03200000151991844, 1.0080000162124634, 0.0, 0.0, 0.0, 0.0, 0.0, 1.6024559147302084E9, 2020-10-11 17:38:34.730
94.0, -122.19561767578125, 1426.06689453125, -1122.3626708984375, -549.093994140625, 0.0, 0.03200000151991844, 1.0080000162124634, 0.0, 0.0, 0.0, 0.0, 0.0, 1.6024559147302084E9, 2020-10-11 17:38:34.730
95.0, -198.5232391357422, 1341.10009765625, -1186.9058837890625, -559.060791015625, 0.0, 0.03200000151991844, 1.0080000162124634, 0.0, 0.0, 0.0, 0.0, 0.0, 1.6024559147421844E9, 2020-10-11 17:38:34.742
95.0, -10.424971580505371, 1542.4189453125, -1020.64111328125, -630.788330078125, 0.0, 0.03200000151991844, 1.0080000162124634, 0.0, 0.0, 0.0, 0.0, 0.0, 1.6024559147421844E9, 2020-10-11 17:38:34.742
96.0, -36.44345474243164, 1517.4027099609375, -1050.0816650390625, -831.2152099609375, 0.0, 0.03200000151991844, 1.0080000162124634, 0.0, 0.0, 0.0, 0.0, 0.0, 1.6024559147429104E9, 2020-10-11 17:38:34.742
96.0, -221.87142944335938, 1326.4583740234375, -1214.2445068359375, -901.7852172851562, 0.0, 0.03200000151991844, 1.0080000162124634, 0.0, 0.0, 0.0, 0.0, 0.0, 1.6024559147429104E9, 2020-10-11 17:38:34.742
