%OpenBCI Raw EEG Data
%Number of channels = 4
%Sample Rate = 200 Hz
%Board = OpenBCI_GUI$BoardGanglionBLE
Sample Index, EXG Channel 0, EXG Channel 1, EXG Channel 2, EXG Channel 3, Accel Channel 0, Accel Channel 1, Accel Channel 2, Other, Other, Other, Other, Other, Timestamp, Timestamp (Formatted)
0.0, 376.4321594238281, 314.0057373046875, -792.8587646484375, 529.1434936523438, 0.0, 0.0, 0.0, 0.0, 0.0, 0.0, 0.0, 0.0, 1.6024563307086895E9, 2020-10-11 17:45:30.708
1.0, 386.11102294921875, 325.2478942871094, -740.2608642578125, 761.5165405273438, 0.0, 0.01600000075995922, 0.0, 0.0, 0.0, 0.0, 0.0, 0.0, 1.6024563307222054E9, 2020-10-11 17:45:30.722
1.0, 439.25872802734375, 382.288818359375, -675.8859252929688, 639.9959716796875, 0.0, 0.01600000075995922, 0.0, 0.0, 0.0, 0.0, 0.0, 0.0, 1.6024563307222054E9, 2020-10-11 17:45:30.722
2.0, 400.33758544921875, 331.3065185546875, -769.8845825195312, 413.6142272949219, 0.0, 0.01600000075995922, 0.0, 0.0, 0.0, 0.0, 0.0, 0.0, 1.6024563307389588E9, 2020-10-11 17:45:30.738
2.0, 370.9681701660156, 303.2909240722656, -790.8616943359375, 632.4563598632812, 0.0, 0.01600000075995922, 0.0, 0.0, 0.0, 0.0, 0.0, 0.0, 1.6024563307389588E9, 2020-10-11 17:45:30.738
3.0, 427.2237243652344, 373.7730712890625, -681.5256958007812, 485.6465759277344, 0.0, 0.01600000075995922, 0.0, 0.0, 0.0, 0.0, 0.0, 0.0, 1.6024563307397292E9, 2020-10-11 17:45:30.739
3.0, 423.8166809082031, 356.5321350097656, -731.88720703125, 661.3770141601562, 0.0, 0.01600000075995922, 0.0, 0.0, 0.0, 0.0, 0.0, 0.0, 1.6024563307397292E9, 2020-10-11 17:45:30.739
4.0, 368.413818359375, 296.2486877441406, -809.06005859375, 434.8306884765625, 0.0, 0.01600000075995922, 0.0, 0.0, 0.0, 0.0, 0.0, 0.0, 1.6024563307521796E9, 2020-10-11 17:45:30.752
4.0, 417.47381591796875, 352.0480041503906, -698.587158203125, 511.3658752441406, 0.0, 0.01600000075995922, 0.0, 0.0, 0.0, 0.0, 0.0, 0.0, 1.6024563307521796E9, 2020-10-11 17:45:30.752
5.0, 442.4151916503906, 379.7344970703125, -688.4482421875, 392.3865661621094, 0.0, 0.01600000075995922, 0.0, 0.0, 0.0, 0.0, 0.0, 0.0, 1.6024563307677248E9, 2020-10-11 17:45:30.767
5.0, 384.0652770996094, 313.86737060546875, -779.9673461914062, 538.9644775390625, 0.0, 0.01600000075995922, 0.0, 0.0, 0.0, 0.0, 0.0, 0.0, 1.6024563307677248E9, 2020-10-11 17:45:30.767
6.0, 385.09002685546875, 323.1498107910156, -746.783203125, 748.2137451171875, 0.0, 0.01600000075995922, 0.0, 0.0, 0.0, 0.0, 0.0, 0.0, 1.6024563307684324E9, 2020-10-11 17:45:30.768
6.0, 448.017578125, 386.95623779296875, -672.0263671875, 641.3087158203125, 0.0, 0.01600000075995922, 0.0, 0.0, 0.0, 0.0, 0.0, 0.0, 1.6024563307684324E9, 2020-10-11 17:45:30.768
7.0, 399.1370849609375, 338.0271301269531, -763.7847900390625, 422.06268310546875, 0.0, 0.01600000075995922, 0.0, 0.0, 0.0, 0.0, 0.0, 0.0, 1.6024563307820225E9, 2020-10-11 17:45:30.782
7.0, 371.3384094238281, 307.51702880859375, -771.290771484375, 639.3377685546875, 0.0, 0.01600000075995922, 0.0, 0.0, 0.0, 0.0, 0.0, 0.0, 1.6024563307820225E9, 2020-10-11 17:45:30.782
8.0, 448.45513916015625, 391.6086730957031, -650.4733276367188, 494.33062744140625, 0.0, 0.01600000075995922, 0.0, 0.0, 0.0, 0.0, 0.0, 0.0, 1.6024563307977057E9, 2020-10-11 17:45:30.797
8.0, 431.11322021484375, 368.21185302734375, -709.2944946289062, 674.709716796875, 0.0, 0.01600000075995922, 0.0, 0.0, 0.0, 0.0, 0.0, 0.0, 1.6024563307977057E9, 2020-10-11 17:45:30.797
9.0, 363.51080322265625, 302.50555419921875, -793.9246826171875, 443.50726318359375, 0.0, 0.01600000075995922, 0.0, 0.0, 0.0, 0.0, 0.0, 0.0, 1.6024563307984407E9, 2020-10-11 17:45:30.798
9.0, 419.02960205078125, 364.4195861816406, -689.8993530273438, 510.7525329589844, 0.0, 0.01600000075995922, 0.0, 0.0, 0.0, 0.0, 0.0, 0.0, 1.6024563307984407E9, 2020-10-11 17:45:30.798
10.0, 455.0822448730469, 392.3603820800781, -673.3876953125, 413.4496765136719, 0.0, 0.01600000075995922, 0.4960000216960907, 0.0, 0.0, 0.0, 0.0, 0.0, 1.602456330811964E9, 2020-10-11 17:45:30.811
10.0, 371.6413269042969, 308.7399597167969, -794.5567016601562, 539.1925659179688, 0.0, 0.01600000075995922, 0.4960000216960907, 0.0, 0.0, 0.0, 0.0, 0.0, 1.602456330811964E9, 2020-10-11 17:45:30.811
11.0, 385.63604736328125, 322.69354248046875, -743.8436889648438, 746.39990234375, 0.0, 0.03200000151991844, 0.4960000216960907, 0.0, 0.0, 0.0, 0.0, 0.0, 1.6024563308276772E9, 2020-10-11 17:45:30.827
11.0, 444.7451477050781, 387.73785400390625, -671.7982177734375, 632.4788208007812, 0.0, 0.03200000151991844, 0.4960000216960907, 0.0, 0.0, 0.0, 0.0, 0.0, 1.6024563308276772E9, 2020-10-11 17:45:30.827
12.0, 402.59649658203125, 339.22015380859375, -756.1703491210938, 423.28936767578125, 0.0, 0.03200000151991844, 0.4960000216960907, 0.0, 0.0, 0.0, 0.0, 0.0, 1.602456330828436E9, 2020-10-11 17:45:30.828
12.0, 366.2184753417969, 306.9036560058594, -772.0275268554688, 627.957275390625, 0.0, 0.03200000151991844, 0.4960000216960907, 0.0, 0.0, 0.0, 0.0, 0.0, 1.602456330828436E9, 2020-10-11 17:45:30.828
13.0, 439.284912109375, 386.9076232910156, -664.2249145507812, 490.08209228515625, 0.0, 0.03200000151991844, 0.4960000216960907, 0.0, 0.0, 0.0, 0.0, 0.0, 1.602456330841963E9, 2020-10-11 17:45:30.841
13.0, 434.860595703125, 370.3996887207031, -717.6195068359375, 679.3509521484375, 0.0, 0.03200000151991844, 0.4960000216960907, 0.0, 0.0, 0.0, 0.0, 0.0, 1.602456330841963E9, 2020-10-11 17:45:30.841
14.0, 354.987548828125, 290.4294128417969, -803.9475708007812, 435.0550842285156, 0.0, 0.03200000151991844, 0.4960000216960907, 0.0, 0.0, 0.0, 0.0, 0.0, 1.602456330857678E9, 2020-10-11 17:45:30.857
14.0, 416.6360778808594, 352.19012451171875, -697.9214477539062, 504.7088623046875, 0.0, 0.03200000151991844, 0.4960000216960907, 0.0, 0.0, 0.0, 0.0, 0.0, 1.602456330857678E9, 2020-10-11 17:45:30.857
15.0, 437.57952880859375, 379.1248779296875, -696.4254760742188, 399.4587097167969, 0.0, 0.03200000151991844, 0.4960000216960907, 0.0, 0.0, 0.0, 0.0, 0.0, 1.602456330858459E9, 2020-10-11 17:45:30.858
15.0, 371.8358154296875, 305.2543640136719, -798.5584106445312, 542.023681640625, 0.0, 0.03200000151991844, 0.4960000216960907, 0.0, 0.0, 0.0, 0.0, 0.0, 1.602456330858459E9, 2020-10-11 17:45:30.858
16.0, 384.0054626464844, 324.4176330566406, -731.6029663085938, 746.5419921875, 0.0, 0.03200000151991844, 0.4960000216960907, 0.0, 0.0, 0.0, 0.0, 0.0, 1.602456330871966E9, 2020-10-11 17:45:30.871
16.0, 442.21697998046875, 385.9501953125, -660.4401245117188, 642.1539306640625, 0.0, 0.03200000151991844, 0.4960000216960907, 0.0, 0.0, 0.0, 0.0, 0.0, 1.602456330871966E9, 2020-10-11 17:45:30.871
17.0, 387.61444091796875, 327.9368591308594, -762.8535766601562, 419.39239501953125, 0.0, 0.03200000151991844, 0.4960000216960907, 0.0, 0.0, 0.0, 0.0, 0.0, 1.602456330887698E9, 2020-10-11 17:45:30.887
17.0, 351.8161315917969, 293.1932067871094, -784.5337524414062, 621.9622192382812, 0.0, 0.03200000151991844, 0.4960000216960907, 0.0, 0.0, 0.0, 0.0, 0.0, 1.602456330887698E9, 2020-10-11 17:45:30.887
18.0, 443.8401184082031, 380.0561218261719, -663.353515625, 483.22686767578125, 0.0, 0.03200000151991844, 0.4960000216960907, 0.0, 0.0, 0.0, 0.0, 0.0, 1.6024563308885627E9, 2020-10-11 17:45:30.888
18.0, 408.0455322265625, 352.1639404296875, -728.2931518554688, 669.6907958984375, 0.0, 0.03200000151991844, 0.4960000216960907, 0.0, 0.0, 0.0, 0.0, 0.0, 1.6024563308885627E9, 2020-10-11 17:45:30.888
19.0, 352.1601867675781, 288.8212585449219, -807.9717407226562, 436.1807861328125, 0.0, 0.03200000151991844, 0.4960000216960907, 0.0, 0.0, 0.0, 0.0, 0.0, 1.6024563309019501E9, 2020-10-11 17:45:30.901
19.0, 410.468994140625, 347.54888916015625, -699.0882568359375, 489.8988342285156, 0.0, 0.03200000151991844, 0.4960000216960907, 0.0, 0.0, 0.0, 0.0, 0.0, 1.6024563309019501E9, 2020-10-11 17:45:30.901
20.0, 435.1523132324219, 372.1462097167969, -700.4346313476562, 397.5177001953125, 0.0, 0.03200000151991844, 0.7520000338554382, 0.0, 0.0, 0.0, 0.0, 0.0, 1.602456330917771E9, 2020-10-11 17:45:30.917
20.0, 369.3786926269531, 302.57659912109375, -796.1237182617188, 546.294677734375, 0.0, 0.03200000151991844, 0.7520000338554382, 0.0, 0.0, 0.0, 0.0, 0.0, 1.602456330917771E9, 2020-10-11 17:45:30.917
21.0, 373.320556640625, 315.3483581542969, -749.621826171875, 730.5389404296875, 0.0, 0.03200000151991844, 0.7520000338554382, 0.0, 0.0, 0.0, 0.0, 0.0, 1.602456330918438E9, 2020-10-11 17:45:30.918
21.0, 434.13507080078125, 376.1142578125, -677.3295288085938, 624.1762084960938, 0.0, 0.03200000151991844, 0.7520000338554382, 0.0, 0.0, 0.0, 0.0, 0.0, 1.602456330918438E9, 2020-10-11 17:45:30.918
22.0, 389.7835998535156, 324.8851013183594, -762.1766357421875, 425.6305236816406, 0.0, 0.03200000151991844, 0.7520000338554382, 0.0, 0.0, 0.0, 0.0, 0.0, 1.6024563309320097E9, 2020-10-11 17:45:30.932
22.0, 360.0177307128906, 293.8252258300781, -783.8568725585938, 625.458984375, 0.0, 0.03200000151991844, 0.7520000338554382, 0.0, 0.0, 0.0, 0.0, 0.0, 1.6024563309320097E9, 2020-10-11 17:45:30.932
23.0, 430.85516357421875, 367.19085693359375, -677.1163940429688, 470.08111572265625, 0.0, 0.03200000151991844, 0.7520000338554382, 0.0, 0.0, 0.0, 0.0, 0.0, 1.6024563309476757E9, 2020-10-11 17:45:30.947
23.0, 416.8529968261719, 353.57763671875, -729.905029296875, 673.5130004882812, 0.0, 0.03200000151991844, 0.7520000338554382, 0.0, 0.0, 0.0, 0.0, 0.0, 1.6024563309476757E9, 2020-10-11 17:45:30.947
24.0, 350.10699462890625, 287.0335693359375, -806.4720458984375, 436.913818359375, 0.0, 0.03200000151991844, 0.7520000338554382, 0.0, 0.0, 0.0, 0.0, 0.0, 1.6024563309484503E9, 2020-10-11 17:45:30.948
24.0, 401.3511047363281, 344.4111328125, -702.2559814453125, 486.3758544921875, 0.0, 0.03200000151991844, 0.7520000338554382, 0.0, 0.0, 0.0, 0.0, 0.0, 1.6024563309484503E9, 2020-10-11 17:45:30.948
25.0, 425.5594787597656, 365.48919677734375, -700.3449096679688, 397.6972351074219, 0.0, 0.03200000151991844, 0.7520000338554382, 0.0, 0.0, 0.0, 0.0, 0.0, 1.6024563309619973E9, 2020-10-11 17:45:30.961
25.0, 367.47882080078125, 299.20697021484375, -802.5077514648438, 544.2227783203125, 0.0, 0.03200000151991844, 0.7520000338554382, 0.0, 0.0, 0.0, 0.0, 0.0, 1.6024563309619973E9, 2020-10-11 17:45:30.961
26.0, 374.32659912109375, 318.35150146484375, -742.8526000976562, 730.8456420898438, 0.0, 0.03200000151991844, 0.7520000338554382, 0.0, 0.0, 0.0, 0.0, 0.0, 1.602456330977766E9, 2020-10-11 17:45:30.977
26.0, 443.851318359375, 382.0307922363281, -679.0386962890625, 628.2377319335938, 0.0, 0.03200000151991844, 0.7520000338554382, 0.0, 0.0, 0.0, 0.0, 0.0, 1.602456330977766E9, 2020-10-11 17:45:30.977
27.0, 388.9159240722656, 327.4619140625, -764.8245239257812, 431.9360046386719, 0.0, 0.03200000151991844, 0.7520000338554382, 0.0, 0.0, 0.0, 0.0, 0.0, 1.6024563309784417E9, 2020-10-11 17:45:30.978
27.0, 352.57159423828125, 296.4618835449219, -788.3671875, 620.8364868164062, 0.0, 0.03200000151991844, 0.7520000338554382, 0.0, 0.0, 0.0, 0.0, 0.0, 1.6024563309784417E9, 2020-10-11 17:45:30.978
28.0, 427.0292663574219, 374.9212341308594, -674.831298828125, 468.5066223144531, 0.0, 0.03200000151991844, 0.7520000338554382, 0.0, 0.0, 0.0, 0.0, 0.0, 1.6024563309919972E9, 2020-10-11 17:45:30.991
28.0, 414.6726379394531, 353.2896423339844, -724.78515625, 678.8497924804688, 0.0, 0.03200000151991844, 0.7520000338554382, 0.0, 0.0, 0.0, 0.0, 0.0, 1.6024563309919972E9, 2020-10-11 17:45:30.991
29.0, 355.24188232421875, 291.3980407714844, -798.4686279296875, 447.2508850097656, 0.0, 0.03200000151991844, 0.7520000338554382, 0.0, 0.0, 0.0, 0.0, 0.0, 1.6024563310077045E9, 2020-10-11 17:45:31.007
29.0, 403.344482421875, 351.7488098144531, -701.1676635742188, 480.7996826171875, 0.0, 0.03200000151991844, 0.7520000338554382, 0.0, 0.0, 0.0, 0.0, 0.0, 1.6024563310077045E9, 2020-10-11 17:45:31.007
30.0, 430.20068359375, 374.2779541015625, -692.6743774414062, 400.8724060058594, 0.0, 0.03200000151991844, 0.8800000548362732, 0.0, 0.0, 0.0, 0.0, 0.0, 1.6024563310084362E9, 2020-10-11 17:45:31.008
30.0, 362.8675231933594, 300.5234069824219, -799.8860473632812, 552.0316772460938, 0.0, 0.03200000151991844, 0.8800000548362732, 0.0, 0.0, 0.0, 0.0, 0.0, 1.6024563310084362E9, 2020-10-11 17:45:31.008
31.0, 388.2988586425781, 327.6376647949219, -737.732666015625, 741.3921508789062, 0.0, 0.03200000151991844, 0.8800000548362732, 0.0, 0.0, 0.0, 0.0, 0.0, 1.6024563310220747E9, 2020-10-11 17:45:31.022
31.0, 429.2358093261719, 375.3438415527344, -684.9514770507812, 620.3465576171875, 0.0, 0.03200000151991844, 0.8800000548362732, 0.0, 0.0, 0.0, 0.0, 0.0, 1.6024563310220747E9, 2020-10-11 17:45:31.022
32.0, 382.4459228515625, 316.8929443359375, -765.7070922851562, 430.87762451171875, 0.0, 0.03200000151991844, 0.8800000548362732, 0.0, 0.0, 0.0, 0.0, 0.0, 1.6024563310541139E9, 2020-10-11 17:45:31.054
32.0, 364.1989440917969, 300.32891845703125, -767.8724975585938, 626.4238891601562, 0.0, 0.03200000151991844, 0.8800000548362732, 0.0, 0.0, 0.0, 0.0, 0.0, 1.6024563310541139E9, 2020-10-11 17:45:31.054
33.0, 422.840576171875, 372.288330078125, -656.1280517578125, 468.1139221191406, 0.0, 0.03200000151991844, 0.8800000548362732, 0.0, 0.0, 0.0, 0.0, 0.0, 1.6024563310548341E9, 2020-10-11 17:45:31.054
33.0, 407.48828125, 354.47894287109375, -705.677978515625, 683.8612670898438, 0.0, 0.03200000151991844, 0.8800000548362732, 0.0, 0.0, 0.0, 0.0, 0.0, 1.6024563310548341E9, 2020-10-11 17:45:31.054
34.0, 354.9576416015625, 300.0260009765625, -776.5191650390625, 450.8598937988281, 0.0, 0.03200000151991844, 0.8800000548362732, 0.0, 0.0, 0.0, 0.0, 0.0, 1.602456331055564E9, 2020-10-11 17:45:31.055
34.0, 400.434814453125, 361.72686767578125, -669.726318359375, 492.109130859375, 0.0, 0.03200000151991844, 0.8800000548362732, 0.0, 0.0, 0.0, 0.0, 0.0, 1.602456331055564E9, 2020-10-11 17:45:31.055
35.0, 424.54595947265625, 373.4140625, -675.6241455078125, 404.88531494140625, 0.0, 0.03200000151991844, 0.8800000548362732, 0.0, 0.0, 0.0, 0.0, 0.0, 1.602456331056301E9, 2020-10-11 17:45:31.056
35.0, 349.8676452636719, 297.4753723144531, -779.6569213867188, 555.2255249023438, 0.0, 0.03200000151991844, 0.8800000548362732, 0.0, 0.0, 0.0, 0.0, 0.0, 1.602456331056301E9, 2020-10-11 17:45:31.056
36.0, 369.8387145996094, 321.9866943359375, -721.6847534179688, 728.26513671875, 0.0, 0.03200000151991844, 0.8800000548362732, 0.0, 0.0, 0.0, 0.0, 0.0, 1.6024563310670037E9, 2020-10-11 17:45:31.067
36.0, 426.27752685546875, 381.2005310058594, -653.2857055664062, 626.1172485351562, 0.0, 0.03200000151991844, 0.8800000548362732, 0.0, 0.0, 0.0, 0.0, 0.0, 1.6024563310670037E9, 2020-10-11 17:45:31.067
37.0, 382.1542053222656, 328.1837158203125, -739.1239013671875, 444.2103576660156, 0.0, 0.03200000151991844, 0.8800000548362732, 0.0, 0.0, 0.0, 0.0, 0.0, 1.602456331081987E9, 2020-10-11 17:45:31.081
37.0, 347.10760498046875, 294.3338623046875, -764.3046264648438, 622.3810424804688, 0.0, 0.03200000151991844, 0.8800000548362732, 0.0, 0.0, 0.0, 0.0, 0.0, 1.602456331081987E9, 2020-10-11 17:45:31.081
38.0, 420.4395446777344, 376.1591491699219, -659.4303588867188, 465.7540588378906, 0.0, 0.03200000151991844, 0.8800000548362732, 0.0, 0.0, 0.0, 0.0, 0.0, 1.6024563310976775E9, 2020-10-11 17:45:31.097
38.0, 409.9753112792969, 360.66473388671875, -712.5743408203125, 683.49853515625, 0.0, 0.03200000151991844, 0.8800000548362732, 0.0, 0.0, 0.0, 0.0, 0.0, 1.6024563310976775E9, 2020-10-11 17:45:31.097
39.0, 345.3348693847656, 289.00823974609375, -791.0748291015625, 443.74285888671875, 0.0, 0.03200000151991844, 0.8800000548362732, 0.0, 0.0, 0.0, 0.0, 0.0, 1.6024563310984583E9, 2020-10-11 17:45:31.098
39.0, 398.1497497558594, 353.3607177734375, -686.159423828125, 481.405517578125, 0.0, 0.03200000151991844, 0.8800000548362732, 0.0, 0.0, 0.0, 0.0, 0.0, 1.6024563310984583E9, 2020-10-11 17:45:31.098
40.0, 422.7508239746094, 378.3245544433594, -667.0223999023438, 405.25555419921875, 0.0, 0.03200000151991844, 0.9440000653266907, 0.0, 0.0, 0.0, 0.0, 0.0, 1.6024563311119828E9, 2020-10-11 17:45:31.111
40.0, 360.97515869140625, 304.644775390625, -780.3076782226562, 564.2088012695312, 0.0, 0.03200000151991844, 0.9440000653266907, 0.0, 0.0, 0.0, 0.0, 0.0, 1.6024563311119828E9, 2020-10-11 17:45:31.111
41.0, 374.2667541503906, 327.9593200683594, -721.8605346679688, 729.7236938476562, 0.0, 0.03200000151991844, 0.9440000653266907, 0.0, 0.0, 0.0, 0.0, 0.0, 1.6024563311277697E9, 2020-10-11 17:45:31.127
41.0, 428.7458801269531, 387.02728271484375, -656.3300170898438, 626.6483154296875, 0.0, 0.03200000151991844, 0.9440000653266907, 0.0, 0.0, 0.0, 0.0, 0.0, 1.6024563311277697E9, 2020-10-11 17:45:31.127
42.0, 384.1251220703125, 326.74383544921875, -750.137939453125, 448.74310302734375, 0.0, 0.03200000151991844, 0.9440000653266907, 0.0, 0.0, 0.0, 0.0, 0.0, 1.6024563311284635E9, 2020-10-11 17:45:31.128
42.0, 346.30352783203125, 301.7912292480469, -758.9453735351562, 627.16064453125, 0.0, 0.03200000151991844, 0.9440000653266907, 0.0, 0.0, 0.0, 0.0, 0.0, 1.6024563311284635E9, 2020-10-11 17:45:31.128
43.0, 420.7574462890625, 374.0760192871094, -662.0109252929688, 461.5055236816406, 0.0, 0.03200000151991844, 0.9440000653266907, 0.0, 0.0, 0.0, 0.0, 0.0, 1.6024563311420264E9, 2020-10-11 17:45:31.142
43.0, 402.28607177734375, 345.09552001953125, -714.7098388671875, 677.9896240234375, 0.0, 0.03200000151991844, 0.9440000653266907, 0.0, 0.0, 0.0, 0.0, 0.0, 1.6024563311420264E9, 2020-10-11 17:45:31.142
44.0, 337.7316589355469, 277.3846435546875, -798.449951171875, 442.68072509765625, 0.0, 0.03200000151991844, 0.9440000653266907, 0.0, 0.0, 0.0, 0.0, 0.0, 1.6024563311576583E9, 2020-10-11 17:45:31.157
44.0, 399.1969299316406, 348.3492431640625, -683.0889892578125, 476.4651184082031, 0.0, 0.03200000151991844, 0.9440000653266907, 0.0, 0.0, 0.0, 0.0, 0.0, 1.6024563311576583E9, 2020-10-11 17:45:31.157
45.0, 431.25909423828125, 376.68646240234375, -677.7708740234375, 403.59503173828125, 0.0, 0.03200000151991844, 0.9440000653266907, 0.0, 0.0, 0.0, 0.0, 0.0, 1.602456331158437E9, 2020-10-11 17:45:31.158
45.0, 356.27783203125, 295.58673095703125, -787.4808349609375, 560.8690795898438, 0.0, 0.03200000151991844, 0.9440000653266907, 0.0, 0.0, 0.0, 0.0, 0.0, 1.602456331158437E9, 2020-10-11 17:45:31.158
46.0, 375.9833679199219, 319.91851806640625, -726.2100219726562, 718.137451171875, 0.0, 0.03200000151991844, 0.9440000653266907, 0.0, 0.0, 0.0, 0.0, 0.0, 1.6024563311719813E9, 2020-10-11 17:45:31.171
46.0, 433.1103210449219, 382.3898010253906, -663.6714477539062, 624.63623046875, 0.0, 0.03200000151991844, 0.9440000653266907, 0.0, 0.0, 0.0, 0.0, 0.0, 1.6024563311719813E9, 2020-10-11 17:45:31.171
47.0, 380.87890625, 327.49554443359375, -755.43359375, 444.10565185546875, 0.0, 0.03200000151991844, 0.9440000653266907, 0.0, 0.0, 0.0, 0.0, 0.0, 1.6024563311877525E9, 2020-10-11 17:45:31.187
47.0, 355.1558532714844, 298.8067932128906, -765.7520141601562, 618.8992309570312, 0.0, 0.03200000151991844, 0.9440000653266907, 0.0, 0.0, 0.0, 0.0, 0.0, 1.6024563311877525E9, 2020-10-11 17:45:31.187
48.0, 430.6382751464844, 382.5880126953125, -649.1830444335938, 470.13720703125, 0.0, 0.03200000151991844, 0.9440000653266907, 0.0, 0.0, 0.0, 0.0, 0.0, 1.6024563311885157E9, 2020-10-11 17:45:31.188
48.0, 411.6769714355469, 358.8583679199219, -701.0592041015625, 691.4083862304688, 0.0, 0.03200000151991844, 0.9440000653266907, 0.0, 0.0, 0.0, 0.0, 0.0, 1.6024563311885157E9, 2020-10-11 17:45:31.188
49.0, 349.5684509277344, 295.2501525878906, -782.147705078125, 447.41546630859375, 0.0, 0.03200000151991844, 0.9440000653266907, 0.0, 0.0, 0.0, 0.0, 0.0, 1.6024563312019775E9, 2020-10-11 17:45:31.201
49.0, 411.2543640136719, 360.5263671875, -676.1552124023438, 481.34942626953125, 0.0, 0.03200000151991844, 0.9440000653266907, 0.0, 0.0, 0.0, 0.0, 0.0, 1.6024563312019775E9, 2020-10-11 17:45:31.201
50.0, 436.7791748046875, 378.3507080078125, -675.8784790039062, 413.1878967285156, 0.0, 0.03200000151991844, 0.9760000705718994, 0.0, 0.0, 0.0, 0.0, 0.0, 1.6024563312177231E9, 2020-10-11 17:45:31.217
50.0, 370.68017578125, 309.0054931640625, -782.850830078125, 573.1209716796875, 0.0, 0.03200000151991844, 0.9760000705718994, 0.0, 0.0, 0.0, 0.0, 0.0, 1.6024563312177231E9, 2020-10-11 17:45:31.217
51.0, 381.1481628417969, 325.7191162109375, -720.3271484375, 735.8533935546875, 0.0, 0.03200000151991844, 0.9760000705718994, 0.0, 0.0, 0.0, 0.0, 0.0, 1.6024563312184725E9, 2020-10-11 17:45:31.218
51.0, 441.81683349609375, 386.9263000488281, -650.548095703125, 633.9411010742188, 0.0, 0.03200000151991844, 0.9760000705718994, 0.0, 0.0, 0.0, 0.0, 0.0, 1.6024563312184725E9, 2020-10-11 17:45:31.218
52.0, 392.8353576660156, 336.6545715332031, -749.9359741210938, 458.13775634765625, 0.0, 0.03200000151991844, 0.9760000705718994, 0.0, 0.0, 0.0, 0.0, 0.0, 1.6024563312320204E9, 2020-10-11 17:45:31.232
52.0, 360.10748291015625, 302.6888122558594, -773.4711303710938, 624.1575317382812, 0.0, 0.03200000151991844, 0.9760000705718994, 0.0, 0.0, 0.0, 0.0, 0.0, 1.6024563312320204E9, 2020-10-11 17:45:31.232
53.0, 437.40374755859375, 387.2629089355469, -652.8369140625, 469.0040283203125, 0.0, 0.03200000151991844, 0.9760000705718994, 0.0, 0.0, 0.0, 0.0, 0.0, 1.6024563312477088E9, 2020-10-11 17:45:31.247
53.0, 420.7387390136719, 360.9601745605469, -708.0303955078125, 696.5245971679688, 0.0, 0.03200000151991844, 0.9760000705718994, 0.0, 0.0, 0.0, 0.0, 0.0, 1.6024563312477088E9, 2020-10-11 17:45:31.247
54.0, 353.5364685058594, 290.3546142578125, -790.9102783203125, 934.1091918945312, 0.0, 0.03200000151991844, 0.9760000705718994, 0.0, 0.0, 0.0, 0.0, 0.0, 1.60245633124844E9, 2020-10-11 17:45:31.248
54.0, 420.09173583984375, 369.2702331542969, -673.986083984375, 975.54541015625, 0.0, 0.03200000151991844, 0.9760000705718994, 0.0, 0.0, 0.0, 0.0, 0.0, 1.60245633124844E9, 2020-10-11 17:45:31.248
55.0, 434.22857666015625, 379.18096923828125, -679.5211181640625, 898.3445434570312, 0.0, 0.03200000151991844, 0.9760000705718994, 0.0, 0.0, 0.0, 0.0, 0.0, 1.6024563312619495E9, 2020-10-11 17:45:31.261
55.0, 369.2515563964844, 305.8228454589844, -785.4912109375, 1060.6898193359375, 0.0, 0.03200000151991844, 0.9760000705718994, 0.0, 0.0, 0.0, 0.0, 0.0, 1.6024563312619495E9, 2020-10-11 17:45:31.261
56.0, 383.1078796386719, 326.4745788574219, -721.8568115234375, 1211.2376708984375, 0.0, 0.03200000151991844, 0.9760000705718994, 0.0, 0.0, 0.0, 0.0, 0.0, 1.6024563312777133E9, 2020-10-11 17:45:31.277
56.0, 445.119140625, 391.0738525390625, -652.0927124023438, 1126.61865234375, 0.0, 0.03200000151991844, 0.9760000705718994, 0.0, 0.0, 0.0, 0.0, 0.0, 1.6024563312777133E9, 2020-10-11 17:45:31.277
57.0, 398.5162658691406, 336.41522216796875, -744.670166015625, 946.9483032226562, 0.0, 0.03200000151991844, 0.9760000705718994, 0.0, 0.0, 0.0, 0.0, 0.0, 1.6024563312784383E9, 2020-10-11 17:45:31.278
57.0, 360.0887756347656, 299.2518310546875, -773.871337890625, 1106.109130859375, 0.0, 0.03200000151991844, 0.9760000705718994, 0.0, 0.0, 0.0, 0.0, 0.0, 1.6024563312784383E9, 2020-10-11 17:45:31.278
58.0, 436.4425964355469, 381.3127136230469, -658.211181640625, 951.423095703125, 0.0, 0.03200000151991844, 0.9760000705718994, 0.0, 0.0, 0.0, 0.0, 0.0, 1.6024563312919512E9, 2020-10-11 17:45:31.291
58.0, 422.7994384765625, 365.7659606933594, -710.67822265625, 1189.198486328125, 0.0, 0.03200000151991844, 0.9760000705718994, 0.0, 0.0, 0.0, 0.0, 0.0, 1.6024563312919512E9, 2020-10-11 17:45:31.291
59.0, 360.01397705078125, 299.4612731933594, -791.9163208007812, 947.086669921875, 0.0, 0.03200000151991844, 0.9760000705718994, 0.0, 0.0, 0.0, 0.0, 0.0, 1.602456331307757E9, 2020-10-11 17:45:31.307
59.0, 417.1072998046875, 366.63360595703125, -666.850341796875, 968.43212890625, 0.0, 0.03200000151991844, 0.9760000705718994, 0.0, 0.0, 0.0, 0.0, 0.0, 1.602456331307757E9, 2020-10-11 17:45:31.307
60.0, 439.08294677734375, 380.5684814453125, -675.0257568359375, 904.6724243164062, 0.0, 0.03200000151991844, 1.0080000162124634, 0.0, 0.0, 0.0, 0.0, 0.0, 1.6024563313084683E9, 2020-10-11 17:45:31.308
60.0, 371.20751953125, 310.1012878417969, -783.7409057617188, 1068.5848388671875, 0.0, 0.03200000151991844, 1.0080000162124634, 0.0, 0.0, 0.0, 0.0, 0.0, 1.6024563313084683E9, 2020-10-11 17:45:31.308
61.0, 389.4283142089844, 329.0625915527344, -726.3895263671875, 1212.1053466796875, 0.0, 0.03200000151991844, 1.0080000162124634, 0.0, 0.0, 0.0, 0.0, 0.0, 1.6024563313220572E9, 2020-10-11 17:45:31.322
61.0, 450.8935546875, 393.93487548828125, -648.7192993164062, 1123.7576904296875, 0.0, 0.03200000151991844, 1.0080000162124634, 0.0, 0.0, 0.0, 0.0, 0.0, 1.6024563313220572E9, 2020-10-11 17:45:31.322
62.0, 399.38018798828125, 336.9986572265625, -755.78515625, 953.870849609375, 0.0, 0.03200000151991844, 1.0080000162124634, 0.0, 0.0, 0.0, 0.0, 0.0, 1.602456331337695E9, 2020-10-11 17:45:31.337
62.0, 367.8453369140625, 308.2874450683594, -767.3040771484375, 1110.3314208984375, 0.0, 0.03200000151991844, 1.0080000162124634, 0.0, 0.0, 0.0, 0.0, 0.0, 1.602456331337695E9, 2020-10-11 17:45:31.337
63.0, 442.25439453125, 387.41998291015625, -649.8712158203125, 951.3333129882812, 0.0, 0.03200000151991844, 1.0080000162124634, 0.0, 0.0, 0.0, 0.0, 0.0, 1.60245633133844E9, 2020-10-11 17:45:31.338
63.0, 425.7240295410156, 365.92303466796875, -712.52197265625, 1191.4385986328125, 0.0, 0.03200000151991844, 1.0080000162124634, 0.0, 0.0, 0.0, 0.0, 0.0, 1.60245633133844E9, 2020-10-11 17:45:31.338
64.0, 362.6057434082031, 300.55706787109375, -790.0388793945312, 946.8734741210938, 0.0, 0.03200000151991844, 1.0080000162124634, 0.0, 0.0, 0.0, 0.0, 0.0, 1.6024563313519547E9, 2020-10-11 17:45:31.351
64.0, 423.3417053222656, 364.2774658203125, -679.8240356445312, 964.6622924804688, 0.0, 0.03200000151991844, 1.0080000162124634, 0.0, 0.0, 0.0, 0.0, 0.0, 1.6024563313519547E9, 2020-10-11 17:45:31.351
65.0, 446.9516906738281, 390.8980712890625, -670.6875, 915.13671875, 0.0, 0.03200000151991844, 1.0080000162124634, 0.0, 0.0, 0.0, 0.0, 0.0, 1.6024563313676825E9, 2020-10-11 17:45:31.367
65.0, 374.8127746582031, 318.531005859375, -776.1115112304688, 1073.2596435546875, 0.0, 0.03200000151991844, 1.0080000162124634, 0.0, 0.0, 0.0, 0.0, 0.0, 1.6024563313676825E9, 2020-10-11 17:45:31.367
66.0, 391.5039367675781, 337.4137878417969, -717.8588256835938, 1212.041748046875, 0.0, 0.03200000151991844, 1.0080000162124634, 0.0, 0.0, 0.0, 0.0, 0.0, 1.6024563313684528E9, 2020-10-11 17:45:31.368
66.0, 455.9274597167969, 402.0579528808594, -649.4822387695312, 1129.1805419921875, 0.0, 0.03200000151991844, 1.0080000162124634, 0.0, 0.0, 0.0, 0.0, 0.0, 1.6024563313684528E9, 2020-10-11 17:45:31.368
67.0, 406.7328186035156, 343.3677062988281, -748.0173950195312, 959.6564331054688, 0.0, 0.03200000151991844, 1.0080000162124634, 0.0, 0.0, 0.0, 0.0, 0.0, 1.6024563313819647E9, 2020-10-11 17:45:31.381
67.0, 373.1672058105469, 312.7603454589844, -766.197021484375, 1120.2496337890625, 0.0, 0.03200000151991844, 1.0080000162124634, 0.0, 0.0, 0.0, 0.0, 0.0, 1.6024563313819647E9, 2020-10-11 17:45:31.381
68.0, 448.6907653808594, 396.94549560546875, -653.7158203125, 955.4472045898438, 0.0, 0.03200000151991844, 1.0080000162124634, 0.0, 0.0, 0.0, 0.0, 0.0, 1.6024563313977122E9, 2020-10-11 17:45:31.397
68.0, 426.20648193359375, 367.17962646484375, -709.1598510742188, 1190.0623779296875, 0.0, 0.03200000151991844, 1.0080000162124634, 0.0, 0.0, 0.0, 0.0, 0.0, 1.6024563313977122E9, 2020-10-11 17:45:31.397
69.0, 355.1558532714844, 299.15460205078125, -789.6724243164062, 949.50634765625, 0.0, 0.03200000151991844, 1.0080000162124634, 0.0, 0.0, 0.0, 0.0, 0.0, 1.6024563313984635E9, 2020-10-11 17:45:31.398
69.0, 424.1682434082031, 369.0009765625, -675.3810424804688, 968.0170288085938, 0.0, 0.03200000151991844, 1.0080000162124634, 0.0, 0.0, 0.0, 0.0, 0.0, 1.6024563313984635E9, 2020-10-11 17:45:31.398
70.0, 446.91802978515625, 391.6123962402344, -675.3735961914062, 909.4632568359375, 0.0, 0.03200000151991844, 1.0080000162124634, 0.0, 0.0, 0.0, 0.0, 0.0, 1.6024563314119575E9, 2020-10-11 17:45:31.411
70.0, 381.89239501953125, 316.9677429199219, -782.301025390625, 1074.2657470703125, 0.0, 0.03200000151991844, 1.0080000162124634, 0.0, 0.0, 0.0, 0.0, 0.0, 1.6024563314119575E9, 2020-10-11 17:45:31.411
71.0, 400.37872314453125, 340.14764404296875, -722.485107421875, 1210.8599853515625, 0.0, 0.03200000151991844, 1.0080000162124634, 0.0, 0.0, 0.0, 0.0, 0.0, 1.602456331427686E9, 2020-10-11 17:45:31.427
71.0, 452.59893798828125, 397.55511474609375, -659.4004516601562, 1121.005126953125, 0.0, 0.03200000151991844, 1.0080000162124634, 0.0, 0.0, 0.0, 0.0, 0.0, 1.602456331427686E9, 2020-10-11 17:45:31.427
72.0, 406.4598083496094, 344.92724609375, -752.4304809570312, 959.56298828125, 0.0, 0.03200000151991844, 1.0080000162124634, 0.0, 0.0, 0.0, 0.0, 0.0, 1.6024563314284406E9, 2020-10-11 17:45:31.428
72.0, 370.5193786621094, 313.283935546875, -765.8267822265625, 1116.2928466796875, 0.0, 0.03200000151991844, 1.0080000162124634, 0.0, 0.0, 0.0, 0.0, 0.0, 1.6024563314284406E9, 2020-10-11 17:45:31.428
73.0, 447.7782287597656, 393.9535827636719, -648.902587890625, 954.7403564453125, 0.0, 0.03200000151991844, 1.0080000162124634, 0.0, 0.0, 0.0, 0.0, 0.0, 1.6024563314419863E9, 2020-10-11 17:45:31.441
73.0, 433.2449645996094, 376.80987548828125, -702.2559814453125, 711.60009765625, 0.0, 0.03200000151991844, 1.0080000162124634, 0.0, 0.0, 0.0, 0.0, 0.0, 1.6024563314419863E9, 2020-10-11 17:45:31.441
74.0, 365.92303466796875, 307.17669677734375, -785.1807861328125, 955.8604736328125, 0.0, 0.03200000151991844, 1.0080000162124634, 0.0, 0.0, 0.0, 0.0, 0.0, 1.60245633145769E9, 2020-10-11 17:45:31.457
74.0, 431.4834899902344, 373.2345275878906, -678.3093872070312, 964.0826416015625, 0.0, 0.03200000151991844, 1.0080000162124634, 0.0, 0.0, 0.0, 0.0, 0.0, 1.60245633145769E9, 2020-10-11 17:45:31.457
75.0, 452.1277160644531, 391.1486511230469, -680.7739868164062, 909.4707641601562, 0.0, 0.03200000151991844, 1.0080000162124634, 0.0, 0.0, 0.0, 0.0, 0.0, 1.6024563314584525E9, 2020-10-11 17:45:31.458
75.0, 378.7957763671875, 316.7358703613281, -777.603759765625, 1072.642578125, 0.0, 0.03200000151991844, 1.0080000162124634, 0.0, 0.0, 0.0, 0.0, 0.0, 1.6024563314584525E9, 2020-10-11 17:45:31.458
76.0, 388.82244873046875, 325.25909423828125, -739.2211303710938, 1196.046142578125, 0.0, 0.03200000151991844, 1.0080000162124634, 0.0, 0.0, 0.0, 0.0, 0.0, 1.6024563314720087E9, 2020-10-11 17:45:31.472
76.0, 451.91455078125, 394.43975830078125, -667.4038696289062, 1123.320068359375, 0.0, 0.03200000151991844, 1.0080000162124634, 0.0, 0.0, 0.0, 0.0, 0.0, 1.6024563314720087E9, 2020-10-11 17:45:31.472
77.0, 395.3822326660156, 326.6540832519531, -760.1683349609375, 954.9217529296875, 0.0, 0.03200000151991844, 1.0080000162124634, 0.0, 0.0, 0.0, 0.0, 0.0, 1.6024563314877143E9, 2020-10-11 17:45:31.487
77.0, 366.52142333984375, 297.9765319824219, -781.54931640625, 1106.449462890625, 0.0, 0.03200000151991844, 1.0080000162124634, 0.0, 0.0, 0.0, 0.0, 0.0, 1.6024563314877143E9, 2020-10-11 17:45:31.487
78.0, 441.1585998535156, 383.6838073730469, -666.1434936523438, 947.974853515625, 0.0, 0.03200000151991844, 1.0080000162124634, 0.0, 0.0, 0.0, 0.0, 0.0, 1.6024563314884713E9, 2020-10-11 17:45:31.488
78.0, 425.3425598144531, 360.3206481933594, -719.7998657226562, 1192.26513671875, 0.0, 0.03200000151991844, 1.0080000162124634, 0.0, 0.0, 0.0, 0.0, 0.0, 1.6024563314884713E9, 2020-10-11 17:45:31.488
79.0, 360.2869873046875, 296.09161376953125, -798.6668701171875, 1436.1552734375, 0.0, 0.03200000151991844, 1.0080000162124634, 0.0, 0.0, 0.0, 0.0, 0.0, 1.6024563315019996E9, 2020-10-11 17:45:31.501
79.0, 423.54742431640625, 364.75244140625, -677.860595703125, 1450.5706787109375, 0.0, 0.03200000151991844, 1.0080000162124634, 0.0, 0.0, 0.0, 0.0, 0.0, 1.6024563315019996E9, 2020-10-11 17:45:31.501
80.0, 448.4925537109375, 386.7841796875, -676.686279296875, 1398.4608154296875, 0.0, 0.03200000151991844, 1.0080000162124634, 0.0, 0.0, 0.0, 0.0, 0.0, 1.602456331517719E9, 2020-10-11 17:45:31.517
80.0, 368.4549560546875, 299.45379638671875, -796.220947265625, 1558.954833984375, 0.0, 0.03200000151991844, 1.0080000162124634, 0.0, 0.0, 0.0, 0.0, 0.0, 1.602456331517719E9, 2020-10-11 17:45:31.517
81.0, 379.6783752441406, 325.8649597167969, -736.745361328125, 1688.402099609375, 0.0, 0.04800000041723251, 1.0080000162124634, 0.0, 0.0, 0.0, 0.0, 0.0, 1.6024563315184753E9, 2020-10-11 17:45:31.518
81.0, 446.585205078125, 388.1903991699219, -666.9512939453125, 1603.525146484375, 0.0, 0.04800000041723251, 1.0080000162124634, 0.0, 0.0, 0.0, 0.0, 0.0, 1.6024563315184753E9, 2020-10-11 17:45:31.518
82.0, 401.39599609375, 340.7834167480469, -757.7897338867188, 1454.443359375, 0.0, 0.04800000041723251, 1.0080000162124634, 0.0, 0.0, 0.0, 0.0, 0.0, 1.6024563315320125E9, 2020-10-11 17:45:31.532
82.0, 358.48809814453125, 297.4753723144531, -784.2308349609375, 1592.5185546875, 0.0, 0.04800000041723251, 1.0080000162124634, 0.0, 0.0, 0.0, 0.0, 0.0, 1.6024563315320125E9, 2020-10-11 17:45:31.532
83.0, 439.109130859375, 383.6688537597656, -657.13037109375, 1431.26904296875, 0.0, 0.04800000041723251, 1.0080000162124634, 0.0, 0.0, 0.0, 0.0, 0.0, 1.602456331547674E9, 2020-10-11 17:45:31.547
83.0, 420.06182861328125, 359.1874694824219, -712.2564697265625, 1193.0579833984375, 0.0, 0.04800000041723251, 1.0080000162124634, 0.0, 0.0, 0.0, 0.0, 0.0, 1.602456331547674E9, 2020-10-11 17:45:31.547
84.0, 358.0131530761719, 299.8203125, -793.8461303710938, 1438.1485595703125, 0.0, 0.04800000041723251, 1.0080000162124634, 0.0, 0.0, 0.0, 0.0, 0.0, 1.602456331548437E9, 2020-10-11 17:45:31.548
84.0, 425.7240295410156, 368.8663330078125, -680.8338012695312, 1449.048583984375, 0.0, 0.04800000041723251, 1.0080000162124634, 0.0, 0.0, 0.0, 0.0, 0.0, 1.602456331548437E9, 2020-10-11 17:45:31.548
85.0, 437.7366027832031, 387.31524658203125, -678.399169921875, 1394.290771484375, 0.0, 0.04800000041723251, 1.0080000162124634, 0.0, 0.0, 0.0, 0.0, 0.0, 1.602456331562052E9, 2020-10-11 17:45:31.562
85.0, 369.4310607910156, 304.4615173339844, -785.738037109375, 1566.6029052734375, 0.0, 0.04800000041723251, 1.0080000162124634, 0.0, 0.0, 0.0, 0.0, 0.0, 1.602456331562052E9, 2020-10-11 17:45:31.562
86.0, 382.9395751953125, 326.7363586425781, -731.1167602539062, 1691.3753662109375, 0.0, 0.04800000041723251, 1.0080000162124634, 0.0, 0.0, 0.0, 0.0, 0.0, 1.602456331577685E9, 2020-10-11 17:45:31.577
86.0, 444.38238525390625, 397.58502197265625, -654.1309204101562, 1603.04638671875, 0.0, 0.04800000041723251, 1.0080000162124634, 0.0, 0.0, 0.0, 0.0, 0.0, 1.602456331577685E9, 2020-10-11 17:45:31.577
87.0, 391.2496337890625, 338.883544921875, -751.20751953125, 1449.20751953125, 0.0, 0.04800000041723251, 1.0080000162124634, 0.0, 0.0, 0.0, 0.0, 0.0, 1.6024563315784369E9, 2020-10-11 17:45:31.578
87.0, 353.7833251953125, 297.7745666503906, -775.6552734375, 1595.1290283203125, 0.0, 0.04800000041723251, 1.0080000162124634, 0.0, 0.0, 0.0, 0.0, 0.0, 1.6024563315784369E9, 2020-10-11 17:45:31.578
88.0, 437.70294189453125, 382.7712707519531, -663.8172607421875, 1435.5400390625, 0.0, 0.04800000041723251, 1.0080000162124634, 0.0, 0.0, 0.0, 0.0, 0.0, 1.6024563316084044E9, 2020-10-11 17:45:31.608
88.0, 417.7767333984375, 360.69464111328125, -716.9014282226562, 1197.392578125, 0.0, 0.04800000041723251, 1.0080000162124634, 0.0, 0.0, 0.0, 0.0, 0.0, 1.6024563316084044E9, 2020-10-11 17:45:31.608
89.0, 361.442626953125, 300.5907287597656, -790.985107421875, 1437.81201171875, 0.0, 0.04800000041723251, 1.0080000162124634, 0.0, 0.0, 0.0, 0.0, 0.0, 1.602456331609134E9, 2020-10-11 17:45:31.609
89.0, 420.880859375, 374.5023498535156, -668.31640625, 1452.19384765625, 0.0, 0.04800000041723251, 1.0080000162124634, 0.0, 0.0, 0.0, 0.0, 0.0, 1.602456331609134E9, 2020-10-11 17:45:31.609
90.0, 440.376953125, 383.6688537597656, -682.8234252929688, 1393.5091552734375, 0.0, 0.04800000041723251, 1.0080000162124634, 0.0, 0.0, 0.0, 0.0, 0.0, 1.602456331609874E9, 2020-10-11 17:45:31.609
90.0, 366.68597412109375, 308.2537841796875, -787.1965942382812, 1565.035888671875, 0.0, 0.04800000041723251, 1.0080000162124634, 0.0, 0.0, 0.0, 0.0, 0.0, 1.602456331609874E9, 2020-10-11 17:45:31.609
91.0, 387.3077697753906, 332.85858154296875, -723.2069091796875, 1688.1217041015625, 0.0, 0.03200000151991844, 1.0080000162124634, 0.0, 0.0, 0.0, 0.0, 0.0, 1.6024563316219988E9, 2020-10-11 17:45:31.621
91.0, 454.01263427734375, 401.971923828125, -652.2273559570312, 1613.009521484375, 0.0, 0.03200000151991844, 1.0080000162124634, 0.0, 0.0, 0.0, 0.0, 0.0, 1.6024563316219988E9, 2020-10-11 17:45:31.621
92.0, 405.22564697265625, 345.10675048828125, -744.9207763671875, 1462.472900390625, 0.0, 0.03200000151991844, 1.0080000162124634, 0.0, 0.0, 0.0, 0.0, 0.0, 1.6024563316376555E9, 2020-10-11 17:45:31.637
92.0, 365.41815185546875, 309.6861572265625, -767.9697265625, 1601.8160400390625, 0.0, 0.03200000151991844, 1.0080000162124634, 0.0, 0.0, 0.0, 0.0, 0.0, 1.6024563316376555E9, 2020-10-11 17:45:31.637
93.0, 443.7054748535156, 394.3088684082031, -658.024169921875, 1432.667724609375, 0.0, 0.03200000151991844, 1.0080000162124634, 0.0, 0.0, 0.0, 0.0, 0.0, 1.6024563316384451E9, 2020-10-11 17:45:31.638
93.0, 425.9110412597656, 360.97515869140625, -719.515625, 1199.0455322265625, 0.0, 0.03200000151991844, 1.0080000162124634, 0.0, 0.0, 0.0, 0.0, 0.0, 1.6024563316384451E9, 2020-10-11 17:45:31.638
94.0, 357.5531311035156, 291.7645568847656, -805.3088989257812, 1428.3426513671875, 0.0, 0.03200000151991844, 1.0080000162124634, 0.0, 0.0, 0.0, 0.0, 0.0, 1.6024563316519876E9, 2020-10-11 17:45:31.651
94.0, 407.9407958984375, 358.3048400878906, -689.5291137695312, 1438.049560546875, 0.0, 0.03200000151991844, 1.0080000162124634, 0.0, 0.0, 0.0, 0.0, 0.0, 1.6024563316519876E9, 2020-10-11 17:45:31.651
95.0, 437.52716064453125, 377.5279541015625, -691.2943115234375, 1391.4522705078125, 0.0, 0.03200000151991844, 1.0080000162124634, 0.0, 0.0, 0.0, 0.0, 0.0, 1.602456331667653E9, 2020-10-11 17:45:31.667
95.0, 371.18133544921875, 305.1720886230469, -798.0198364257812, 1560.5966796875, 0.0, 0.03200000151991844, 1.0080000162124634, 0.0, 0.0, 0.0, 0.0, 0.0, 1.602456331667653E9, 2020-10-11 17:45:31.667
96.0, 383.2873840332031, 323.22833251953125, -738.4880981445312, 1680.8214111328125, 0.0, 0.03200000151991844, 1.0080000162124634, 0.0, 0.0, 0.0, 0.0, 0.0, 1.602456331668435E9, 2020-10-11 17:45:31.668
96.0, 449.9361572265625, 390.2286376953125, -662.3101196289062, 1601.404541015625, 0.0, 0.03200000151991844, 1.0080000162124634, 0.0, 0.0, 0.0, 0.0, 0.0, 1.602456331668435E9, 2020-10-11 17:45:31.668
97.0, 392.827880859375, 331.2055358886719, -763.4108276367188, 1448.9942626953125, 0.0, 0.03200000151991844, 1.0080000162124634, 0.0, 0.0, 0.0, 0.0, 0.0, 1.6024563316819792E9, 2020-10-11 17:45:31.681
97.0, 361.02001953125, 298.64971923828125, -777.5962524414062, 1592.5933837890625, 0.0, 0.03200000151991844, 1.0080000162124634, 0.0, 0.0, 0.0, 0.0, 0.0, 1.6024563316819792E9, 2020-10-11 17:45:31.681
98.0, 438.69775390625, 384.9927673339844, -665.6386108398438, 1428.4791259765625, 0.0, 0.03200000151991844, 1.0080000162124634, 0.0, 0.0, 0.0, 0.0, 0.0, 1.6024563316977308E9, 2020-10-11 17:45:31.697
98.0, 421.04541015625, 354.3255920410156, -725.327392578125, 1191.8126220703125, 0.0, 0.03200000151991844, 1.0080000162124634, 0.0, 0.0, 0.0, 0.0, 0.0, 1.6024563316977308E9, 2020-10-11 17:45:31.697
99.0, 351.3972473144531, 287.27294921875, -811.4273681640625, 1432.54248046875, 0.0, 0.03200000151991844, 1.0080000162124634, 0.0, 0.0, 0.0, 0.0, 0.0, 1.6024563316984463E9, 2020-10-11 17:45:31.698
99.0, 408.920654296875, 349.6993408203125, -698.64697265625, 1425.9864501953125, 0.0, 0.03200000151991844, 1.0080000162124634, 0.0, 0.0, 0.0, 0.0, 0.0, 1.6024563316984463E9, 2020-10-11 17:45:31.698
100.0, 431.3750305175781, 372.9764709472656, -700.6328735351562, 1389.27001953125, 0.0, 0.03200000151991844, 1.0080000162124634, 0.0, 0.0, 0.0, 0.0, 0.0, 1.602456331712701E9, 2020-10-11 17:45:31.712
100.0, 355.2867431640625, 293.365234375, -805.4061279296875, 1558.3695068359375, 0.0, 0.03200000151991844, 1.0080000162124634, 0.0, 0.0, 0.0, 0.0, 0.0, 1.602456331712701E9, 2020-10-11 17:45:31.712
0.0, 384.05218505859375, 325.6835632324219, -729.8638916015625, -283.3011474609375, 0.0, 0.03200000151991844, 1.0080000162124634, 0.0, 0.0, 0.0, 0.0, 0.0, 1.6024563317134235E9, 2020-10-11 17:45:31.713
1.0, 440.0459899902344, 383.760498046875, -665.522705078125, -363.0694885253906, 0.0, 0.03200000151991844, 1.0080000162124634, 0.0, 0.0, 0.0, 0.0, 0.0, 1.60245633172709E9, 2020-10-11 17:45:31.727
1.0, 385.9071960449219, 326.0463562011719, -760.609619140625, -511.0965881347656, 0.0, 0.03200000151991844, 1.0080000162124634, 0.0, 0.0, 0.0, 0.0, 0.0, 1.60245633172709E9, 2020-10-11 17:45:31.727
2.0, 361.1714782714844, 295.4539794921875, -787.394775390625, -373.94512939453125, 0.0, 0.03200000151991844, 1.0080000162124634, 0.0, 0.0, 0.0, 0.0, 0.0, 1.6024563317427416E9, 2020-10-11 17:45:31.742
2.0, 436.5603942871094, 380.04302978515625, -666.674560546875, -544.2152709960938, 0.0, 0.03200000151991844, 1.0080000162124634, 0.0, 0.0, 0.0, 0.0, 0.0, 1.6024563317427416E9, 2020-10-11 17:45:31.742
3.0, 408.7953796386719, 346.2792053222656, -739.2435913085938, -776.7491455078125, 0.0, 0.03200000151991844, 1.0080000162124634, 0.0, 0.0, 0.0, 0.0, 0.0, 1.6024563317434847E9, 2020-10-11 17:45:31.743
3.0, 350.3631896972656, 283.2282409667969, -813.7685546875, -1021.3292846679688, 0.0, 0.03200000151991844, 1.0080000162124634, 0.0, 0.0, 0.0, 0.0, 0.0, 1.6024563317434847E9, 2020-10-11 17:45:31.743
4.0, 413.597412109375, 361.04058837890625, -694.5817260742188, -1022.2642822265625, 0.0, 0.03200000151991844, 1.0080000162124634, 0.0, 0.0, 0.0, 0.0, 0.0, 1.6024563317569704E9, 2020-10-11 17:45:31.756
4.0, 435.6179504394531, 373.7973937988281, -691.9002075195312, -1056.8040771484375, 0.0, 0.03200000151991844, 1.0080000162124634, 0.0, 0.0, 0.0, 0.0, 0.0, 1.6024563317569704E9, 2020-10-11 17:45:31.756
5.0, 364.2008056640625, 298.4010009765625, -803.3865966796875, -887.3492431640625, 0.0, 0.03200000151991844, 1.0080000162124634, 0.0, 0.0, 0.0, 0.0, 0.0, 1.6024563317727044E9, 2020-10-11 17:45:31.772
5.0, 379.5456237792969, 324.7298889160156, -734.3929443359375, -774.6604614257812, 0.0, 0.03200000151991844, 1.0080000162124634, 0.0, 0.0, 0.0, 0.0, 0.0, 1.6024563317727044E9, 2020-10-11 17:45:31.772
6.0, 441.743896484375, 385.94085693359375, -668.63427734375, -850.5093383789062, 0.0, 0.03200000151991844, 1.0080000162124634, 0.0, 0.0, 0.0, 0.0, 0.0, 1.6024563317734244E9, 2020-10-11 17:45:31.773
6.0, 391.5768737792969, 323.383544921875, -766.8253173828125, -1000.0137329101562, 0.0, 0.03200000151991844, 1.0080000162124634, 0.0, 0.0, 0.0, 0.0, 0.0, 1.6024563317734244E9, 2020-10-11 17:45:31.773
7.0, 348.8934020996094, 290.1620178222656, -788.789794921875, -865.68212890625, 0.0, 0.03200000151991844, 1.0080000162124634, 0.0, 0.0, 0.0, 0.0, 0.0, 1.6024563317870054E9, 2020-10-11 17:45:31.787
7.0, 428.81878662109375, 377.9374694824219, -670.900634765625, -1031.0194091796875, 0.0, 0.03200000151991844, 1.0080000162124634, 0.0, 0.0, 0.0, 0.0, 0.0, 1.6024563317870054E9, 2020-10-11 17:45:31.787
8.0, 416.1667175292969, 356.84442138671875, -728.6185302734375, -1255.138427734375, 0.0, 0.03200000151991844, 1.0080000162124634, 0.0, 0.0, 0.0, 0.0, 0.0, 1.6024563318026795E9, 2020-10-11 17:45:31.802
8.0, 346.4549865722656, 282.7906799316406, -814.318359375, -1021.1067504882812, 0.0, 0.03200000151991844, 1.0080000162124634, 0.0, 0.0, 0.0, 0.0, 0.0, 1.6024563318026795E9, 2020-10-11 17:45:31.802
9.0, 414.8951416015625, 363.2097473144531, -678.8292236328125, -1022.5092163085938, 0.0, 0.03200000151991844, 1.0080000162124634, 0.0, 0.0, 0.0, 0.0, 0.0, 1.602456331803435E9, 2020-10-11 17:45:31.803
9.0, 436.638916015625, 380.8209228515625, -684.19970703125, -1057.3258056640625, 0.0, 0.03200000151991844, 1.0080000162124634, 0.0, 0.0, 0.0, 0.0, 0.0, 1.602456331803435E9, 2020-10-11 17:45:31.803
10.0, 362.77215576171875, 301.4976501464844, -804.2430419921875, -882.8931274414062, 0.0, 0.03200000151991844, 1.0080000162124634, 0.0, 0.0, 0.0, 0.0, 0.0, 1.6024563318170166E9, 2020-10-11 17:45:31.817
10.0, 386.3260498046875, 327.84149169921875, -738.64892578125, -777.3699951171875, 0.0, 0.03200000151991844, 1.0080000162124634, 0.0, 0.0, 0.0, 0.0, 0.0, 1.6024563318170166E9, 2020-10-11 17:45:31.817
11.0, 455.36834716796875, 398.5779724121094, -655.21923828125, -837.6272583007812, 0.0, 0.03200000151991844, 1.0080000162124634, 0.0, 0.0, 0.0, 0.0, 0.0, 1.6024563318328066E9, 2020-10-11 17:45:31.832
11.0, 394.96148681640625, 329.10931396484375, -765.6959228515625, -996.3692016601562, 0.0, 0.03200000151991844, 1.0080000162124634, 0.0, 0.0, 0.0, 0.0, 0.0, 1.6024563318328066E9, 2020-10-11 17:45:31.832
12.0, 357.8205261230469, 297.5146484375, -782.4506225585938, -861.5551147460938, 0.0, 0.03200000151991844, 1.0080000162124634, 0.0, 0.0, 0.0, 0.0, 0.0, 1.6024563318335035E9, 2020-10-11 17:45:31.833
12.0, 440.0459899902344, 388.3717956542969, -656.5244750976562, -1029.2822265625, 0.0, 0.03200000151991844, 1.0080000162124634, 0.0, 0.0, 0.0, 0.0, 0.0, 1.6024563318335035E9, 2020-10-11 17:45:31.833
13.0, 417.2998962402344, 362.6786804199219, -722.1185913085938, -1248.9022216796875, 0.0, 0.03200000151991844, 1.0080000162124634, 0.0, 0.0, 0.0, 0.0, 0.0, 1.6024563318469553E9, 2020-10-11 17:45:31.846
13.0, 355.3409729003906, 290.0273742675781, -803.7344360351562, -1009.0399780273438, 0.0, 0.03200000151991844, 1.0080000162124634, 0.0, 0.0, 0.0, 0.0, 0.0, 1.6024563318469553E9, 2020-10-11 17:45:31.846
14.0, 413.6572570800781, 359.653076171875, -688.2500610351562, -1024.654052734375, 0.0, 0.03200000151991844, 1.0080000162124634, 0.0, 0.0, 0.0, 0.0, 0.0, 1.6024563318627212E9, 2020-10-11 17:45:31.862
14.0, 441.3960876464844, 381.1425476074219, -685.3403930664062, -1049.93017578125, 0.0, 0.03200000151991844, 1.0080000162124634, 0.0, 0.0, 0.0, 0.0, 0.0, 1.6024563318627212E9, 2020-10-11 17:45:31.862
15.0, 373.6216125488281, 315.01739501953125, -789.788330078125, -876.1482543945312, 0.0, 0.03200000151991844, 1.0080000162124634, 0.0, 0.0, 0.0, 0.0, 0.0, 1.6024563318635206E9, 2020-10-11 17:45:31.863
15.0, 383.3453674316406, 325.84814453125, -730.3538208007812, -777.1923217773438, 0.0, 0.03200000151991844, 1.0080000162124634, 0.0, 0.0, 0.0, 0.0, 0.0, 1.6024563318635206E9, 2020-10-11 17:45:31.863
16.0, 444.2870178222656, 392.23883056640625, -663.8995361328125, -846.4141845703125, 0.0, 0.03200000151991844, 1.0080000162124634, 0.0, 0.0, 0.0, 0.0, 0.0, 1.6024563318770213E9, 2020-10-11 17:45:31.877
16.0, 394.6435852050781, 335.1791687011719, -758.062744140625, -985.4879760742188, 0.0, 0.03200000151991844, 1.0080000162124634, 0.0, 0.0, 0.0, 0.0, 0.0, 1.6024563318770213E9, 2020-10-11 17:45:31.877
17.0, 363.9090881347656, 303.0721435546875, -779.7242431640625, -857.256103515625, 0.0, 0.03200000151991844, 1.0080000162124634, 0.0, 0.0, 0.0, 0.0, 0.0, 1.602456331892733E9, 2020-10-11 17:45:31.892
17.0, 435.8797302246094, 384.747802734375, -668.540771484375, -1027.0213623046875, 0.0, 0.03200000151991844, 1.0080000162124634, 0.0, 0.0, 0.0, 0.0, 0.0, 1.602456331892733E9, 2020-10-11 17:45:31.892
18.0, 422.2851867675781, 359.7765197753906, -734.0900268554688, -1252.236328125, 0.0, 0.03200000151991844, 1.0080000162124634, 0.0, 0.0, 0.0, 0.0, 0.0, 1.6024563318934712E9, 2020-10-11 17:45:31.893
18.0, 358.4151916503906, 296.1234130859375, -801.1763305664062, -1008.7239379882812, 0.0, 0.03200000151991844, 1.0080000162124634, 0.0, 0.0, 0.0, 0.0, 0.0, 1.6024563318934712E9, 2020-10-11 17:45:31.893
19.0, 417.988037109375, 361.45947265625, -681.2975463867188, -1021.57421875, 0.0, 0.03200000151991844, 1.0080000162124634, 0.0, 0.0, 0.0, 0.0, 0.0, 1.602456331907036E9, 2020-10-11 17:45:31.907
19.0, 439.21197509765625, 382.1710205078125, -683.7696533203125, -1050.7735595703125, 0.0, 0.03200000151991844, 1.0080000162124634, 0.0, 0.0, 0.0, 0.0, 0.0, 1.602456331907036E9, 2020-10-11 17:45:31.907
20.0, 365.31903076171875, 301.3368225097656, -794.6576538085938, -877.5862426757812, 0.0, 0.03200000151991844, 1.0240000486373901, 0.0, 0.0, 0.0, 0.0, 0.0, 1.6024563319227057E9, 2020-10-11 17:45:31.922
20.0, 386.68133544921875, 332.5687255859375, -728.85791015625, -773.2037353515625, 0.0, 0.03200000151991844, 1.0240000486373901, 0.0, 0.0, 0.0, 0.0, 0.0, 1.6024563319227057E9, 2020-10-11 17:45:31.922
21.0, 456.6099853515625, 402.1084289550781, -658.9367065429688, -844.478759765625, 0.0, 0.03200000151991844, 1.0240000486373901, 0.0, 0.0, 0.0, 0.0, 0.0, 1.6024563319234426E9, 2020-10-11 17:45:31.923
21.0, 392.64276123046875, 327.63580322265625, -768.1455078125, -992.621826171875, 0.0, 0.03200000151991844, 1.0240000486373901, 0.0, 0.0, 0.0, 0.0, 0.0, 1.6024563319234426E9, 2020-10-11 17:45:31.923
22.0, 358.9350280761719, 295.9962463378906, -786.5421142578125, -864.853759765625, 0.0, 0.03200000151991844, 1.0240000486373901, 0.0, 0.0, 0.0, 0.0, 0.0, 1.6024563319370055E9, 2020-10-11 17:45:31.937
22.0, 445.0200500488281, 385.33123779296875, -659.78564453125, -1025.482421875, 0.0, 0.03200000151991844, 1.0240000486373901, 0.0, 0.0, 0.0, 0.0, 0.0, 1.6024563319370055E9, 2020-10-11 17:45:31.937
23.0, 428.7439880371094, 364.2045593261719, -721.310791015625, -1244.4666748046875, 0.0, 0.03200000151991844, 1.0240000486373901, 0.0, 0.0, 0.0, 0.0, 0.0, 1.602456331952686E9, 2020-10-11 17:45:31.952
23.0, 352.7903747558594, 294.7583312988281, -795.1513671875, -1008.2359008789062, 0.0, 0.03200000151991844, 1.0240000486373901, 0.0, 0.0, 0.0, 0.0, 0.0, 1.602456331952686E9, 2020-10-11 17:45:31.952
24.0, 414.2481384277344, 363.5388488769531, -684.468994140625, -1024.171630859375, 0.0, 0.03200000151991844, 1.0240000486373901, 0.0, 0.0, 0.0, 0.0, 0.0, 1.6024563319534583E9, 2020-10-11 17:45:31.953
24.0, 442.84716796875, 386.7972717285156, -685.9612426757812, -1049.38037109375, 0.0, 0.03200000151991844, 1.0240000486373901, 0.0, 0.0, 0.0, 0.0, 0.0, 1.6024563319534583E9, 2020-10-11 17:45:31.953
25.0, 365.60699462890625, 302.2605895996094, -799.0072021484375, -873.9902954101562, 0.0, 0.03200000151991844, 1.0240000486373901, 0.0, 0.0, 0.0, 0.0, 0.0, 1.6024563319670093E9, 2020-10-11 17:45:31.967
25.0, 385.1741638183594, 330.6427001953125, -729.8638916015625, -780.857421875, 0.0, 0.03200000151991844, 1.0240000486373901, 0.0, 0.0, 0.0, 0.0, 0.0, 1.6024563319670093E9, 2020-10-11 17:45:31.967
26.0, 445.6109619140625, 388.9776306152344, -662.964599609375, -849.9857788085938, 0.0, 0.03200000151991844, 1.0240000486373901, 0.0, 0.0, 0.0, 0.0, 0.0, 1.6024563319826784E9, 2020-10-11 17:45:31.982
26.0, 382.37298583984375, 321.03863525390625, -769.8845825195312, -996.3074951171875, 0.0, 0.03200000151991844, 1.0240000486373901, 0.0, 0.0, 0.0, 0.0, 0.0, 1.6024563319826784E9, 2020-10-11 17:45:31.982
27.0, 351.6983337402344, 291.8150329589844, -780.9696655273438, -863.6775512695312, 0.0, 0.03200000151991844, 1.0240000486373901, 0.0, 0.0, 0.0, 0.0, 0.0, 1.6024563319834323E9, 2020-10-11 17:45:31.983
27.0, 435.1429748535156, 382.5113525390625, -666.367919921875, -1034.1346435546875, 0.0, 0.03200000151991844, 1.0240000486373901, 0.0, 0.0, 0.0, 0.0, 0.0, 1.6024563319834323E9, 2020-10-11 17:45:31.983
28.0, 411.9967346191406, 350.6100158691406, -735.0698852539062, -1254.139892578125, 0.0, 0.03200000151991844, 1.0240000486373901, 0.0, 0.0, 0.0, 0.0, 0.0, 1.6024563319970455E9, 2020-10-11 17:45:31.997
28.0, 351.24578857421875, 284.9859924316406, -811.91357421875, -1010.3919677734375, 0.0, 0.03200000151991844, 1.0240000486373901, 0.0, 0.0, 0.0, 0.0, 0.0, 1.6024563319970455E9, 2020-10-11 17:45:31.997
29.0, 414.3790588378906, 361.9867858886719, -684.3530883789062, -1032.173095703125, 0.0, 0.03200000151991844, 1.0240000486373901, 0.0, 0.0, 0.0, 0.0, 0.0, 1.6024563320126839E9, 2020-10-11 17:45:32.012
29.0, 437.99652099609375, 384.45611572265625, -683.9304809570312, -1051.8468017578125, 0.0, 0.03200000151991844, 1.0240000486373901, 0.0, 0.0, 0.0, 0.0, 0.0, 1.6024563320126839E9, 2020-10-11 17:45:32.012
30.0, 359.3015441894531, 302.18951416015625, -806.6029052734375, -871.8267822265625, 0.0, 0.03200000151991844, 1.0080000162124634, 0.0, 0.0, 0.0, 0.0, 0.0, 1.6024563320134325E9, 2020-10-11 17:45:32.013
30.0, 380.83587646484375, 325.35821533203125, -743.331298828125, -782.9088134765625, 0.0, 0.03200000151991844, 1.0080000162124634, 0.0, 0.0, 0.0, 0.0, 0.0, 1.6024563320134325E9, 2020-10-11 17:45:32.013
31.0, 446.56463623046875, 390.29034423828125, -666.41650390625, -852.8972778320312, 0.0, 0.03200000151991844, 1.0080000162124634, 0.0, 0.0, 0.0, 0.0, 0.0, 1.6024563320269985E9, 2020-10-11 17:45:32.026
31.0, 385.61920166015625, 323.5181884765625, -767.734130859375, -982.5913696289062, 0.0, 0.03200000151991844, 1.0080000162124634, 0.0, 0.0, 0.0, 0.0, 0.0, 1.6024563320269985E9, 2020-10-11 17:45:32.026
32.0, 354.0357666015625, 290.53973388671875, -780.0833129882812, -870.5159301757812, 0.0, 0.03200000151991844, 1.0080000162124634, 0.0, 0.0, 0.0, 0.0, 0.0, 1.6024563320427024E9, 2020-10-11 17:45:32.042
32.0, 432.3081359863281, 377.9262390136719, -666.7044677734375, -1038.605712890625, 0.0, 0.03200000151991844, 1.0080000162124634, 0.0, 0.0, 0.0, 0.0, 0.0, 1.6024563320427024E9, 2020-10-11 17:45:32.042
33.0, 422.59185791015625, 353.0746154785156, -735.09228515625, -1248.872314453125, 0.0, 0.03200000151991844, 1.0080000162124634, 0.0, 0.0, 0.0, 0.0, 0.0, 1.602456332043466E9, 2020-10-11 17:45:32.043
33.0, 350.4716491699219, 282.5513000488281, -817.418701171875, -1011.3287963867188, 0.0, 0.03200000151991844, 1.0080000162124634, 0.0, 0.0, 0.0, 0.0, 0.0, 1.602456332043466E9, 2020-10-11 17:45:32.043
34.0, 410.7064514160156, 351.9975280761719, -698.5497436523438, -1038.33837890625, 0.0, 0.03200000151991844, 1.0080000162124634, 0.0, 0.0, 0.0, 0.0, 0.0, 1.602456332057006E9, 2020-10-11 17:45:32.057
34.0, 431.9266662597656, 376.2358093261719, -693.4896240234375, -1052.67529296875, 0.0, 0.03200000151991844, 1.0080000162124634, 0.0, 0.0, 0.0, 0.0, 0.0, 1.602456332057006E9, 2020-10-11 17:45:32.057
35.0, 363.98388671875, 297.5782165527344, -801.5428466796875, -866.3197631835938, 0.0, 0.03200000151991844, 1.0080000162124634, 0.0, 0.0, 0.0, 0.0, 0.0, 1.602456332072697E9, 2020-10-11 17:45:32.072
35.0, 383.35284423828125, 325.1861572265625, -733.7384643554688, -786.7178955078125, 0.0, 0.03200000151991844, 1.0080000162124634, 0.0, 0.0, 0.0, 0.0, 0.0, 1.602456332072697E9, 2020-10-11 17:45:32.072
36.0, 454.0855712890625, 393.97039794921875, -663.8621826171875, -849.286376953125, 0.0, 0.03200000151991844, 1.0080000162124634, 0.0, 0.0, 0.0, 0.0, 0.0, 1.6024563320734842E9, 2020-10-11 17:45:32.073
36.0, 394.8455505371094, 331.7459411621094, -768.8785400390625, -978.5167846679688, 0.0, 0.03200000151991844, 1.0080000162124634, 0.0, 0.0, 0.0, 0.0, 0.0, 1.6024563320734842E9, 2020-10-11 17:45:32.073
37.0, 363.7669677734375, 293.0716552734375, -785.6856689453125, -860.4612426757812, 0.0, 0.03200000151991844, 1.0080000162124634, 0.0, 0.0, 0.0, 0.0, 0.0, 1.6024563320870483E9, 2020-10-11 17:45:32.087
37.0, 437.3906555175781, 381.09393310546875, -668.3575439453125, -1045.1337890625, 0.0, 0.03200000151991844, 1.0080000162124634, 0.0, 0.0, 0.0, 0.0, 0.0, 1.6024563320870483E9, 2020-10-11 17:45:32.087
38.0, 422.3637390136719, 356.4292907714844, -729.31787109375, -1244.5208740234375, 0.0, 0.03200000151991844, 1.0080000162124634, 0.0, 0.0, 0.0, 0.0, 0.0, 1.6024563321026802E9, 2020-10-11 17:45:32.102
38.0, 348.4184265136719, 282.74951171875, -809.4938354492188, -1002.0033569335938, 0.0, 0.03200000151991844, 1.0080000162124634, 0.0, 0.0, 0.0, 0.0, 0.0, 1.6024563321026802E9, 2020-10-11 17:45:32.102
39.0, 418.9753723144531, 362.9928283691406, -684.6746826171875, -1031.5933837890625, 0.0, 0.03200000151991844, 1.0080000162124634, 0.0, 0.0, 0.0, 0.0, 0.0, 1.6024563321034288E9, 2020-10-11 17:45:32.103
39.0, 449.8557434082031, 389.01129150390625, -687.191650390625, -1062.0455322265625, 0.0, 0.03200000151991844, 1.0080000162124634, 0.0, 0.0, 0.0, 0.0, 0.0, 1.6024563321034288E9, 2020-10-11 17:45:32.103
40.0, 371.29541015625, 304.4708557128906, -804.130859375, -867.653076171875, 0.0, 0.03200000151991844, 1.0080000162124634, 0.0, 0.0, 0.0, 0.0, 0.0, 1.602456332117004E9, 2020-10-11 17:45:32.117
40.0, 377.53729248046875, 321.7155456542969, -748.5746459960938, -707.748046875, 0.0, 0.03200000151991844, 1.0080000162124634, 0.0, 0.0, 0.0, 0.0, 0.0, 1.602456332117004E9, 2020-10-11 17:45:32.117
41.0, 444.63482666015625, 391.1654968261719, -668.9895629882812, -908.6666870117188, 0.0, 0.03200000151991844, 1.0080000162124634, 0.0, 0.0, 0.0, 0.0, 0.0, 1.6024563321327155E9, 2020-10-11 17:45:32.132
41.0, 427.2592468261719, 369.9714660644531, -721.5501098632812, -748.0529174804688, 0.0, 0.03200000151991844, 1.0080000162124634, 0.0, 0.0, 0.0, 0.0, 0.0, 1.6024563321327155E9, 2020-10-11 17:45:32.132
42.0, 380.42822265625, 321.7454528808594, -760.87890625, -670.4275512695312, 0.0, 0.03200000151991844, 1.0080000162124634, 0.0, 0.0, 0.0, 0.0, 0.0, 1.6024563321334414E9, 2020-10-11 17:45:32.133
42.0, 294.96405029296875, 233.1285400390625, -838.2798461914062, -717.2099609375, 0.0, 0.03200000151991844, 1.0080000162124634, 0.0, 0.0, 0.0, 0.0, 0.0, 1.6024563321334414E9, 2020-10-11 17:45:32.133
43.0, 374.0591735839844, 316.2665100097656, -759.68212890625, -678.3243408203125, 0.0, 0.03200000151991844, 1.0080000162124634, 0.0, 0.0, 0.0, 0.0, 0.0, 1.6024563321633873E9, 2020-10-11 17:45:32.163
43.0, 463.58489990234375, 404.7413330078125, -673.7579345703125, -626.661376953125, 0.0, 0.03200000151991844, 1.0080000162124634, 0.0, 0.0, 0.0, 0.0, 0.0, 1.6024563321633873E9, 2020-10-11 17:45:32.163
44.0, 326.8952941894531, 265.8638916015625, -807.4630737304688, -661.679931640625, 0.0, 0.03200000151991844, 1.0080000162124634, 0.0, 0.0, 0.0, 0.0, 0.0, 1.6024563321641068E9, 2020-10-11 17:45:32.164
44.0, 341.8623962402344, 279.68280029296875, -790.0987548828125, -560.6521606445312, 0.0, 0.03200000151991844, 1.0080000162124634, 0.0, 0.0, 0.0, 0.0, 0.0, 1.6024563321641068E9, 2020-10-11 17:45:32.164
45.0, 467.8409118652344, 406.2672119140625, -663.7088012695312, -770.7335205078125, 0.0, 0.03200000151991844, 1.0080000162124634, 0.0, 0.0, 0.0, 0.0, 0.0, 1.6024563321648765E9, 2020-10-11 17:45:32.164
45.0, 390.7466125488281, 331.9740905761719, -733.5402221679688, -705.7340698242188, 0.0, 0.03200000151991844, 1.0080000162124634, 0.0, 0.0, 0.0, 0.0, 0.0, 1.6024563321648765E9, 2020-10-11 17:45:32.164
46.0, 318.38330078125, 254.24774169921875, -808.5513916015625, -878.147216796875, 0.0, 0.03200000151991844, 1.0080000162124634, 0.0, 0.0, 0.0, 0.0, 0.0, 1.6024563321769936E9, 2020-10-11 17:45:32.176
46.0, 430.80841064453125, 378.1992492675781, -692.7640991210938, -799.9739379882812, 0.0, 0.03200000151991844, 1.0080000162124634, 0.0, 0.0, 0.0, 0.0, 0.0, 1.6024563321769936E9, 2020-10-11 17:45:32.176
47.0, 447.8698425292969, 392.4108581542969, -684.4129028320312, -905.3923950195312, 0.0, 0.03200000151991844, 1.0080000162124634, 0.0, 0.0, 0.0, 0.0, 0.0, 1.6024563321928093E9, 2020-10-11 17:45:32.192
47.0, 313.30450439453125, 249.84214782714844, -821.8991088867188, -717.2604370117188, 0.0, 0.03200000151991844, 1.0080000162124634, 0.0, 0.0, 0.0, 0.0, 0.0, 1.6024563321928093E9, 2020-10-11 17:45:32.192
48.0, 392.9232482910156, 335.47088623046875, -735.1521606445312, -700.8441772460938, 0.0, 0.03200000151991844, 1.0080000162124634, 0.0, 0.0, 0.0, 0.0, 0.0, 1.602456332193441E9, 2020-10-11 17:45:32.193
48.0, 483.23809814453125, 431.4666442871094, -648.64453125, -644.5474243164062, 0.0, 0.03200000151991844, 1.0080000162124634, 0.0, 0.0, 0.0, 0.0, 0.0, 1.602456332193441E9, 2020-10-11 17:45:32.193
49.0, 352.8277587890625, 293.524169921875, -781.5044555664062, -630.6611938476562, 0.0, 0.03200000151991844, 1.0080000162124634, 0.0, 0.0, 0.0, 0.0, 0.0, 1.602456332207024E9, 2020-10-11 17:45:32.207
49.0, 350.0639953613281, 287.2897644042969, -785.0797729492188, -562.63427734375, 0.0, 0.03200000151991844, 1.0080000162124634, 0.0, 0.0, 0.0, 0.0, 0.0, 1.602456332207024E9, 2020-10-11 17:45:32.207
50.0, 483.56719970703125, 420.4451599121094, -658.7908325195312, -795.3009643554688, 0.0, 0.03200000151991844, 1.0080000162124634, 0.0, 0.0, 0.0, 0.0, 0.0, 1.602456332222724E9, 2020-10-11 17:45:32.222
50.0, 399.3708190917969, 340.6543884277344, -734.5949096679688, -694.1478881835938, 0.0, 0.03200000151991844, 1.0080000162124634, 0.0, 0.0, 0.0, 0.0, 0.0, 1.602456332222724E9, 2020-10-11 17:45:32.222
51.0, 323.1217346191406, 256.8020935058594, -816.0648803710938, -876.3894653320312, 0.0, 0.03200000151991844, 1.0080000162124634, 0.0, 0.0, 0.0, 0.0, 0.0, 1.6024563322234411E9, 2020-10-11 17:45:32.223
51.0, 446.4112854003906, 387.23858642578125, -688.6090698242188, -813.3777465820312, 0.0, 0.03200000151991844, 1.0080000162124634, 0.0, 0.0, 0.0, 0.0, 0.0, 1.6024563322234411E9, 2020-10-11 17:45:32.223
52.0, 460.2676086425781, 408.70562744140625, -658.2822265625, -903.2793579101562, 0.0, 0.03200000151991844, 1.0080000162124634, 0.0, 0.0, 0.0, 0.0, 0.0, 1.602456332237092E9, 2020-10-11 17:45:32.237
52.0, 324.78973388671875, 262.501708984375, -810.3428344726562, -698.8563842773438, 0.0, 0.03200000151991844, 1.0080000162124634, 0.0, 0.0, 0.0, 0.0, 0.0, 1.602456332237092E9, 2020-10-11 17:45:32.237
53.0, 398.9444885253906, 343.5677795410156, -735.9337768554688, -706.6204223632812, 0.0, 0.03200000151991844, 1.0080000162124634, 0.0, 0.0, 0.0, 0.0, 0.0, 1.6024563322527058E9, 2020-10-11 17:45:32.252
53.0, 493.5227966308594, 435.5393981933594, -644.4520874023438, -652.8967895507812, 0.0, 0.03200000151991844, 1.0080000162124634, 0.0, 0.0, 0.0, 0.0, 0.0, 1.6024563322527058E9, 2020-10-11 17:45:32.252
54.0, 353.35882568359375, 290.16949462890625, -785.8240356445312, -612.5432739257812, 0.0, 0.03200000151991844, 1.0080000162124634, 0.0, 0.0, 0.0, 0.0, 0.0, 1.6024563322534416E9, 2020-10-11 17:45:32.253
54.0, 356.3171081542969, 291.740234375, -783.026611328125, -561.4132080078125, 0.0, 0.03200000151991844, 1.0080000162124634, 0.0, 0.0, 0.0, 0.0, 0.0, 1.6024563322534416E9, 2020-10-11 17:45:32.253
55.0, 488.1934509277344, 431.4778747558594, -657.0630493164062, -320.82733154296875, 0.0, 0.03200000151991844, 1.0080000162124634, 0.0, 0.0, 0.0, 0.0, 0.0, 1.6024563322669923E9, 2020-10-11 17:45:32.266
55.0, 406.0428161621094, 342.3448181152344, -737.2240600585938, -195.29383850097656, 0.0, 0.03200000151991844, 1.0080000162124634, 0.0, 0.0, 0.0, 0.0, 0.0, 1.6024563322669923E9, 2020-10-11 17:45:32.266
56.0, 328.6493225097656, 260.78509521484375, -814.1837158203125, -362.8338623046875, 0.0, 0.03200000151991844, 1.0080000162124634, 0.0, 0.0, 0.0, 0.0, 0.0, 1.6024563322827382E9, 2020-10-11 17:45:32.282
56.0, 447.6529235839844, 389.8602600097656, -689.8843994140625, -334.67803955078125, 0.0, 0.03200000151991844, 1.0080000162124634, 0.0, 0.0, 0.0, 0.0, 0.0, 1.6024563322827382E9, 2020-10-11 17:45:32.282
57.0, 472.31756591796875, 412.35577392578125, -668.9895629882812, -412.7428283691406, 0.0, 0.03200000151991844, 1.0080000162124634, 0.0, 0.0, 0.0, 0.0, 0.0, 1.6024563322834628E9, 2020-10-11 17:45:32.283
57.0, 329.73388671875, 261.40966796875, -808.4130249023438, -185.57009887695312, 0.0, 0.03200000151991844, 1.0080000162124634, 0.0, 0.0, 0.0, 0.0, 0.0, 1.6024563322834628E9, 2020-10-11 17:45:32.283
58.0, 405.3658752441406, 345.1647033691406, -733.5514526367188, -217.46022033691406, 0.0, 0.03200000151991844, 1.0080000162124634, 0.0, 0.0, 0.0, 0.0, 0.0, 1.6024563322969825E9, 2020-10-11 17:45:32.296
58.0, 492.8645935058594, 435.9919128417969, -642.8177490234375, -173.5164031982422, 0.0, 0.03200000151991844, 1.0080000162124634, 0.0, 0.0, 0.0, 0.0, 0.0, 1.6024563322969825E9, 2020-10-11 17:45:32.296
59.0, 359.3015441894531, 292.5218811035156, -787.14794921875, -106.23185729980469, 0.0, 0.03200000151991844, 1.0080000162124634, 0.0, 0.0, 0.0, 0.0, 0.0, 1.6024563323127415E9, 2020-10-11 17:45:32.312
59.0, 356.9827880859375, 293.008056640625, -784.5936279296875, -55.87223434448242, 0.0, 0.03200000151991844, 1.0080000162124634, 0.0, 0.0, 0.0, 0.0, 0.0, 1.6024563323127415E9, 2020-10-11 17:45:32.312
60.0, 493.54150390625, 435.1841125488281, -647.518798828125, 160.44544982910156, 0.0, 0.03200000151991844, 1.0080000162124634, 0.0, 0.0, 0.0, 0.0, 0.0, 1.6024563323134587E9, 2020-10-11 17:45:32.313
60.0, 408.41015625, 345.8005065917969, -732.0330810546875, 307.6254577636719, 0.0, 0.03200000151991844, 1.0080000162124634, 0.0, 0.0, 0.0, 0.0, 0.0, 1.6024563323134587E9, 2020-10-11 17:45:32.313
61.0, 325.01788330078125, 253.94482421875, -825.093017578125, 142.89410400390625, 0.0, 0.04800000041723251, 1.0080000162124634, 0.0, 0.0, 0.0, 0.0, 0.0, 1.602456332326972E9, 2020-10-11 17:45:32.326
61.0, 452.24554443359375, 391.2514953613281, -694.1852416992188, 155.10299682617188, 0.0, 0.04800000041723251, 1.0080000162124634, 0.0, 0.0, 0.0, 0.0, 0.0, 1.602456332326972E9, 2020-10-11 17:45:32.326
62.0, 475.5488586425781, 420.7705383300781, -658.6150512695312, 79.11758422851562, 0.0, 0.04800000041723251, 1.0080000162124634, 0.0, 0.0, 0.0, 0.0, 0.0, 1.6024563323427577E9, 2020-10-11 17:45:32.342
62.0, 320.8890380859375, 258.20831298828125, -816.7418212890625, 319.32012939453125, 0.0, 0.04800000041723251, 1.0080000162124634, 0.0, 0.0, 0.0, 0.0, 0.0, 1.6024563323427577E9, 2020-10-11 17:45:32.342
63.0, 393.7946472167969, 332.6136169433594, -747.16845703125, 269.6954040527344, 0.0, 0.04800000041723251, 1.0080000162124634, 0.0, 0.0, 0.0, 0.0, 0.0, 1.6024563323434763E9, 2020-10-11 17:45:32.343
63.0, 491.9557800292969, 441.42974853515625, -641.8603515625, 303.63873291015625, 0.0, 0.04800000041723251, 1.0080000162124634, 0.0, 0.0, 0.0, 0.0, 0.0, 1.6024563323434763E9, 2020-10-11 17:45:32.343
64.0, 351.6347351074219, 284.6793212890625, -786.923583984375, 393.69927978515625, 0.0, 0.04800000041723251, 1.0080000162124634, 0.0, 0.0, 0.0, 0.0, 0.0, 1.6024563323569453E9, 2020-10-11 17:45:32.356
64.0, 346.8925476074219, 285.6404724121094, -789.305908203125, 429.8135986328125, 0.0, 0.04800000041723251, 1.0080000162124634, 0.0, 0.0, 0.0, 0.0, 0.0, 1.6024563323569453E9, 2020-10-11 17:45:32.356
65.0, 489.4575500488281, 437.26348876953125, -644.4221801757812, 632.2525024414062, 0.0, 0.04800000041723251, 1.0080000162124634, 0.0, 0.0, 0.0, 0.0, 0.0, 1.6024563323727036E9, 2020-10-11 17:45:32.372
65.0, 408.9748840332031, 354.4359436035156, -725.7051391601562, 786.2130126953125, 0.0, 0.04800000041723251, 1.0080000162124634, 0.0, 0.0, 0.0, 0.0, 0.0, 1.6024563323727036E9, 2020-10-11 17:45:32.372
66.0, 330.48187255859375, 272.0982971191406, -805.12939453125, 646.3818969726562, 0.0, 0.04800000041723251, 1.0080000162124634, 0.0, 0.0, 0.0, 0.0, 0.0, 1.6024563323735013E9, 2020-10-11 17:45:32.373
66.0, 457.1036682128906, 402.1009521484375, -681.0283203125, 633.7672119140625, 0.0, 0.04800000041723251, 1.0080000162124634, 0.0, 0.0, 0.0, 0.0, 0.0, 1.6024563323735013E9, 2020-10-11 17:45:32.373
67.0, 479.984375, 424.7759704589844, -656.6104736328125, 550.9751586914062, 0.0, 0.04800000041723251, 1.0080000162124634, 0.0, 0.0, 0.0, 0.0, 0.0, 1.6024563323870363E9, 2020-10-11 17:45:32.387
67.0, 321.4051208496094, 260.4185791015625, -813.2337646484375, 316.863037109375, 0.0, 0.04800000041723251, 1.0080000162124634, 0.0, 0.0, 0.0, 0.0, 0.0, 1.6024563323870363E9, 2020-10-11 17:45:32.387
68.0, 400.80694580078125, 343.2648620605469, -736.722900390625, 265.9779357910156, 0.0, 0.04800000041723251, 1.0080000162124634, 0.0, 0.0, 0.0, 0.0, 0.0, 1.6024563324027104E9, 2020-10-11 17:45:32.402
68.0, 497.4609375, 446.64691162109375, -628.7220458984375, 286.4389343261719, 0.0, 0.04800000041723251, 1.0080000162124634, 0.0, 0.0, 0.0, 0.0, 0.0, 1.6024563324027104E9, 2020-10-11 17:45:32.402
69.0, 355.7598571777344, 293.9916687011719, -777.558837890625, 391.6647644042969, 0.0, 0.04800000041723251, 1.0080000162124634, 0.0, 0.0, 0.0, 0.0, 0.0, 1.602456332403464E9, 2020-10-11 17:45:32.403
69.0, 346.8476867675781, 283.92010498046875, -790.831787109375, 431.15997314453125, 0.0, 0.04800000041723251, 1.0080000162124634, 0.0, 0.0, 0.0, 0.0, 0.0, 1.602456332403464E9, 2020-10-11 17:45:32.403
70.0, 492.965576171875, 435.78997802734375, -643.7041015625, 618.7178344726562, 0.0, 0.04800000041723251, 1.0080000162124634, 0.0, 0.0, 0.0, 0.0, 0.0, 1.6024563324170036E9, 2020-10-11 17:45:32.417
70.0, 402.740478515625, 345.6808166503906, -727.204833984375, 779.084716796875, 0.0, 0.04800000041723251, 1.0080000162124634, 0.0, 0.0, 0.0, 0.0, 0.0, 1.6024563324170036E9, 2020-10-11 17:45:32.417
71.0, 320.8703308105469, 253.1295166015625, -820.0441284179688, 637.518310546875, 0.0, 0.03200000151991844, 1.0080000162124634, 0.0, 0.0, 0.0, 0.0, 0.0, 1.602456332432682E9, 2020-10-11 17:45:32.432
71.0, 450.7420959472656, 394.3705749511719, -683.8893432617188, 625.05322265625, 0.0, 0.03200000151991844, 1.0080000162124634, 0.0, 0.0, 0.0, 0.0, 0.0, 1.602456332432682E9, 2020-10-11 17:45:32.432
72.0, 471.19561767578125, 412.7933349609375, -664.7186279296875, 541.4608154296875, 0.0, 0.03200000151991844, 1.0080000162124634, 0.0, 0.0, 0.0, 0.0, 0.0, 1.6024563324334347E9, 2020-10-11 17:45:32.433
72.0, 321.4949035644531, 253.82887268066406, -814.0827026367188, 333.7524108886719, 0.0, 0.03200000151991844, 1.0080000162124634, 0.0, 0.0, 0.0, 0.0, 0.0, 1.6024563324334347E9, 2020-10-11 17:45:32.433
73.0, 397.0072021484375, 331.05780029296875, -736.1357421875, 264.7737121582031, 0.0, 0.03200000151991844, 1.0080000162124634, 0.0, 0.0, 0.0, 0.0, 0.0, 1.6024563324470158E9, 2020-10-11 17:45:32.447
73.0, 504.0768127441406, 449.3134460449219, -623.0860595703125, 285.6049499511719, 0.0, 0.03200000151991844, 1.0080000162124634, 0.0, 0.0, 0.0, 0.0, 0.0, 1.6024563324470158E9, 2020-10-11 17:45:32.447
74.0, 351.76190185546875, 290.33404541015625, -780.7601928710938, 408.18389892578125, 0.0, 0.03200000151991844, 1.0080000162124634, 0.0, 0.0, 0.0, 0.0, 0.0, 1.602456332462682E9, 2020-10-11 17:45:32.462
74.0, 351.0064392089844, 287.54034423828125, -781.149169921875, 447.2116394042969, 0.0, 0.03200000151991844, 1.0080000162124634, 0.0, 0.0, 0.0, 0.0, 0.0, 1.602456332462682E9, 2020-10-11 17:45:32.462
75.0, 494.15484619140625, 435.3299560546875, -638.8385009765625, 614.1626586914062, 0.0, 0.03200000151991844, 1.0080000162124634, 0.0, 0.0, 0.0, 0.0, 0.0, 1.6024563324634516E9, 2020-10-11 17:45:32.463
75.0, 409.0496826171875, 350.5501708984375, -722.6122436523438, 798.7603759765625, 0.0, 0.03200000151991844, 1.0080000162124634, 0.0, 0.0, 0.0, 0.0, 0.0, 1.6024563324634516E9, 2020-10-11 17:45:32.463
76.0, 322.867431640625, 249.84588623046875, -819.6401977539062, 657.6576538085938, 0.0, 0.03200000151991844, 1.0080000162124634, 0.0, 0.0, 0.0, 0.0, 0.0, 1.6024563324770968E9, 2020-10-11 17:45:32.477
76.0, 453.0196838378906, 390.5296936035156, -682.9169311523438, 623.5535278320312, 0.0, 0.03200000151991844, 1.0080000162124634, 0.0, 0.0, 0.0, 0.0, 0.0, 1.6024563324770968E9, 2020-10-11 17:45:32.477
77.0, 474.5690002441406, 414.7231140136719, -662.2913818359375, 550.2496337890625, 0.0, 0.03200000151991844, 1.0080000162124634, 0.0, 0.0, 0.0, 0.0, 0.0, 1.6024563324927056E9, 2020-10-11 17:45:32.492
77.0, 325.1338195800781, 252.14218139648438, -813.6002807617188, 351.771240234375, 0.0, 0.03200000151991844, 1.0080000162124634, 0.0, 0.0, 0.0, 0.0, 0.0, 1.6024563324927056E9, 2020-10-11 17:45:32.492
78.0, 391.38238525390625, 331.3719787597656, -736.4124755859375, 272.42926025390625, 0.0, 0.03200000151991844, 1.0080000162124634, 0.0, 0.0, 0.0, 0.0, 0.0, 1.6024563324934552E9, 2020-10-11 17:45:32.493
78.0, 504.4620056152344, 446.2616882324219, -627.4280395507812, 281.9136657714844, 0.0, 0.03200000151991844, 1.0080000162124634, 0.0, 0.0, 0.0, 0.0, 0.0, 1.6024563324934552E9, 2020-10-11 17:45:32.493
79.0, 354.89593505859375, 286.5642395019531, -785.12841796875, 429.2208251953125, 0.0, 0.03200000151991844, 1.0080000162124634, 0.0, 0.0, 0.0, 0.0, 0.0, 1.602456332507114E9, 2020-10-11 17:45:32.507
79.0, 353.055908203125, 285.7227478027344, -790.8579711914062, 455.05792236328125, 0.0, 0.03200000151991844, 1.0080000162124634, 0.0, 0.0, 0.0, 0.0, 0.0, 1.602456332507114E9, 2020-10-11 17:45:32.507
80.0, 498.02191162109375, 441.75885009765625, -633.752197265625, 620.146484375, 0.0, 0.03200000151991844, 1.0240000486373901, 0.0, 0.0, 0.0, 0.0, 0.0, 1.602456332522727E9, 2020-10-11 17:45:32.522
80.0, 421.8251953125, 360.96954345703125, -715.4652709960938, 826.2860107421875, 0.0, 0.03200000151991844, 1.0240000486373901, 0.0, 0.0, 0.0, 0.0, 0.0, 1.602456332522727E9, 2020-10-11 17:45:32.522
81.0, 326.3006591796875, 260.459716796875, -810.327880859375, 680.6580810546875, 0.0, 0.03200000151991844, 1.0240000486373901, 0.0, 0.0, 0.0, 0.0, 0.0, 1.6024563325234616E9, 2020-10-11 17:45:32.523
81.0, 459.197998046875, 395.9936828613281, -687.3487548828125, 620.2324829101562, 0.0, 0.03200000151991844, 1.0240000486373901, 0.0, 0.0, 0.0, 0.0, 0.0, 1.6024563325234616E9, 2020-10-11 17:45:32.523
82.0, 472.19415283203125, 417.2699890136719, -659.4116821289062, 559.0159301757812, 0.0, 0.03200000151991844, 1.0240000486373901, 0.0, 0.0, 0.0, 0.0, 0.0, 1.602456332537042E9, 2020-10-11 17:45:32.537
82.0, 323.0843505859375, 253.73912048339844, -816.5996704101562, 372.2397155761719, 0.0, 0.03200000151991844, 1.0240000486373901, 0.0, 0.0, 0.0, 0.0, 0.0, 1.602456332537042E9, 2020-10-11 17:45:32.537
83.0, 395.8403625488281, 331.7571716308594, -737.2015991210938, 266.59503173828125, 0.0, 0.03200000151991844, 1.0240000486373901, 0.0, 0.0, 0.0, 0.0, 0.0, 1.602456332552702E9, 2020-10-11 17:45:32.552
83.0, 511.18634033203125, 450.46160888671875, -630.5247192382812, 281.7079772949219, 0.0, 0.03200000151991844, 1.0240000486373901, 0.0, 0.0, 0.0, 0.0, 0.0, 1.602456332552702E9, 2020-10-11 17:45:32.552
84.0, 354.6977233886719, 288.5987243652344, -787.3200073242188, 443.92987060546875, 0.0, 0.03200000151991844, 1.0240000486373901, 0.0, 0.0, 0.0, 0.0, 0.0, 1.6024563325534525E9, 2020-10-11 17:45:32.553
84.0, 347.2740173339844, 278.1943359375, -796.6398315429688, 453.89483642578125, 0.0, 0.03200000151991844, 1.0240000486373901, 0.0, 0.0, 0.0, 0.0, 0.0, 1.6024563325534525E9, 2020-10-11 17:45:32.553
85.0, 496.5558776855469, 438.867919921875, -637.9110107421875, 602.65869140625, 0.0, 0.03200000151991844, 1.0240000486373901, 0.0, 0.0, 0.0, 0.0, 0.0, 1.6024563325670085E9, 2020-10-11 17:45:32.567
85.0, 411.45819091796875, 346.941162109375, -728.8317260742188, 823.3988037109375, 0.0, 0.03200000151991844, 1.0240000486373901, 0.0, 0.0, 0.0, 0.0, 0.0, 1.6024563325670085E9, 2020-10-11 17:45:32.567
86.0, 306.81951904296875, 238.1549530029297, -836.2752685546875, 669.419677734375, 0.0, 0.03200000151991844, 1.0240000486373901, 0.0, 0.0, 0.0, 0.0, 0.0, 1.6024563325826936E9, 2020-10-11 17:45:32.582
86.0, 453.2627868652344, 393.31591796875, -678.9414672851562, 609.8953857421875, 0.0, 0.03200000151991844, 1.0240000486373901, 0.0, 0.0, 0.0, 0.0, 0.0, 1.6024563325826936E9, 2020-10-11 17:45:32.582
87.0, 471.5209655761719, 413.31317138671875, -656.333740234375, 554.8272705078125, 0.0, 0.03200000151991844, 1.0240000486373901, 0.0, 0.0, 0.0, 0.0, 0.0, 1.602456332583439E9, 2020-10-11 17:45:32.583
87.0, 318.8657531738281, 247.38502502441406, -820.5452880859375, 373.3916015625, 0.0, 0.03200000151991844, 1.0240000486373901, 0.0, 0.0, 0.0, 0.0, 0.0, 1.602456332583439E9, 2020-10-11 17:45:32.583
88.0, 393.2112121582031, 333.2157287597656, -744.3897094726562, 257.8324279785156, 0.0, 0.03200000151991844, 1.0240000486373901, 0.0, 0.0, 0.0, 0.0, 0.0, 1.6024563325970147E9, 2020-10-11 17:45:32.597
88.0, 497.7040100097656, 442.1141357421875, -632.7200317382812, 259.0292053222656, 0.0, 0.03200000151991844, 1.0240000486373901, 0.0, 0.0, 0.0, 0.0, 0.0, 1.6024563325970147E9, 2020-10-11 17:45:32.597
89.0, 344.0464782714844, 274.966796875, -791.20947265625, 442.3815612792969, 0.0, 0.03200000151991844, 1.0240000486373901, 0.0, 0.0, 0.0, 0.0, 0.0, 1.602456332612687E9, 2020-10-11 17:45:32.612
89.0, 340.9423828125, 278.0671691894531, -793.7039794921875, 450.0726623535156, 0.0, 0.03200000151991844, 1.0240000486373901, 0.0, 0.0, 0.0, 0.0, 0.0, 1.602456332612687E9, 2020-10-11 17:45:32.612
90.0, 493.6723937988281, 431.18988037109375, -639.9305419921875, 584.957763671875, 0.0, 0.03200000151991844, 1.0080000162124634, 0.0, 0.0, 0.0, 0.0, 0.0, 1.6024563326134863E9, 2020-10-11 17:45:32.613
90.0, 411.3160705566406, 351.9900207519531, -720.4057006835938, 342.9955749511719, 0.0, 0.03200000151991844, 1.0080000162124634, 0.0, 0.0, 0.0, 0.0, 0.0, 1.6024563326134863E9, 2020-10-11 17:45:32.613
91.0, 314.9575500488281, 245.64971923828125, -818.978271484375, 188.1412811279297, 0.0, 0.04800000041723251, 1.0080000162124634, 0.0, 0.0, 0.0, 0.0, 0.0, 1.6024563326270027E9, 2020-10-11 17:45:32.627
91.0, 448.857177734375, 390.9485778808594, -679.6370849609375, 108.3318099975586, 0.0, 0.04800000041723251, 1.0080000162124634, 0.0, 0.0, 0.0, 0.0, 0.0, 1.6024563326270027E9, 2020-10-11 17:45:32.627
92.0, 472.3100891113281, 415.3364562988281, -653.8429565429688, 57.50096130371094, 0.0, 0.04800000041723251, 1.0080000162124634, 0.0, 0.0, 0.0, 0.0, 0.0, 1.6024563326428273E9, 2020-10-11 17:45:32.642
92.0, 319.2210388183594, 254.7115020751953, -815.717041015625, -112.53172302246094, 0.0, 0.04800000041723251, 1.0080000162124634, 0.0, 0.0, 0.0, 0.0, 0.0, 1.6024563326428273E9, 2020-10-11 17:45:32.642
93.0, 402.93121337890625, 337.4941711425781, -734.2059326171875, -242.12298583984375, 0.0, 0.04800000041723251, 1.0080000162124634, 0.0, 0.0, 0.0, 0.0, 0.0, 1.6024563326435688E9, 2020-10-11 17:45:32.643
93.0, 508.4001159667969, 453.50213623046875, -620.6663208007812, -226.44158935546875, 0.0, 0.04800000041723251, 1.0080000162124634, 0.0, 0.0, 0.0, 0.0, 0.0, 1.6024563326435688E9, 2020-10-11 17:45:32.643
94.0, 356.6050720214844, 292.92578125, -786.4037475585938, -41.26044464111328, 0.0, 0.04800000041723251, 1.0080000162124634, 0.0, 0.0, 0.0, 0.0, 0.0, 1.602456332657006E9, 2020-10-11 17:45:32.657
94.0, 353.4186706542969, 287.4244079589844, -792.26416015625, -38.36763381958008, 0.0, 0.04800000041723251, 1.0080000162124634, 0.0, 0.0, 0.0, 0.0, 0.0, 1.602456332657006E9, 2020-10-11 17:45:32.657
95.0, 504.56298828125, 440.9921875, -637.5930786132812, 87.53048706054688, 0.0, 0.04800000041723251, 1.0080000162124634, 0.0, 0.0, 0.0, 0.0, 0.0, 1.6024563326727204E9, 2020-10-11 17:45:32.672
95.0, 420.3217468261719, 355.18389892578125, -720.9779052734375, -147.54278564453125, 0.0, 0.04800000041723251, 1.0080000162124634, 0.0, 0.0, 0.0, 0.0, 0.0, 1.6024563326727204E9, 2020-10-11 17:45:32.672
96.0, 327.8078308105469, 251.4764862060547, -820.1824951171875, -302.427001953125, 0.0, 0.04800000041723251, 1.0080000162124634, 0.0, 0.0, 0.0, 0.0, 0.0, 1.6024563326734424E9, 2020-10-11 17:45:32.673
96.0, 458.9997863769531, 394.359375, -676.192626953125, -391.3655700683594, 0.0, 0.04800000041723251, 1.0080000162124634, 0.0, 0.0, 0.0, 0.0, 0.0, 1.6024563326734424E9, 2020-10-11 17:45:32.673
97.0, 482.0375671386719, 423.8933410644531, -654.7779541015625, -429.4096984863281, 0.0, 0.04800000041723251, 1.0080000162124634, 0.0, 0.0, 0.0, 0.0, 0.0, 1.6024563326870034E9, 2020-10-11 17:45:32.687
97.0, 321.8651428222656, 251.5176239013672, -824.3225708007812, -598.39892578125, 0.0, 0.04800000041723251, 1.0080000162124634, 0.0, 0.0, 0.0, 0.0, 0.0, 1.6024563326870034E9, 2020-10-11 17:45:32.687
98.0, 409.0010681152344, 340.4636535644531, -735.2979736328125, -728.9588623046875, 0.0, 0.04800000041723251, 1.0080000162124634, 0.0, 0.0, 0.0, 0.0, 0.0, 1.602456332719074E9, 2020-10-11 17:45:32.719
98.0, 517.6301879882812, 464.8602294921875, -610.8901977539062, -721.4154663085938, 0.0, 0.04800000041723251, 1.0080000162124634, 0.0, 0.0, 0.0, 0.0, 0.0, 1.602456332719074E9, 2020-10-11 17:45:32.719
99.0, 356.33953857421875, 289.3766174316406, -781.1865844726562, -526.7387084960938, 0.0, 0.04800000041723251, 1.0080000162124634, 0.0, 0.0, 0.0, 0.0, 0.0, 1.6024563327197816E9, 2020-10-11 17:45:32.719
99.0, 359.9560241699219, 289.720703125, -774.5033569335938, -529.8129272460938, 0.0, 0.04800000041723251, 1.0080000162124634, 0.0, 0.0, 0.0, 0.0, 0.0, 1.6024563327197816E9, 2020-10-11 17:45:32.719
100.0, 505.8757019042969, 450.4466552734375, -613.3361206054688, -393.9891052246094, 0.0, 0.04800000041723251, 1.0080000162124634, 0.0, 0.0, 0.0, 0.0, 0.0, 1.6024563327205443E9, 2020-10-11 17:45:32.720
100.0, 424.7497863769531, 366.86737060546875, -703.1460571289062, -628.8641967773438, 0.0, 0.04800000041723251, 1.0080000162124634, 0.0, 0.0, 0.0, 0.0, 0.0, 1.6024563327205443E9, 2020-10-11 17:45:32.720
0.0, 329.2159118652344, 259.89312744140625, -806.9039916992188, 194.83009338378906, 0.0, 0.04800000041723251, 1.0080000162124634, 0.0, 0.0, 0.0, 0.0, 0.0, 1.6024563327212987E9, 2020-10-11 17:45:32.721
1.0, 467.6034240722656, 407.8622741699219, -663.404052734375, 100.74542236328125, 0.0, 0.03200000151991844, 1.0080000162124634, 0.0, 0.0, 0.0, 0.0, 0.0, 1.602456332731976E9, 2020-10-11 17:45:32.731
1.0, 485.2707214355469, 428.9665222167969, -644.7119750976562, 64.39546966552734, 0.0, 0.03200000151991844, 1.0080000162124634, 0.0, 0.0, 0.0, 0.0, 0.0, 1.602456332731976E9, 2020-10-11 17:45:32.731
2.0, 318.4599609375, 249.15586853027344, -817.2373046875, -111.8978042602539, 0.0, 0.03200000151991844, 1.0080000162124634, 0.0, 0.0, 0.0, 0.0, 0.0, 1.6024563327477124E9, 2020-10-11 17:45:32.747
2.0, 404.1747131347656, 334.4443054199219, -736.0927124023438, -250.91363525390625, 0.0, 0.03200000151991844, 1.0080000162124634, 0.0, 0.0, 0.0, 0.0, 0.0, 1.6024563327477124E9, 2020-10-11 17:45:32.747
3.0, 521.3569946289062, 456.5557556152344, -615.0994873046875, -235.6660614013672, 0.0, 0.03200000151991844, 1.0080000162124634, 0.0, 0.0, 0.0, 0.0, 0.0, 1.6024563327484305E9, 2020-10-11 17:45:32.748
3.0, 355.4924621582031, 285.2646179199219, -781.730712890625, -34.08918762207031, 0.0, 0.03200000151991844, 1.0080000162124634, 0.0, 0.0, 0.0, 0.0, 0.0, 1.6024563327484305E9, 2020-10-11 17:45:32.748
4.0, 354.4340515136719, 285.32818603515625, -785.9156494140625, -48.562599182128906, 0.0, 0.03200000151991844, 1.0080000162124634, 0.0, 0.0, 0.0, 0.0, 0.0, 1.6024563327783976E9, 2020-10-11 17:45:32.778
4.0, 506.7938537597656, 439.10540771484375, -637.4117431640625, 79.85247039794922, 0.0, 0.03200000151991844, 1.0080000162124634, 0.0, 0.0, 0.0, 0.0, 0.0, 1.6024563327783976E9, 2020-10-11 17:45:32.778
5.0, 412.79144287109375, 350.9783935546875, -730.1874389648438, -150.7591094970703, 0.0, 0.03200000151991844, 1.0080000162124634, 0.0, 0.0, 0.0, 0.0, 0.0, 1.602456332779125E9, 2020-10-11 17:45:32.779
5.0, 322.7384033203125, 252.00567626953125, -819.406494140625, -305.3441467285156, 0.0, 0.03200000151991844, 1.0080000162124634, 0.0, 0.0, 0.0, 0.0, 0.0, 1.602456332779125E9, 2020-10-11 17:45:32.779
6.0, 453.7770080566406, 395.4345703125, -676.0037231445312, -406.5420837402344, 0.0, 0.03200000151991844, 1.0080000162124634, 0.0, 0.0, 0.0, 0.0, 0.0, 1.602456332779908E9, 2020-10-11 17:45:32.779
6.0, 470.9020080566406, 419.6728820800781, -658.4972534179688, -439.56353759765625, 0.0, 0.03200000151991844, 1.0080000162124634, 0.0, 0.0, 0.0, 0.0, 0.0, 1.602456332779908E9, 2020-10-11 17:45:32.779
7.0, 316.79571533203125, 241.70973205566406, -831.2133178710938, -604.8240966796875, 0.0, 0.03200000151991844, 1.0080000162124634, 0.0, 0.0, 0.0, 0.0, 0.0, 1.6024563327919967E9, 2020-10-11 17:45:32.791
7.0, 397.83184814453125, 337.6344299316406, -735.3596801757812, -742.4898071289062, 0.0, 0.03200000151991844, 1.0080000162124634, 0.0, 0.0, 0.0, 0.0, 0.0, 1.6024563327919967E9, 2020-10-11 17:45:32.791
8.0, 521.2523193359375, 460.80804443359375, -611.1351928710938, -725.2039794921875, 0.0, 0.03200000151991844, 1.0080000162124634, 0.0, 0.0, 0.0, 0.0, 0.0, 1.6024563328077044E9, 2020-10-11 17:45:32.807
8.0, 353.97406005859375, 280.8515319824219, -792.2659912109375, -522.879150390625, 0.0, 0.03200000151991844, 1.0080000162124634, 0.0, 0.0, 0.0, 0.0, 0.0, 1.6024563328077044E9, 2020-10-11 17:45:32.807
9.0, 359.2173767089844, 290.9230651855469, -778.8211059570312, -534.2446899414062, 0.0, 0.03200000151991844, 1.0080000162124634, 0.0, 0.0, 0.0, 0.0, 0.0, 1.602456332808495E9, 2020-10-11 17:45:32.808
9.0, 509.83062744140625, 450.2652587890625, -627.0110473632812, -406.813232421875, 0.0, 0.03200000151991844, 1.0080000162124634, 0.0, 0.0, 0.0, 0.0, 0.0, 1.602456332808495E9, 2020-10-11 17:45:32.808
10.0, 421.6662292480469, 358.63397216796875, -714.8126831054688, -629.0811157226562, 0.0, 0.03200000151991844, 1.0080000162124634, 0.0, 0.0, 0.0, 0.0, 0.0, 1.602456332822003E9, 2020-10-11 17:45:32.822
10.0, 321.6538391113281, 250.7490692138672, -819.9450073242188, -789.4293212890625, 0.0, 0.03200000151991844, 1.0080000162124634, 0.0, 0.0, 0.0, 0.0, 0.0, 1.602456332822003E9, 2020-10-11 17:45:32.822
11.0, 465.5988464355469, 397.28582763671875, -675.4464721679688, -892.9385375976562, 0.0, 0.03200000151991844, 1.0080000162124634, 0.0, 0.0, 0.0, 0.0, 0.0, 1.6024563328376567E9, 2020-10-11 17:45:32.837
11.0, 488.1205139160156, 433.0916442871094, -644.47265625, -918.7382202148438, 0.0, 0.03200000151991844, 1.0080000162124634, 0.0, 0.0, 0.0, 0.0, 0.0, 1.6024563328376567E9, 2020-10-11 17:45:32.837
12.0, 320.8946228027344, 251.12306213378906, -817.693603515625, -1091.4598388671875, 0.0, 0.03200000151991844, 1.0080000162124634, 0.0, 0.0, 0.0, 0.0, 0.0, 1.6024563328384318E9, 2020-10-11 17:45:32.838
12.0, 409.96783447265625, 347.9191589355469, -727.2141723632812, -1222.2666015625, 0.0, 0.03200000151991844, 1.0080000162124634, 0.0, 0.0, 0.0, 0.0, 0.0, 1.6024563328384318E9, 2020-10-11 17:45:32.838
13.0, 521.9553833007812, 465.0004577636719, -612.58251953125, -1213.2198486328125, 0.0, 0.03200000151991844, 1.0080000162124634, 0.0, 0.0, 0.0, 0.0, 0.0, 1.602456332852003E9, 2020-10-11 17:45:32.852
13.0, 361.1845703125, 291.1960754394531, -784.38232421875, -1002.6708984375, 0.0, 0.03200000151991844, 1.0080000162124634, 0.0, 0.0, 0.0, 0.0, 0.0, 1.602456332852003E9, 2020-10-11 17:45:32.852
14.0, 348.02386474609375, 280.42144775390625, -794.102294921875, -1033.5550537109375, 0.0, 0.03200000151991844, 1.0080000162124634, 0.0, 0.0, 0.0, 0.0, 0.0, 1.6024563328676443E9, 2020-10-11 17:45:32.867
14.0, 510.7207336425781, 452.66253662109375, -622.0856323242188, -899.4664916992188, 0.0, 0.03200000151991844, 1.0080000162124634, 0.0, 0.0, 0.0, 0.0, 0.0, 1.6024563328676443E9, 2020-10-11 17:45:32.867
15.0, 418.53594970703125, 350.256591796875, -719.3043212890625, -1123.095703125, 0.0, 0.03200000151991844, 1.0080000162124634, 0.0, 0.0, 0.0, 0.0, 0.0, 1.6024563328684273E9, 2020-10-11 17:45:32.868
15.0, 317.79052734375, 246.87454223632812, -825.6483764648438, -1283.20458984375, 0.0, 0.03200000151991844, 1.0080000162124634, 0.0, 0.0, 0.0, 0.0, 0.0, 1.6024563328684273E9, 2020-10-11 17:45:32.868
16.0, 467.1097717285156, 404.6235046386719, -667.8096313476562, -1377.4013671875, 0.0, 0.03200000151991844, 1.0080000162124634, 0.0, 0.0, 0.0, 0.0, 0.0, 1.602456332882056E9, 2020-10-11 17:45:32.882
16.0, 481.4971618652344, 421.5615234375, -653.5307006835938, -1408.119140625, 0.0, 0.03200000151991844, 1.0080000162124634, 0.0, 0.0, 0.0, 0.0, 0.0, 1.602456332882056E9, 2020-10-11 17:45:32.882
17.0, 318.4898681640625, 250.58078002929688, -825.4688720703125, -1578.2789306640625, 0.0, 0.03200000151991844, 1.0080000162124634, 0.0, 0.0, 0.0, 0.0, 0.0, 1.6024563328976536E9, 2020-10-11 17:45:32.897
17.0, 402.5216979980469, 340.0055236816406, -740.9209594726562, -1722.4483642578125, 0.0, 0.03200000151991844, 1.0080000162124634, 0.0, 0.0, 0.0, 0.0, 0.0, 1.6024563328976536E9, 2020-10-11 17:45:32.897
18.0, 517.258056640625, 462.36383056640625, -611.6513061523438, -1708.053466796875, 0.0, 0.03200000151991844, 1.0080000162124634, 0.0, 0.0, 0.0, 0.0, 0.0, 1.6024563328984704E9, 2020-10-11 17:45:32.898
18.0, 349.2281188964844, 286.04998779296875, -783.1182250976562, -1496.0347900390625, 0.0, 0.03200000151991844, 1.0080000162124634, 0.0, 0.0, 0.0, 0.0, 0.0, 1.6024563328984704E9, 2020-10-11 17:45:32.898
19.0, 350.9746398925781, 285.50396728515625, -776.6519165039062, -1513.6759033203125, 0.0, 0.03200000151991844, 1.0080000162124634, 0.0, 0.0, 0.0, 0.0, 0.0, 1.60245633291202E9, 2020-10-11 17:45:32.912
19.0, 509.6137390136719, 449.3863830566406, -622.1790771484375, -1390.044189453125, 0.0, 0.03200000151991844, 1.0080000162124634, 0.0, 0.0, 0.0, 0.0, 0.0, 1.60245633291202E9, 2020-10-11 17:45:32.912
20.0, 409.97906494140625, 350.50341796875, -725.9014892578125, -1613.886474609375, 0.0, 0.03200000151991844, 1.0080000162124634, 0.0, 0.0, 0.0, 0.0, 0.0, 1.6024563329276848E9, 2020-10-11 17:45:32.927
20.0, 315.41943359375, 244.3987274169922, -822.6788940429688, -1771.8486328125, 0.0, 0.03200000151991844, 1.0080000162124634, 0.0, 0.0, 0.0, 0.0, 0.0, 1.6024563329276848E9, 2020-10-11 17:45:32.927
21.0, 462.4386291503906, 402.39453125, -675.895263671875, -1878.5479736328125, 0.0, 0.03200000151991844, 1.0080000162124634, 0.0, 0.0, 0.0, 0.0, 0.0, 1.6024563329284315E9, 2020-10-11 17:45:32.928
21.0, 484.2684326171875, 428.9141540527344, -646.32763671875, -1896.6771240234375, 0.0, 0.03200000151991844, 1.0080000162124634, 0.0, 0.0, 0.0, 0.0, 0.0, 1.6024563329284315E9, 2020-10-11 17:45:32.928
22.0, 317.0462646484375, 250.4087371826172, -818.5986328125, -2060.423095703125, 0.0, 0.03200000151991844, 1.0080000162124634, 0.0, 0.0, 0.0, 0.0, 0.0, 1.6024563329421425E9, 2020-10-11 17:45:32.942
22.0, 406.385009765625, 337.9859924316406, -734.3499145507812, -2214.01318359375, 0.0, 0.03200000151991844, 1.0080000162124634, 0.0, 0.0, 0.0, 0.0, 0.0, 1.6024563329421425E9, 2020-10-11 17:45:32.942
23.0, 519.4010620117188, 459.2335205078125, -623.3422241210938, -2198.522705078125, 0.0, 0.03200000151991844, 1.0080000162124634, 0.0, 0.0, 0.0, 0.0, 0.0, 1.602456332957664E9, 2020-10-11 17:45:32.957
23.0, 357.3474426269531, 287.60577392578125, -796.7613525390625, -1990.97314453125, 0.0, 0.03200000151991844, 1.0080000162124634, 0.0, 0.0, 0.0, 0.0, 0.0, 1.602456332957664E9, 2020-10-11 17:45:32.957
24.0, 358.5591735839844, 283.6040954589844, -788.197021484375, -2011.14990234375, 0.0, 0.03200000151991844, 1.0080000162124634, 0.0, 0.0, 0.0, 0.0, 0.0, 1.6024563329585617E9, 2020-10-11 17:45:32.958
24.0, 512.5420532226562, 455.7703857421875, -617.429443359375, -1879.9635009765625, 0.0, 0.03200000151991844, 1.0080000162124634, 0.0, 0.0, 0.0, 0.0, 0.0, 1.6024563329585617E9, 2020-10-11 17:45:32.958
25.0, 425.552001953125, 361.8839416503906, -706.8840942382812, -2088.45361328125, 0.0, 0.03200000151991844, 1.0080000162124634, 0.0, 0.0, 0.0, 0.0, 0.0, 1.6024563329720037E9, 2020-10-11 17:45:32.972
25.0, 325.35260009765625, 250.09085083007812, -816.06298828125, -2256.56591796875, 0.0, 0.03200000151991844, 1.0080000162124634, 0.0, 0.0, 0.0, 0.0, 0.0, 1.6024563329720037E9, 2020-10-11 17:45:32.972
26.0, 468.68798828125, 404.0849609375, -667.6637573242188, -2362.82763671875, 0.0, 0.03200000151991844, 1.0080000162124634, 0.0, 0.0, 0.0, 0.0, 0.0, 1.6024563329876564E9, 2020-10-11 17:45:32.987
26.0, 490.8768310546875, 433.6002502441406, -644.0126342773438, -2381.558837890625, 0.0, 0.03200000151991844, 1.0080000162124634, 0.0, 0.0, 0.0, 0.0, 0.0, 1.6024563329876564E9, 2020-10-11 17:45:32.987
27.0, 319.88861083984375, 250.8500518798828, -821.35498046875, -2548.91015625, 0.0, 0.03200000151991844, 1.0080000162124634, 0.0, 0.0, 0.0, 0.0, 0.0, 1.6024563329884331E9, 2020-10-11 17:45:32.988
27.0, 403.31829833984375, 344.26153564453125, -730.344482421875, -2702.148681640625, 0.0, 0.03200000151991844, 1.0080000162124634, 0.0, 0.0, 0.0, 0.0, 0.0, 1.6024563329884331E9, 2020-10-11 17:45:32.988
28.0, 514.4793090820312, 464.6302185058594, -615.035888671875, -2689.16015625, 0.0, 0.03200000151991844, 1.0080000162124634, 0.0, 0.0, 0.0, 0.0, 0.0, 1.602456333001972E9, 2020-10-11 17:45:33.001
28.0, 358.6115417480469, 287.3402404785156, -792.1799926757812, -2479.325439453125, 0.0, 0.03200000151991844, 1.0080000162124634, 0.0, 0.0, 0.0, 0.0, 0.0, 1.602456333001972E9, 2020-10-11 17:45:33.001
29.0, 354.9763488769531, 278.5926208496094, -790.7476196289062, -2505.781494140625, 0.0, 0.03200000151991844, 1.0080000162124634, 0.0, 0.0, 0.0, 0.0, 0.0, 1.602456333017784E9, 2020-10-11 17:45:33.017
29.0, 515.107666015625, 457.1728515625, -620.1744995117188, -2370.3466796875, 0.0, 0.03200000151991844, 1.0080000162124634, 0.0, 0.0, 0.0, 0.0, 0.0, 1.602456333017784E9, 2020-10-11 17:45:33.017
30.0, 420.1515808105469, 356.5022277832031, -718.9677124023438, -2587.0458984375, 0.0, 0.03200000151991844, 1.0080000162124634, 0.0, 0.0, 0.0, 0.0, 0.0, 1.602456333018715E9, 2020-10-11 17:45:33.018
30.0, 320.2401428222656, 250.6256561279297, -820.921142578125, -2751.21630859375, 0.0, 0.03200000151991844, 1.0080000162124634, 0.0, 0.0, 0.0, 0.0, 0.0, 1.602456333018715E9, 2020-10-11 17:45:33.018
31.0, 463.3100280761719, 400.29644775390625, -673.524169921875, -2864.56884765625, 0.0, 0.03200000151991844, 1.0080000162124634, 0.0, 0.0, 0.0, 0.0, 0.0, 1.6024563330319726E9, 2020-10-11 17:45:33.031
31.0, 483.9767150878906, 420.117919921875, -655.894287109375, -2873.755859375, 0.0, 0.03200000151991844, 1.0080000162124634, 0.0, 0.0, 0.0, 0.0, 0.0, 1.6024563330319726E9, 2020-10-11 17:45:33.031
32.0, 319.0545959472656, 250.06466674804688, -817.6337280273438, -3046.660888671875, 0.0, 0.03200000151991844, 1.0080000162124634, 0.0, 0.0, 0.0, 0.0, 0.0, 1.6024563330476685E9, 2020-10-11 17:45:33.047
32.0, 411.57598876953125, 341.5426330566406, -734.054443359375, -3197.76025390625, 0.0, 0.03200000151991844, 1.0080000162124634, 0.0, 0.0, 0.0, 0.0, 0.0, 1.6024563330476685E9, 2020-10-11 17:45:33.047
33.0, 525.074462890625, 467.9661865234375, -611.797119140625, -3172.156982421875, 0.0, 0.03200000151991844, 1.0080000162124634, 0.0, 0.0, 0.0, 0.0, 0.0, 1.6024563330484731E9, 2020-10-11 17:45:33.048
33.0, 359.48291015625, 293.55596923828125, -784.0158081054688, -2954.8798828125, 0.0, 0.03200000151991844, 1.0080000162124634, 0.0, 0.0, 0.0, 0.0, 0.0, 1.6024563330484731E9, 2020-10-11 17:45:33.048
34.0, 367.9463195800781, 298.29815673828125, -774.6473388671875, -2980.094482421875, 0.0, 0.03200000151991844, 1.0080000162124634, 0.0, 0.0, 0.0, 0.0, 0.0, 1.6024563330620134E9, 2020-10-11 17:45:33.062
34.0, 522.1573486328125, 458.59027099609375, -616.8871459960938, -2859.922119140625, 0.0, 0.03200000151991844, 1.0080000162124634, 0.0, 0.0, 0.0, 0.0, 0.0, 1.6024563330620134E9, 2020-10-11 17:45:33.062
35.0, 424.2131042480469, 361.7605285644531, -711.1363525390625, -3070.330810546875, 0.0, 0.03200000151991844, 1.0080000162124634, 0.0, 0.0, 0.0, 0.0, 0.0, 1.602456333077656E9, 2020-10-11 17:45:33.077
35.0, 328.62127685546875, 250.53964233398438, -816.485595703125, -3243.38330078125, 0.0, 0.03200000151991844, 1.0080000162124634, 0.0, 0.0, 0.0, 0.0, 0.0, 1.602456333077656E9, 2020-10-11 17:45:33.077
36.0, 469.1816711425781, 407.5406494140625, -666.3473510742188, -3349.499267578125, 0.0, 0.03200000151991844, 1.0080000162124634, 0.0, 0.0, 0.0, 0.0, 0.0, 1.602456333078436E9, 2020-10-11 17:45:33.078
36.0, 489.9306335449219, 428.60748291015625, -647.4945068359375, -3364.449462890625, 0.0, 0.03200000151991844, 1.0080000162124634, 0.0, 0.0, 0.0, 0.0, 0.0, 1.602456333078436E9, 2020-10-11 17:45:33.078
37.0, 323.6846008300781, 254.43287658691406, -812.9439086914062, -3525.435302734375, 0.0, 0.03200000151991844, 1.0080000162124634, 0.0, 0.0, 0.0, 0.0, 0.0, 1.602456333091987E9, 2020-10-11 17:45:33.091
37.0, 407.09185791015625, 342.94134521484375, -727.5358276367188, -3683.62939453125, 0.0, 0.03200000151991844, 1.0080000162124634, 0.0, 0.0, 0.0, 0.0, 0.0, 1.602456333091987E9, 2020-10-11 17:45:33.091
38.0, 523.6832275390625, 465.28094482421875, -604.98681640625, -3660.322265625, 0.0, 0.03200000151991844, 1.0080000162124634, 0.0, 0.0, 0.0, 0.0, 0.0, 1.602456333107679E9, 2020-10-11 17:45:33.107
38.0, 357.1192932128906, 286.09112548828125, -790.9645385742188, -3449.242431640625, 0.0, 0.03200000151991844, 1.0080000162124634, 0.0, 0.0, 0.0, 0.0, 0.0, 1.602456333107679E9, 2020-10-11 17:45:33.107
39.0, 364.1951904296875, 293.189453125, -783.35009765625, -3473.009521484375, 0.0, 0.03200000151991844, 1.0080000162124634, 0.0, 0.0, 0.0, 0.0, 0.0, 1.602456333108508E9, 2020-10-11 17:45:33.108
39.0, 516.50634765625, 456.8811340332031, -615.2565307617188, -3348.135986328125, 0.0, 0.03200000151991844, 1.0080000162124634, 0.0, 0.0, 0.0, 0.0, 0.0, 1.602456333108508E9, 2020-10-11 17:45:33.108
40.0, 430.1894836425781, 362.3888244628906, -718.6947021484375, -3552.11962890625, 0.0, 0.03200000151991844, 1.0080000162124634, 0.0, 0.0, 0.0, 0.0, 0.0, 1.602456333122017E9, 2020-10-11 17:45:33.122
40.0, 322.5700988769531, 250.3339385986328, -815.2963256835938, -3732.8427734375, 0.0, 0.03200000151991844, 1.0080000162124634, 0.0, 0.0, 0.0, 0.0, 0.0, 1.602456333122017E9, 2020-10-11 17:45:33.122
41.0, 473.8827209472656, 407.6341247558594, -664.2791748046875, -3840.6005859375, 0.0, 0.03200000151991844, 1.0080000162124634, 0.0, 0.0, 0.0, 0.0, 0.0, 1.6024563331376495E9, 2020-10-11 17:45:33.137
41.0, 490.12884521484375, 428.4878234863281, -642.9430541992188, -3848.542236328125, 0.0, 0.03200000151991844, 1.0080000162124634, 0.0, 0.0, 0.0, 0.0, 0.0, 1.6024563331376495E9, 2020-10-11 17:45:33.137
42.0, 327.028076171875, 259.4630432128906, -813.7106323242188, -4018.328125, 0.0, 0.03200000151991844, 1.0080000162124634, 0.0, 0.0, 0.0, 0.0, 0.0, 1.602456333138428E9, 2020-10-11 17:45:33.138
42.0, 413.0008850097656, 347.1599426269531, -728.2875366210938, -4175.78515625, 0.0, 0.03200000151991844, 1.0080000162124634, 0.0, 0.0, 0.0, 0.0, 0.0, 1.602456333138428E9, 2020-10-11 17:45:33.138
43.0, 516.7494506835938, 458.3883056640625, -613.7942504882812, -4162.97998046875, 0.0, 0.03200000151991844, 1.0080000162124634, 0.0, 0.0, 0.0, 0.0, 0.0, 1.6024563331521173E9, 2020-10-11 17:45:33.152
43.0, 360.1224365234375, 287.9236755371094, -779.9916381835938, -3934.03076171875, 0.0, 0.03200000151991844, 1.0080000162124634, 0.0, 0.0, 0.0, 0.0, 0.0, 1.6024563331521173E9, 2020-10-11 17:45:33.152
44.0, 357.53070068359375, 288.59686279296875, -782.224365234375, -3967.222412109375, 0.0, 0.03200000151991844, 1.0080000162124634, 0.0, 0.0, 0.0, 0.0, 0.0, 1.6024563331676543E9, 2020-10-11 17:45:33.167
44.0, 512.1942749023438, 457.2513732910156, -617.6089477539062, -3845.894287109375, 0.0, 0.03200000151991844, 1.0080000162124634, 0.0, 0.0, 0.0, 0.0, 0.0, 1.6024563331676543E9, 2020-10-11 17:45:33.167
45.0, 413.662841796875, 355.174560546875, -717.8719482421875, -4045.95849609375, 0.0, 0.03200000151991844, 1.0080000162124634, 0.0, 0.0, 0.0, 0.0, 0.0, 1.6024563331684442E9, 2020-10-11 17:45:33.168
45.0, 321.3546447753906, 247.93292236328125, -817.8282470703125, -4220.181640625, 0.0, 0.03200000151991844, 1.0080000162124634, 0.0, 0.0, 0.0, 0.0, 0.0, 1.6024563331684442E9, 2020-10-11 17:45:33.168
46.0, 469.40606689453125, 405.3191223144531, -670.1096801757812, -4330.02978515625, 0.0, 0.03200000151991844, 1.0080000162124634, 0.0, 0.0, 0.0, 0.0, 0.0, 1.6024563331819997E9, 2020-10-11 17:45:33.181
46.0, 483.9281005859375, 426.385986328125, -653.5269775390625, -4334.2431640625, 0.0, 0.03200000151991844, 1.0080000162124634, 0.0, 0.0, 0.0, 0.0, 0.0, 1.6024563331819997E9, 2020-10-11 17:45:33.181
47.0, 317.5137634277344, 245.4122314453125, -828.5879516601562, -4507.29736328125, 0.0, 0.03200000151991844, 1.0080000162124634, 0.0, 0.0, 0.0, 0.0, 0.0, 1.6024563331977022E9, 2020-10-11 17:45:33.197
47.0, 401.0743408203125, 339.93072509765625, -734.9782104492188, -4672.12255859375, 0.0, 0.03200000151991844, 1.0080000162124634, 0.0, 0.0, 0.0, 0.0, 0.0, 1.6024563331977022E9, 2020-10-11 17:45:33.197
48.0, 515.4442138671875, 461.4700012207031, -609.2465209960938, -4646.69091796875, 0.0, 0.03200000151991844, 1.0080000162124634, 0.0, 0.0, 0.0, 0.0, 0.0, 1.6024563331984692E9, 2020-10-11 17:45:33.198
48.0, 351.9507751464844, 282.7065124511719, -777.8711547851562, -4422.779296875, 0.0, 0.03200000151991844, 1.0080000162124634, 0.0, 0.0, 0.0, 0.0, 0.0, 1.6024563331984692E9, 2020-10-11 17:45:33.198
49.0, 345.338623046875, 279.5051574707031, -787.8379516601562, -4465.78076171875, 0.0, 0.03200000151991844, 1.0080000162124634, 0.0, 0.0, 0.0, 0.0, 0.0, 1.6024563332120144E9, 2020-10-11 17:45:33.212
49.0, 505.27545166015625, 445.119140625, -624.6586303710938, -4337.08154296875, 0.0, 0.03200000151991844, 1.0080000162124634, 0.0, 0.0, 0.0, 0.0, 0.0, 1.6024563332120144E9, 2020-10-11 17:45:33.212
50.0, 416.3069763183594, 350.0995178222656, -719.9999389648438, -4534.7109375, 0.0, 0.03200000151991844, 1.0240000486373901, 0.0, 0.0, 0.0, 0.0, 0.0, 1.6024563332277029E9, 2020-10-11 17:45:33.227
50.0, 317.09490966796875, 242.33055114746094, -822.6377563476562, -4712.56201171875, 0.0, 0.03200000151991844, 1.0240000486373901, 0.0, 0.0, 0.0, 0.0, 0.0, 1.6024563332277029E9, 2020-10-11 17:45:33.227
51.0, 457.7001647949219, 398.51251220703125, -673.9243774414062, -4819.6953125, 0.0, 0.03200000151991844, 1.0240000486373901, 0.0, 0.0, 0.0, 0.0, 0.0, 1.6024563332284276E9, 2020-10-11 17:45:33.228
51.0, 476.927001953125, 421.88690185546875, -660.505615234375, -4828.08203125, 0.0, 0.03200000151991844, 1.0240000486373901, 0.0, 0.0, 0.0, 0.0, 0.0, 1.6024563332284276E9, 2020-10-11 17:45:33.228
52.0, 313.8636169433594, 240.35589599609375, -825.6371459960938, -4998.892578125, 0.0, 0.03200000151991844, 1.0240000486373901, 0.0, 0.0, 0.0, 0.0, 0.0, 1.6024563332419767E9, 2020-10-11 17:45:33.241
52.0, 401.9382629394531, 335.98138427734375, -735.614013671875, -5161.31982421875, 0.0, 0.03200000151991844, 1.0240000486373901, 0.0, 0.0, 0.0, 0.0, 0.0, 1.6024563332419767E9, 2020-10-11 17:45:33.241
53.0, 516.3829345703125, 458.1863708496094, -617.87451171875, -5132.7060546875, 0.0, 0.03200000151991844, 1.0240000486373901, 0.0, 0.0, 0.0, 0.0, 0.0, 1.6024563332740324E9, 2020-10-11 17:45:33.274
53.0, 345.70513916015625, 276.16168212890625, -793.03271484375, -4910.12939453125, 0.0, 0.03200000151991844, 1.0240000486373901, 0.0, 0.0, 0.0, 0.0, 0.0, 1.6024563332740324E9, 2020-10-11 17:45:33.274
54.0, 344.4186096191406, 273.1697692871094, -799.5999755859375, -4958.359375, 0.0, 0.03200000151991844, 1.0240000486373901, 0.0, 0.0, 0.0, 0.0, 0.0, 1.6024563332748203E9, 2020-10-11 17:45:33.274
54.0, 503.7832336425781, 446.2298889160156, -629.4682006835938, -4824.84326171875, 0.0, 0.03200000151991844, 1.0240000486373901, 0.0, 0.0, 0.0, 0.0, 0.0, 1.6024563332748203E9, 2020-10-11 17:45:33.274
55.0, 417.7954406738281, 358.5217590332031, -713.66455078125, -5020.01513671875, 0.0, 0.03200000151991844, 1.0240000486373901, 0.0, 0.0, 0.0, 0.0, 0.0, 1.6024563332755089E9, 2020-10-11 17:45:33.275
55.0, 313.0146789550781, 246.82217407226562, -827.705322265625, -5200.962890625, 0.0, 0.03200000151991844, 1.0240000486373901, 0.0, 0.0, 0.0, 0.0, 0.0, 1.6024563332755089E9, 2020-10-11 17:45:33.275
56.0, 465.1463317871094, 403.7259521484375, -672.1404418945312, -5307.62841796875, 0.0, 0.03200000151991844, 1.0240000486373901, 0.0, 0.0, 0.0, 0.0, 0.0, 1.602456333276262E9, 2020-10-11 17:45:33.276
56.0, 484.9977111816406, 434.05279541015625, -639.6668701171875, -5313.82373046875, 0.0, 0.03200000151991844, 1.0240000486373901, 0.0, 0.0, 0.0, 0.0, 0.0, 1.602456333276262E9, 2020-10-11 17:45:33.276
57.0, 322.4205017089844, 252.4918670654297, -819.7206420898438, -5482.55859375, 0.0, 0.03200000151991844, 1.0240000486373901, 0.0, 0.0, 0.0, 0.0, 0.0, 1.6024563332870204E9, 2020-10-11 17:45:33.287
57.0, 401.9233093261719, 345.678955078125, -728.0407104492188, -5641.24267578125, 0.0, 0.03200000151991844, 1.0240000486373901, 0.0, 0.0, 0.0, 0.0, 0.0, 1.6024563332870204E9, 2020-10-11 17:45:33.287
58.0, 518.888671875, 462.5059509277344, -609.3363037109375, -5623.466796875, 0.0, 0.03200000151991844, 1.0240000486373901, 0.0, 0.0, 0.0, 0.0, 0.0, 1.602456333302006E9, 2020-10-11 17:45:33.302
58.0, 348.719482421875, 285.302001953125, -784.5057373046875, -5406.0029296875, 0.0, 0.03200000151991844, 1.0240000486373901, 0.0, 0.0, 0.0, 0.0, 0.0, 1.602456333302006E9, 2020-10-11 17:45:33.302
59.0, 351.84979248046875, 289.4196472167969, -782.3440551757812, -5431.751953125, 0.0, 0.03200000151991844, 1.0240000486373901, 0.0, 0.0, 0.0, 0.0, 0.0, 1.6024563333177028E9, 2020-10-11 17:45:33.317
59.0, 513.020751953125, 455.96112060546875, -621.9883422851562, -5308.31494140625, 0.0, 0.03200000151991844, 1.0240000486373901, 0.0, 0.0, 0.0, 0.0, 0.0, 1.6024563333177028E9, 2020-10-11 17:45:33.317
60.0, 409.95660400390625, 349.9761047363281, -726.316650390625, -5517.94921875, 0.0, 0.03200000151991844, 1.0080000162124634, 0.0, 0.0, 0.0, 0.0, 0.0, 1.6024563333184493E9, 2020-10-11 17:45:33.318
60.0, 314.1927490234375, 245.8722381591797, -825.7156982421875, -5692.34814453125, 0.0, 0.03200000151991844, 1.0080000162124634, 0.0, 0.0, 0.0, 0.0, 0.0, 1.6024563333184493E9, 2020-10-11 17:45:33.318
61.0, 462.7939147949219, 407.8099060058594, -672.7911987304688, -5790.9208984375, 0.0, 0.03200000151991844, 1.0080000162124634, 0.0, 0.0, 0.0, 0.0, 0.0, 1.6024563333320253E9, 2020-10-11 17:45:33.332
61.0, 485.1136474609375, 424.61328125, -652.853759765625, -5805.04443359375, 0.0, 0.03200000151991844, 1.0080000162124634, 0.0, 0.0, 0.0, 0.0, 0.0, 1.6024563333320253E9, 2020-10-11 17:45:33.332
62.0, 324.2306213378906, 252.9967498779297, -817.4429931640625, -5977.11181640625, 0.0, 0.03200000151991844, 1.0080000162124634, 0.0, 0.0, 0.0, 0.0, 0.0, 1.6024563333477173E9, 2020-10-11 17:45:33.347
62.0, 401.2613525390625, 339.64276123046875, -737.9177856445312, -6137.01123046875, 0.0, 0.03200000151991844, 1.0080000162124634, 0.0, 0.0, 0.0, 0.0, 0.0, 1.6024563333477173E9, 2020-10-11 17:45:33.347
63.0, 513.1703491210938, 462.0496826171875, -616.0194702148438, -6111.3779296875, 0.0, 0.03200000151991844, 1.0080000162124634, 0.0, 0.0, 0.0, 0.0, 0.0, 1.6024563333484387E9, 2020-10-11 17:45:33.348
63.0, 347.04400634765625, 280.8365783691406, -799.9851684570312, -5905.900390625, 0.0, 0.03200000151991844, 1.0080000162124634, 0.0, 0.0, 0.0, 0.0, 0.0, 1.6024563333484387E9, 2020-10-11 17:45:33.348
64.0, 344.88983154296875, 278.66741943359375, -796.3948364257812, -5931.59375, 0.0, 0.03200000151991844, 1.0080000162124634, 0.0, 0.0, 0.0, 0.0, 0.0, 1.602456333362004E9, 2020-10-11 17:45:33.362
64.0, 496.4305725097656, 438.5518798828125, -641.2600708007812, -5802.38916015625, 0.0, 0.03200000151991844, 1.0080000162124634, 0.0, 0.0, 0.0, 0.0, 0.0, 1.602456333362004E9, 2020-10-11 17:45:33.362
65.0, 408.83465576171875, 347.7433776855469, -731.9563598632812, -6012.69677734375, 0.0, 0.03200000151991844, 1.0080000162124634, 0.0, 0.0, 0.0, 0.0, 0.0, 1.6024563333777E9, 2020-10-11 17:45:33.377
65.0, 307.9209289550781, 237.55844116210938, -837.1821899414062, -6186.54248046875, 0.0, 0.03200000151991844, 1.0080000162124634, 0.0, 0.0, 0.0, 0.0, 0.0, 1.6024563333777E9, 2020-10-11 17:45:33.377
66.0, 455.8451843261719, 398.8865051269531, -678.240234375, -6286.03125, 0.0, 0.03200000151991844, 1.0080000162124634, 0.0, 0.0, 0.0, 0.0, 0.0, 1.6024563333784373E9, 2020-10-11 17:45:33.378
66.0, 470.3672180175781, 409.04034423828125, -667.1663818359375, -6306.412109375, 0.0, 0.03200000151991844, 1.0080000162124634, 0.0, 0.0, 0.0, 0.0, 0.0, 1.6024563333784373E9, 2020-10-11 17:45:33.378
67.0, 303.9416809082031, 235.8306121826172, -836.9578247070312, -6479.77685546875, 0.0, 0.03200000151991844, 1.0080000162124634, 0.0, 0.0, 0.0, 0.0, 0.0, 1.6024563333920448E9, 2020-10-11 17:45:33.392
67.0, 389.57415771484375, 327.4319763183594, -746.0557861328125, -6624.57080078125, 0.0, 0.03200000151991844, 1.0080000162124634, 0.0, 0.0, 0.0, 0.0, 0.0, 1.6024563333920448E9, 2020-10-11 17:45:33.392
68.0, 500.0657653808594, 443.74285888671875, -637.4566040039062, -6607.24755859375, 0.0, 0.03200000151991844, 1.0080000162124634, 0.0, 0.0, 0.0, 0.0, 0.0, 1.6024563334074576E9, 2020-10-11 17:45:33.407
68.0, 336.6844787597656, 269.4971923828125, -798.8258056640625, -6402.20751953125, 0.0, 0.03200000151991844, 1.0080000162124634, 0.0, 0.0, 0.0, 0.0, 0.0, 1.6024563334074576E9, 2020-10-11 17:45:33.407
69.0, 341.33319091796875, 273.1435852050781, -798.8182983398438, -6419.8076171875, 0.0, 0.03200000151991844, 1.0080000162124634, 0.0, 0.0, 0.0, 0.0, 0.0, 1.6024563334227133E9, 2020-10-11 17:45:33.422
69.0, 491.176025390625, 434.3033752441406, -640.0969848632812, -6291.53466796875, 0.0, 0.03200000151991844, 1.0080000162124634, 0.0, 0.0, 0.0, 0.0, 0.0, 1.6024563334227133E9, 2020-10-11 17:45:33.422
70.0, 395.28497314453125, 335.7083740234375, -740.12060546875, -6518.7763671875, 0.0, 0.03200000151991844, 1.0240000486373901, 0.0, 0.0, 0.0, 0.0, 0.0, 1.602456333423519E9, 2020-10-11 17:45:33.423
70.0, 305.3852844238281, 231.9224090576172, -834.2052612304688, -6680.08203125, 0.0, 0.03200000151991844, 1.0240000486373901, 0.0, 0.0, 0.0, 0.0, 0.0, 1.602456333423519E9, 2020-10-11 17:45:33.423
71.0, 443.8962097167969, 386.9524841308594, -683.7976684570312, -6778.1533203125, 0.0, 0.04800000041723251, 1.0240000486373901, 0.0, 0.0, 0.0, 0.0, 0.0, 1.6024563334376664E9, 2020-10-11 17:45:33.437
71.0, 466.9788818359375, 406.6916809082031, -667.1364135742188, -6797.04931640625, 0.0, 0.04800000041723251, 1.0240000486373901, 0.0, 0.0, 0.0, 0.0, 0.0, 1.6024563334376664E9, 2020-10-11 17:45:33.437
72.0, 301.0581970214844, 224.24066162109375, -841.0119018554688, -6982.19873046875, 0.0, 0.04800000041723251, 1.0240000486373901, 0.0, 0.0, 0.0, 0.0, 0.0, 1.6024563334384367E9, 2020-10-11 17:45:33.438
72.0, 391.7021484375, 322.3195495605469, -739.5895385742188, -7120.291015625, 0.0, 0.04800000041723251, 1.0240000486373901, 0.0, 0.0, 0.0, 0.0, 0.0, 1.6024563334384367E9, 2020-10-11 17:45:33.438
73.0, 500.3088684082031, 445.0256652832031, -639.4200439453125, -7103.3603515625, 0.0, 0.04800000041723251, 1.0240000486373901, 0.0, 0.0, 0.0, 0.0, 0.0, 1.602456333452008E9, 2020-10-11 17:45:33.452
73.0, 339.34356689453125, 273.0762634277344, -797.6140747070312, -6894.1875, 0.0, 0.04800000041723251, 1.0240000486373901, 0.0, 0.0, 0.0, 0.0, 0.0, 1.602456333452008E9, 2020-10-11 17:45:33.452
74.0, 334.7060852050781, 266.6698303222656, -805.4266967773438, -6919.0244140625, 0.0, 0.04800000041723251, 1.0240000486373901, 0.0, 0.0, 0.0, 0.0, 0.0, 1.6024563334676645E9, 2020-10-11 17:45:33.467
74.0, 488.22149658203125, 430.82525634765625, -639.2816772460938, -6787.10107421875, 0.0, 0.04800000041723251, 1.0240000486373901, 0.0, 0.0, 0.0, 0.0, 0.0, 1.6024563334676645E9, 2020-10-11 17:45:33.467
75.0, 397.84307861328125, 336.08612060546875, -731.5337524414062, -7000.83837890625, 0.0, 0.04800000041723251, 1.0240000486373901, 0.0, 0.0, 0.0, 0.0, 0.0, 1.60245633346843E9, 2020-10-11 17:45:33.468
75.0, 302.8122253417969, 233.07431030273438, -838.7642211914062, -7169.65380859375, 0.0, 0.04800000041723251, 1.0240000486373901, 0.0, 0.0, 0.0, 0.0, 0.0, 1.60245633346843E9, 2020-10-11 17:45:33.468
76.0, 447.78570556640625, 389.1365966796875, -685.30859375, -7270.3916015625, 0.0, 0.04800000041723251, 1.0240000486373901, 0.0, 0.0, 0.0, 0.0, 0.0, 1.6024563334819796E9, 2020-10-11 17:45:33.481
76.0, 468.5234375, 413.7638244628906, -655.905517578125, -7282.712890625, 0.0, 0.04800000041723251, 1.0240000486373901, 0.0, 0.0, 0.0, 0.0, 0.0, 1.6024563334819796E9, 2020-10-11 17:45:33.481
77.0, 302.8197021484375, 236.02134704589844, -828.1316528320312, -7461.033203125, 0.0, 0.04800000041723251, 1.0240000486373901, 0.0, 0.0, 0.0, 0.0, 0.0, 1.6024563334976504E9, 2020-10-11 17:45:33.497
77.0, 388.48211669921875, 323.0712585449219, -751.9274291992188, -7614.76904296875, 0.0, 0.04800000041723251, 1.0240000486373901, 0.0, 0.0, 0.0, 0.0, 0.0, 1.6024563334976504E9, 2020-10-11 17:45:33.497
78.0, 500.8698425292969, 447.3818054199219, -637.9652099609375, -7589.87255859375, 0.0, 0.04800000041723251, 1.0240000486373901, 0.0, 0.0, 0.0, 0.0, 0.0, 1.6024563334984403E9, 2020-10-11 17:45:33.498
78.0, 336.95001220703125, 271.2063293457031, -800.9500732421875, -7378.95703125, 0.0, 0.04800000041723251, 1.0240000486373901, 0.0, 0.0, 0.0, 0.0, 0.0, 1.6024563334984403E9, 2020-10-11 17:45:33.498
79.0, 336.71441650390625, 270.2489013671875, -801.8812866210938, -7407.638671875, 0.0, 0.04800000041723251, 1.0240000486373901, 0.0, 0.0, 0.0, 0.0, 0.0, 1.6024563335119739E9, 2020-10-11 17:45:33.511
79.0, 500.8586120605469, 441.304443359375, -632.9537353515625, -7269.43603515625, 0.0, 0.04800000041723251, 1.0240000486373901, 0.0, 0.0, 0.0, 0.0, 0.0, 1.6024563335119739E9, 2020-10-11 17:45:33.511
80.0, 399.35400390625, 344.0520935058594, -729.7423706054688, -7484.25390625, 0.0, 0.04800000041723251, 1.0240000486373901, 0.0, 0.0, 0.0, 0.0, 0.0, 1.6024563335276885E9, 2020-10-11 17:45:33.527
80.0, 299.5996398925781, 231.61573791503906, -834.2277221679688, -7658.24169921875, 0.0, 0.04800000041723251, 1.0240000486373901, 0.0, 0.0, 0.0, 0.0, 0.0, 1.6024563335276885E9, 2020-10-11 17:45:33.527
81.0, 436.2144470214844, 376.8809509277344, -695.4437255859375, -7766.45556640625, 0.0, 0.03200000151991844, 1.0240000486373901, 0.0, 0.0, 0.0, 0.0, 0.0, 1.6024563335284345E9, 2020-10-11 17:45:33.528
81.0, 464.48809814453125, 411.7742004394531, -667.5067138671875, -7771.6748046875, 0.0, 0.03200000151991844, 1.0240000486373901, 0.0, 0.0, 0.0, 0.0, 0.0, 1.6024563335284345E9, 2020-10-11 17:45:33.528
82.0, 292.05999755859375, 225.81515502929688, -847.7511596679688, -7956.162109375, 0.0, 0.03200000151991844, 1.0240000486373901, 0.0, 0.0, 0.0, 0.0, 0.0, 1.6024563335420065E9, 2020-10-11 17:45:33.542
82.0, 392.84283447265625, 325.0384521484375, -743.3331909179688, -8100.97509765625, 0.0, 0.03200000151991844, 1.0240000486373901, 0.0, 0.0, 0.0, 0.0, 0.0, 1.6024563335420065E9, 2020-10-11 17:45:33.542
83.0, 498.9101257324219, 448.8029479980469, -630.05908203125, -8076.2802734375, 0.0, 0.03200000151991844, 1.0240000486373901, 0.0, 0.0, 0.0, 0.0, 0.0, 1.6024563335576775E9, 2020-10-11 17:45:33.557
83.0, 339.53802490234375, 271.6925048828125, -799.5924682617188, -7867.36572265625, 0.0, 0.03200000151991844, 1.0240000486373901, 0.0, 0.0, 0.0, 0.0, 0.0, 1.6024563335576775E9, 2020-10-11 17:45:33.557
84.0, 329.71331787109375, 270.4359130859375, -798.0254516601562, -7894.0498046875, 0.0, 0.03200000151991844, 1.0240000486373901, 0.0, 0.0, 0.0, 0.0, 0.0, 1.6024563335584383E9, 2020-10-11 17:45:33.558
84.0, 485.89154052734375, 439.26995849609375, -642.759765625, -7767.22412109375, 0.0, 0.03200000151991844, 1.0240000486373901, 0.0, 0.0, 0.0, 0.0, 0.0, 1.6024563335584383E9, 2020-10-11 17:45:33.558
85.0, 399.9486389160156, 342.7019958496094, -732.7006225585938, -7970.31396484375, 0.0, 0.03200000151991844, 1.0240000486373901, 0.0, 0.0, 0.0, 0.0, 0.0, 1.6024563335719736E9, 2020-10-11 17:45:33.571
85.0, 304.0276794433594, 234.66001892089844, -841.0791625976562, -8144.41357421875, 0.0, 0.03200000151991844, 1.0240000486373901, 0.0, 0.0, 0.0, 0.0, 0.0, 1.6024563335719736E9, 2020-10-11 17:45:33.571
86.0, 459.4392395019531, 395.4345703125, -681.4789428710938, -8243.3046875, 0.0, 0.03200000151991844, 1.0240000486373901, 0.0, 0.0, 0.0, 0.0, 0.0, 1.6024563335877204E9, 2020-10-11 17:45:33.587
86.0, 475.060791015625, 419.20166015625, -655.4492797851562, -8255.9658203125, 0.0, 0.03200000151991844, 1.0240000486373901, 0.0, 0.0, 0.0, 0.0, 0.0, 1.6024563335877204E9, 2020-10-11 17:45:33.587
87.0, 311.0287780761719, 244.25660705566406, -834.7811889648438, -8431.4140625, 0.0, 0.03200000151991844, 1.0240000486373901, 0.0, 0.0, 0.0, 0.0, 0.0, 1.6024563335884528E9, 2020-10-11 17:45:33.588
87.0, 388.7775573730469, 331.1494445800781, -744.1035766601562, -8590.10546875, 0.0, 0.03200000151991844, 1.0240000486373901, 0.0, 0.0, 0.0, 0.0, 0.0, 1.6024563335884528E9, 2020-10-11 17:45:33.588
88.0, 502.07781982421875, 446.7908935546875, -627.8151245117188, -8561.6142578125, 0.0, 0.03200000151991844, 1.0240000486373901, 0.0, 0.0, 0.0, 0.0, 0.0, 1.6024563336019719E9, 2020-10-11 17:45:33.601
88.0, 338.389892578125, 274.9312744140625, -798.1114501953125, -8352.8759765625, 0.0, 0.03200000151991844, 1.0240000486373901, 0.0, 0.0, 0.0, 0.0, 0.0, 1.6024563336019719E9, 2020-10-11 17:45:33.601
89.0, 340.85821533203125, 279.25457763671875, -791.1889038085938, -8386.134765625, 0.0, 0.03200000151991844, 1.0240000486373901, 0.0, 0.0, 0.0, 0.0, 0.0, 1.6024563336176536E9, 2020-10-11 17:45:33.617
89.0, 497.29449462890625, 440.8444519042969, -634.6404418945312, -8250.6513671875, 0.0, 0.03200000151991844, 1.0240000486373901, 0.0, 0.0, 0.0, 0.0, 0.0, 1.6024563336176536E9, 2020-10-11 17:45:33.617
90.0, 397.5102233886719, 343.3041076660156, -733.33642578125, -8470.099609375, 0.0, 0.03200000151991844, 1.0080000162124634, 0.0, 0.0, 0.0, 0.0, 0.0, 1.6024563336184475E9, 2020-10-11 17:45:33.618
90.0, 309.4056701660156, 235.01905822753906, -839.1568603515625, -8646.970703125, 0.0, 0.03200000151991844, 1.0080000162124634, 0.0, 0.0, 0.0, 0.0, 0.0, 1.6024563336184475E9, 2020-10-11 17:45:33.618
91.0, 444.8199462890625, 385.0339050292969, -689.6207275390625, -8748.7138671875, 0.0, 0.03200000151991844, 1.0080000162124634, 0.0, 0.0, 0.0, 0.0, 0.0, 1.602456333631975E9, 2020-10-11 17:45:33.631
91.0, 463.5755615234375, 403.0415344238281, -668.8642578125, -8757.4150390625, 0.0, 0.03200000151991844, 1.0080000162124634, 0.0, 0.0, 0.0, 0.0, 0.0, 1.602456333631975E9, 2020-10-11 17:45:33.631
92.0, 303.2086486816406, 236.61973571777344, -834.2351684570312, -8944.359375, 0.0, 0.03200000151991844, 1.0080000162124634, 0.0, 0.0, 0.0, 0.0, 0.0, 1.6024563336476536E9, 2020-10-11 17:45:33.647
92.0, 388.08941650390625, 319.33135986328125, -752.4622802734375, -9093.267578125, 0.0, 0.03200000151991844, 1.0080000162124634, 0.0, 0.0, 0.0, 0.0, 0.0, 1.6024563336476536E9, 2020-10-11 17:45:33.647
93.0, 502.2274169921875, 443.04351806640625, -637.8605346679688, -9064.2724609375, 0.0, 0.03200000151991844, 1.0080000162124634, 0.0, 0.0, 0.0, 0.0, 0.0, 1.6024563336484313E9, 2020-10-11 17:45:33.648
93.0, 335.04266357421875, 269.8375244140625, -804.6114501953125, -8863.447265625, 0.0, 0.03200000151991844, 1.0080000162124634, 0.0, 0.0, 0.0, 0.0, 0.0, 1.6024563336484313E9, 2020-10-11 17:45:33.648
94.0, 340.51788330078125, 268.84271240234375, -797.9207153320312, -8892.2705078125, 0.0, 0.03200000151991844, 1.0080000162124634, 0.0, 0.0, 0.0, 0.0, 0.0, 1.6024563336620626E9, 2020-10-11 17:45:33.662
94.0, 498.6371154785156, 434.9877624511719, -639.7005615234375, -8749.00390625, 0.0, 0.03200000151991844, 1.0080000162124634, 0.0, 0.0, 0.0, 0.0, 0.0, 1.6024563336620626E9, 2020-10-11 17:45:33.662
95.0, 407.9295959472656, 345.3984680175781, -730.8231811523438, -8967.4345703125, 0.0, 0.03200000151991844, 1.0080000162124634, 0.0, 0.0, 0.0, 0.0, 0.0, 1.6024563336776588E9, 2020-10-11 17:45:33.677
95.0, 308.1116638183594, 237.61080932617188, -832.5335083007812, -9154.6240234375, 0.0, 0.03200000151991844, 1.0080000162124634, 0.0, 0.0, 0.0, 0.0, 0.0, 1.6024563336776588E9, 2020-10-11 17:45:33.677
96.0, 452.6849670410156, 389.9182434082031, -680.1961669921875, -9238.74609375, 0.0, 0.03200000151991844, 1.0080000162124634, 0.0, 0.0, 0.0, 0.0, 0.0, 1.6024563336784263E9, 2020-10-11 17:45:33.678
96.0, 471.65374755859375, 412.13323974609375, -664.7840576171875, -9258.501953125, 0.0, 0.03200000151991844, 1.0080000162124634, 0.0, 0.0, 0.0, 0.0, 0.0, 1.6024563336784263E9, 2020-10-11 17:45:33.678
97.0, 311.0998229980469, 241.10012817382812, -828.9955444335938, -9447.9033203125, 0.0, 0.03200000151991844, 1.0080000162124634, 0.0, 0.0, 0.0, 0.0, 0.0, 1.6024563336920524E9, 2020-10-11 17:45:33.692
97.0, 392.6820068359375, 333.7898254394531, -740.554443359375, -9581.291015625, 0.0, 0.03200000151991844, 1.0080000162124634, 0.0, 0.0, 0.0, 0.0, 0.0, 1.6024563336920524E9, 2020-10-11 17:45:33.692
98.0, 500.7838134765625, 442.6358642578125, -631.431640625, -9556.73046875, 0.0, 0.03200000151991844, 1.0080000162124634, 0.0, 0.0, 0.0, 0.0, 0.0, 1.6024563337077467E9, 2020-10-11 17:45:33.707
98.0, 339.8858337402344, 270.15167236328125, -800.3441772460938, -9366.7294921875, 0.0, 0.03200000151991844, 1.0080000162124634, 0.0, 0.0, 0.0, 0.0, 0.0, 1.6024563337077467E9, 2020-10-11 17:45:33.707
99.0, 349.31414794921875, 278.6524658203125, -792.5128784179688, -9384.2470703125, 0.0, 0.03200000151991844, 1.0080000162124634, 0.0, 0.0, 0.0, 0.0, 0.0, 1.6024563337084363E9, 2020-10-11 17:45:33.708
99.0, 501.3747253417969, 444.1430358886719, -629.4120483398438, -9231.76953125, 0.0, 0.03200000151991844, 1.0080000162124634, 0.0, 0.0, 0.0, 0.0, 0.0, 1.6024563337084363E9, 2020-10-11 17:45:33.708
100.0, 406.3775329589844, 346.0828552246094, -722.3673095703125, -9470.4775390625, 0.0, 0.03200000151991844, 1.0240000486373901, 0.0, 0.0, 0.0, 0.0, 0.0, 1.6024563337227085E9, 2020-10-11 17:45:33.722
