%OpenBCI Raw EEG Data
%Number of channels = 4
%Sample Rate = 200 Hz
%Board = OpenBCI_GUI$BoardGanglionBLE
Sample Index, EXG Channel 0, EXG Channel 1, EXG Channel 2, EXG Channel 3, Accel Channel 0, Accel Channel 1, Accel Channel 2, Other, Other, Other, Other, Other, Timestamp, Other, Timestamp (Formatted)
2.0, -8.82242399547249, 4.3270642487332225, -1.7353135794401169, -8.530711798928678, -0.49600002355873585, 0.0, 0.0, 0.0, 0.0, 0.0, 0.0, 0.0, 1.6480851300142565E9, 0.0, 2022-03-23 20:25:30.014
2.0, 11.152381667867303, -1.0546517875045538, -7.027272016741335, 3.294851860962808, -0.49600002355873585, 0.0, 0.0, 0.0, 0.0, 0.0, 0.0, 0.0, 1.6480851300142565E9, 0.0, 2022-03-23 20:25:30.014
3.0, -6.073597528040409, 4.81325124297291, 5.377976136282086, -2.6852481681853533, -0.49600002355873585, 0.0, 0.0, 0.0, 0.0, 0.0, 0.0, 0.0, 1.6480851300284104E9, 0.0, 2022-03-23 20:25:30.028
3.0, -12.569803751073778, 3.0068795643746853, 2.898422465659678, -8.639168897643685, -0.49600002355873585, 0.0, 0.0, 0.0, 0.0, 0.0, 0.0, 0.0, 1.6480851300284104E9, 0.0, 2022-03-23 20:25:30.028
4.0, 13.912427835166454, 4.9703270411118865, 7.977206605486572, 6.649542121216655, -0.49600002355873585, 0.0, 0.0, 0.0, 0.0, 0.0, 0.0, 0.0, 1.6480851300436893E9, 0.0, 2022-03-23 20:25:30.043
4.0, -5.938961129635572, 2.655328968539834, -6.754259319975972, 0.1047171987593174, -0.49600002355873585, 0.0, 0.0, 0.0, 0.0, 0.0, 0.0, 0.0, 1.6480851300436893E9, 0.0, 2022-03-23 20:25:30.043
5.0, -23.916660216636956, -5.273258937522769, -10.595136574469507, -17.37183529417962, -0.49600002355873585, 0.0, 0.0, 0.0, 0.0, 0.0, 0.0, 0.0, 1.6480851300444355E9, 0.0, 2022-03-23 20:25:30.044
5.0, -7.487279711291194, -11.264578666538, -12.85403614770621, -14.858622523956, -0.49600002355873585, 0.0, 0.0, 0.0, 0.0, 0.0, 0.0, 0.0, 1.6480851300444355E9, 0.0, 2022-03-23 20:25:30.044
6.0, -10.325863777659833, -13.489819140173495, -19.28292417153716, -12.801677548326552, -0.49600002355873585, 0.0, 0.0, 0.0, 0.0, 0.0, 0.0, 0.0, 1.648085130058708E9, 0.0, 2022-03-23 20:25:30.058
6.0, -24.97131200414151, -11.182300867512822, -15.778637913055718, -23.32949592359364, -0.49600002355873585, 0.0, 0.0, 0.0, 0.0, 0.0, 0.0, 0.0, 1.648085130058708E9, 0.0, 2022-03-23 20:25:30.058
7.0, -20.259038059972227, -14.372435529716313, -21.3062100475654, -29.39561365172267, -0.49600002355873585, 0.0, 0.0, 0.0, 0.0, 0.0, 0.0, 0.0, 1.6480851300593884E9, 0.0, 2022-03-23 20:25:30.059
7.0, -2.3112581726163626, -10.85318967141211, -21.553043444640934, -1.4810003824532032, -0.49600002355873585, 0.0, 0.0, 0.0, 0.0, 0.0, 0.0, 0.0, 1.6480851300593884E9, 0.0, 2022-03-23 20:25:30.059
8.0, -18.50876488070935, -3.459407459013164, -11.167341267690063, -5.591150433756411, -0.49600002355873585, 0.0, 0.0, 0.0, 0.0, 0.0, 0.0, 0.0, 1.6480851300730202E9, 0.0, 2022-03-23 20:25:30.073
8.0, -25.188226201571524, -8.541931498795748, -12.07239705696702, -20.96961905155331, -0.49600002355873585, 0.0, 0.0, 0.0, 0.0, 0.0, 0.0, 0.0, 1.6480851300730202E9, 0.0, 2022-03-23 20:25:30.073
9.0, -3.496806458570063, -16.739792201668024, -21.867195040918887, -11.391735265031457, -0.49600002355873585, 0.0, 0.0, 0.0, 0.0, 0.0, 0.0, 0.0, 1.6480851300887854E9, 0.0, 2022-03-23 20:25:30.088
9.0, -25.846448593772948, -16.272304707206786, -28.359661363996565, -18.276891083456576, -0.49600002355873585, 0.0, 0.0, 0.0, 0.0, 0.0, 0.0, 0.0, 1.6480851300887854E9, 0.0, 2022-03-23 20:25:30.088
10.0, -28.94682565703988, -12.786717948503792, -11.451573664322495, -24.58984220866114, -0.49600002355873585, 0.0, 0.5280000250786543, 0.0, 0.0, 0.0, 0.0, 0.0, 1.6480851300895212E9, 0.0, 2022-03-23 20:25:30.089
10.0, -3.021839164197445, -13.239245843142271, -10.87936897110194, -11.747025760821998, -0.49600002355873585, 0.0, 0.5280000250786543, 0.0, 0.0, 0.0, 0.0, 0.0, 1.6480851300895212E9, 0.0, 2022-03-23 20:25:30.089
11.0, -11.440353964455426, -11.122462468221784, -14.402354729361832, -13.762831836938858, -0.49600002355873585, 0.7520000357180834, 0.5280000250786543, 0.0, 0.0, 0.0, 0.0, 0.0, 1.648085130103082E9, 0.0, 2022-03-23 20:25:30.103
11.0, -18.635921479202807, 1.6231165807694197, 3.1527356626465917, -9.218853390775621, -0.49600002355873585, 0.7520000357180834, 0.5280000250786543, 0.0, 0.0, 0.0, 0.0, 0.0, 1.648085130103082E9, 0.0, 2022-03-23 20:25:30.103
12.0, -19.092189273796976, -12.652081550098956, -21.152874149382114, -17.786964189261198, -0.49600002355873585, 0.7520000357180834, 0.5280000250786543, 0.0, 0.0, 0.0, 0.0, 0.0, 1.6480851301350708E9, 0.0, 2022-03-23 20:25:30.135
12.0, 3.747379755601287, -4.738453243859112, -13.052250845357776, -10.127649080008268, -0.49600002355873585, 0.7520000357180834, 0.5280000250786543, 0.0, 0.0, 0.0, 0.0, 0.0, 1.6480851301350708E9, 0.0, 2022-03-23 20:25:30.135
13.0, -16.47425930481404, -8.86730279494077, -7.401262012310326, -14.996998822316527, -0.49600002355873585, 0.7520000357180834, 0.5280000250786543, 0.0, 0.0, 0.0, 0.0, 0.0, 1.6480851301357956E9, 0.0, 2022-03-23 20:25:30.135
13.0, -23.71096571907401, 0.5572450933977962, -12.831596747972071, -21.7886571418494, -0.49600002355873585, 0.7520000357180834, 0.5280000250786543, 0.0, 0.0, 0.0, 0.0, 0.0, 1.6480851301357956E9, 0.0, 2022-03-23 20:25:30.135
14.0, 5.366756436415017, 5.759445931762457, -16.661254302598536, -5.8566833306103945, -0.49600002355873585, 0.7520000357180834, 0.5280000250786543, 0.0, 0.0, 0.0, 0.0, 0.0, 1.6480851301365504E9, 0.0, 2022-03-23 20:25:30.136
14.0, -12.438907252624631, 7.318984213285148, -23.527710621245205, -19.036090774461627, -0.49600002355873585, 0.7520000357180834, 0.5280000250786543, 0.0, 0.0, 0.0, 0.0, 0.0, 1.6480851301365504E9, 0.0, 2022-03-23 20:25:30.136
15.0, -21.145394349470735, 19.032350874505937, -9.794797983951867, -22.91436702851206, -0.49600002355873585, 0.7520000357180834, 0.5280000250786543, 0.0, 0.0, 0.0, 0.0, 0.0, 1.6480851301372645E9, 0.0, 2022-03-23 20:25:30.137
15.0, 10.46050017606467, 32.720384712331, -3.4444478591904044, -7.793951507657766, -0.49600002355873585, 0.7520000357180834, 0.5280000250786543, 0.0, 0.0, 0.0, 0.0, 0.0, 1.6480851301372645E9, 0.0, 2022-03-23 20:25:30.137
16.0, 20.296437059529126, 48.098853330127895, 1.6418160805478692, 6.391489024274051, -0.49600002355873585, 0.7520000357180834, 0.5280000250786543, 0.0, 0.0, 0.0, 0.0, 0.0, 1.6480851301480248E9, 0.0, 2022-03-23 20:25:30.148
16.0, -0.20195459760725498, 49.329280415549874, -2.984440164640546, -5.882862630300224, -0.49600002355873585, 0.7520000357180834, 0.5280000250786543, 0.0, 0.0, 0.0, 0.0, 0.0, 1.6480851301480248E9, 0.0, 2022-03-23 20:25:30.148
17.0, 3.979253552854061, 54.497822154313326, -1.406202383339405, -6.83279721904546, -0.49600002355873585, 0.7520000357180834, 0.5280000250786543, 0.0, 0.0, 0.0, 0.0, 0.0, 1.6480851301631615E9, 0.0, 2022-03-23 20:25:30.163
17.0, 15.210173119790852, 44.79278176929802, -18.54616388026625, -9.054297792725265, -0.49600002355873585, 0.7520000357180834, 0.5280000250786543, 0.0, 0.0, 0.0, 0.0, 0.0, 1.6480851301631615E9, 0.0, 2022-03-23 20:25:30.163
18.0, -12.595983050763607, 43.240723287686706, -19.29414387140423, -27.634120772592723, -0.49600002355873585, 0.7520000357180834, 0.5280000250786543, 0.0, 0.0, 0.0, 0.0, 0.0, 1.6480851301786902E9, 0.0, 2022-03-23 20:25:30.178
18.0, -24.668380107730627, 36.48272406775504, -25.580915696918964, -33.45340510364622, -0.49600002355873585, 0.7520000357180834, 0.5280000250786543, 0.0, 0.0, 0.0, 0.0, 0.0, 1.6480851301786902E9, 0.0, 2022-03-23 20:25:30.178
19.0, 7.936067705973983, 31.703131924383342, -27.686479371972382, -12.45760675240308, -0.49600002355873585, 0.7520000357180834, 0.5280000250786543, 0.0, 0.0, 0.0, 0.0, 0.0, 1.6480851301794457E9, 0.0, 2022-03-23 20:25:30.179
19.0, -10.684894173406065, 27.237691377289593, -36.374266969040036, -31.261823729611933, -0.49600002355873585, 0.7520000357180834, 0.5280000250786543, 0.0, 0.0, 0.0, 0.0, 0.0, 1.6480851301794457E9, 0.0, 2022-03-23 20:25:30.179
20.0, -21.115475149825215, 33.221531306393445, -27.73135817144066, -31.85646782256663, -0.49600002355873585, 0.7520000357180834, 0.5280000250786543, 0.0, 0.0, 0.0, 0.0, 0.0, 1.648085130209426E9, 0.0, 2022-03-23 20:25:30.209
20.0, 1.0696113873273134, 31.875167322345078, -26.751504383049905, -20.232858760282397, -0.49600002355873585, 0.7520000357180834, 0.5280000250786543, 0.0, 0.0, 0.0, 0.0, 0.0, 1.648085130209426E9, 0.0, 2022-03-23 20:25:30.209
21.0, 4.0428318521007895, 25.629534396342933, -25.651973796077073, -15.647741414606571, -0.49600002355873585, 0.7520000357180834, 0.5280000250786543, 0.0, 0.0, 0.0, 0.0, 0.0, 1.6480851302101622E9, 0.0, 2022-03-23 20:25:30.210
21.0, -25.76043089479208, 16.414420905523002, -30.278230041265488, -27.36110807582736, -0.49600002355873585, 0.7520000357180834, 0.5280000250786543, 0.0, 0.0, 0.0, 0.0, 0.0, 1.6480851302101622E9, 0.0, 2022-03-23 20:25:30.210
22.0, -12.45760675240308, 22.9368064282462, -17.498991892673075, -19.103408973664045, -0.49600002355873585, 0.7520000357180834, 0.5280000250786543, 0.0, 0.0, 0.0, 0.0, 0.0, 1.6480851302108967E9, 0.0, 2022-03-23 20:25:30.210
22.0, 16.765971501357853, 33.81243549939245, -13.946086934767663, -3.306071560829878, -0.49600002355873585, 0.7520000357180834, 0.5280000250786543, 0.0, 0.0, 0.0, 0.0, 0.0, 1.6480851302108967E9, 0.0, 2022-03-23 20:25:30.210
23.0, -14.450973428785801, 20.94717965181917, -24.90399380493909, -17.162400896660984, -0.49600002355873585, 0.7520000357180834, 0.5280000250786543, 0.0, 0.0, 0.0, 0.0, 0.0, 1.6480851302230208E9, 0.0, 2022-03-23 20:25:30.223
23.0, -18.269411283545196, 31.661993024870753, -26.355074987746775, -31.299222729168832, -0.49600002355873585, 0.7520000357180834, 0.5280000250786543, 0.0, 0.0, 0.0, 0.0, 0.0, 1.6480851302230208E9, 0.0, 2022-03-23 20:25:30.223
24.0, 4.506579446606338, 27.73883797135204, -26.471011886373162, -21.77369754202664, -0.49600002355873585, 0.7520000357180834, 0.5280000250786543, 0.0, 0.0, 0.0, 0.0, 0.0, 1.6480851302387235E9, 0.0, 2022-03-23 20:25:30.238
24.0, -8.227779902517796, 24.066256214864552, -29.00292415637523, -19.166987272910774, -0.49600002355873585, 0.7520000357180834, 0.5280000250786543, 0.0, 0.0, 0.0, 0.0, 0.0, 1.6480851302387235E9, 0.0, 2022-03-23 20:25:30.238
25.0, -17.536390892229974, 29.80326274689287, -27.095575178973377, -19.234305472113192, -0.49600002355873585, 0.7520000357180834, 0.5280000250786543, 0.0, 0.0, 0.0, 0.0, 0.0, 1.648085130239413E9, 0.0, 2022-03-23 20:25:30.239
25.0, 8.657868397422135, 26.033443591557443, -28.329742164351046, -16.736052301712334, -0.49600002355873585, 0.7520000357180834, 0.5280000250786543, 0.0, 0.0, 0.0, 0.0, 0.0, 1.648085130239413E9, 0.0, 2022-03-23 20:25:30.239
26.0, 1.4024624833837152, 17.439153493382037, -40.73873021733016, -13.646894938312471, -0.49600002355873585, 0.7520000357180834, 0.5280000250786543, 0.0, 0.0, 0.0, 0.0, 0.0, 1.6480851302530267E9, 0.0, 2022-03-23 20:25:30.253
26.0, -17.095082697458565, 25.158307001926005, -34.60529428999871, -24.99749130383134, -0.49600002355873585, 0.7520000357180834, 0.5280000250786543, 0.0, 0.0, 0.0, 0.0, 0.0, 1.6480851302530267E9, 0.0, 2022-03-23 20:25:30.253
27.0, -6.933774517849088, 30.483924538828433, -30.54376293811947, -21.75873794220388, -0.49600002355873585, 0.7520000357180834, 0.5280000250786543, 0.0, 0.0, 0.0, 0.0, 0.0, 1.648085130268726E9, 0.0, 2022-03-23 20:25:30.268
27.0, 5.520092334598303, 25.427579798735678, -29.653666748665273, -12.584763350896537, -0.49600002355873585, 0.7520000357180834, 0.5280000250786543, 0.0, 0.0, 0.0, 0.0, 0.0, 1.648085130268726E9, 0.0, 2022-03-23 20:25:30.268
28.0, -21.829796041361988, 14.8960215235129, -49.688310811296105, -32.11826081946492, -0.49600002355873585, 0.7520000357180834, 0.5280000250786543, 0.0, 0.0, 0.0, 0.0, 0.0, 1.6480851302695243E9, 0.0, 2022-03-23 20:25:30.269
28.0, -33.70023850072175, 15.834736412391067, -51.04215459525585, -36.62484026607126, -0.49600002355873585, 0.7520000357180834, 0.5280000250786543, 0.0, 0.0, 0.0, 0.0, 0.0, 1.6480851302695243E9, 0.0, 2022-03-23 20:25:30.269
29.0, 1.529619081877172, 16.279784507118165, -38.22551744710654, -15.621562114916742, -0.49600002355873585, 0.7520000357180834, 0.5280000250786543, 0.0, 0.0, 0.0, 0.0, 0.0, 1.6480851302830431E9, 0.0, 2022-03-23 20:25:30.283
29.0, -8.381115800701082, 25.120908002369106, -32.66428621299565, -27.080615579150617, -0.49600002355873585, 0.7520000357180834, 0.5280000250786543, 0.0, 0.0, 0.0, 0.0, 0.0, 1.6480851302830431E9, 0.0, 2022-03-23 20:25:30.283
30.0, -18.284370883367956, 30.450265439227223, -31.34410152863711, -20.91726045217365, -0.49600002355873585, 0.7520000357180834, 0.5280000250786543, 0.0, 0.0, 0.0, 0.0, 0.0, 1.648085130298708E9, 0.0, 2022-03-23 20:25:30.298
30.0, 4.43552134744823, 24.227071912959218, -30.042616344057024, -17.435413593426347, -0.49600002355873585, 0.7520000357180834, 0.5280000250786543, 0.0, 0.0, 0.0, 0.0, 0.0, 1.648085130298708E9, 0.0, 2022-03-23 20:25:30.298
31.0, 2.614190069027245, 19.937406663782895, -28.875767557881773, -16.46677950490266, -0.49600002355873585, 0.7520000357180834, 0.5280000250786543, 0.0, 0.0, 0.0, 0.0, 0.0, 1.6480851302994623E9, 0.0, 2022-03-23 20:25:30.299
31.0, -19.208126172423363, 22.428180034272373, -39.93091182690114, -24.57114270888269, -0.49600002355873585, 0.7520000357180834, 0.5280000250786543, 0.0, 0.0, 0.0, 0.0, 0.0, 1.6480851302994623E9, 0.0, 2022-03-23 20:25:30.299
32.0, -1.3837629836052656, 38.472350844182074, -33.81617539934814, -5.7332666320726275, -0.4800000227987766, 0.7520000357180834, 0.5280000250786543, 0.0, 0.0, 0.0, 0.0, 0.0, 1.6480851303129995E9, 0.0, 2022-03-23 20:25:30.312
32.0, 11.941500558517873, 29.092681755311787, -26.710365483537316, -1.492220082320273, -0.4800000227987766, 0.7520000357180834, 0.5280000250786543, 0.0, 0.0, 0.0, 0.0, 0.0, 1.6480851303129995E9, 0.0, 2022-03-23 20:25:30.312
33.0, 2.7974451668560505, 33.77129659987986, -4.42804154753685, -6.103516727685928, -0.4800000227987766, 0.7520000357180834, 0.5280000250786543, 0.0, 0.0, 0.0, 0.0, 0.0, 1.6480851303288252E9, 0.0, 2022-03-23 20:25:30.328
33.0, -2.969480564817786, 40.57791451923549, -1.2753058848902583, -4.558938045985997, -0.4800000227987766, 0.7520000357180834, 0.5280000250786543, 0.0, 0.0, 0.0, 0.0, 0.0, 1.6480851303288252E9, 0.0, 2022-03-23 20:25:30.328
34.0, 21.246371648274362, 42.066394701600075, -5.067564439959824, 9.121615991927683, -0.4800000227987766, 0.7520000357180834, 0.5280000250786543, 0.0, 0.0, 0.0, 0.0, 0.0, 1.64808513032948E9, 0.0, 2022-03-23 20:25:30.329
34.0, 1.4361215829849243, 35.76466327626258, -17.72712578997016, -5.093743739649653, -0.4800000227987766, 0.7520000357180834, 0.5280000250786543, 0.0, 0.0, 0.0, 0.0, 0.0, 1.64808513032948E9, 0.0, 2022-03-23 20:25:30.329
35.0, -19.35024237073958, 31.878907222300768, -12.809157348237932, -13.441200440749526, -0.4800000227987766, 0.7520000357180834, 0.5280000250786543, 0.0, 0.0, 0.0, 0.0, 0.0, 1.648085130343017E9, 0.0, 2022-03-23 20:25:30.343
35.0, 5.950180829502642, 41.01548281405121, -11.612389362417161, -9.746179284527898, -0.4800000227987766, 0.7520000357180834, 0.5280000250786543, 0.0, 0.0, 0.0, 0.0, 0.0, 1.648085130343017E9, 0.0, 2022-03-23 20:25:30.343
36.0, 7.678014609031379, 31.893866822123528, -16.687433602288365, 1.323924584314227, -0.4800000227987766, 0.7520000357180834, 0.5280000250786543, 0.0, 0.0, 0.0, 0.0, 0.0, 1.6480851303587854E9, 0.0, 2022-03-23 20:25:30.358
36.0, -9.581623686477542, 35.03164288494736, -5.748226231895387, -12.947533646598458, -0.4800000227987766, 0.7520000357180834, 0.5280000250786543, 0.0, 0.0, 0.0, 0.0, 0.0, 1.6480851303587854E9, 0.0, 2022-03-23 20:25:30.358
37.0, -3.178914962336421, 37.582254654727876, -7.64435550943017, -7.173128115013242, -0.4800000227987766, 0.7520000357180834, 0.5280000250786543, 0.0, 0.0, 0.0, 0.0, 0.0, 1.6480851303595095E9, 0.0, 2022-03-23 20:25:30.359
37.0, 9.390888788737357, 31.194505530409515, -18.94259327556938, -8.003385905176401, -0.4800000227987766, 0.7520000357180834, 0.5280000250786543, 0.0, 0.0, 0.0, 0.0, 0.0, 1.6480851303595095E9, 0.0, 2022-03-23 20:25:30.359
38.0, -12.86151594761759, 27.42468637507409, -24.275690612383187, -20.692866454832256, -0.4800000227987766, 0.7520000357180834, 0.5280000250786543, 0.0, 0.0, 0.0, 0.0, 0.0, 1.6480851303730035E9, 0.0, 2022-03-23 20:25:30.373
38.0, -26.347595187835395, 25.685632895678282, -32.98965750914067, -31.639553625136614, -0.4800000227987766, 0.7520000357180834, 0.5280000250786543, 0.0, 0.0, 0.0, 0.0, 0.0, 1.6480851303730035E9, 0.0, 2022-03-23 20:25:30.373
39.0, 5.381716036237776, 32.29777601733804, -31.284263129346073, -16.795890701003373, -0.4800000227987766, 0.7520000357180834, 0.5280000250786543, 0.0, 0.0, 0.0, 0.0, 0.0, 1.6480851303887403E9, 0.0, 2022-03-23 20:25:30.388
39.0, -12.969973046332598, 25.74921119492501, -23.501531321555376, -19.013651374727488, -0.4800000227987766, 0.7520000357180834, 0.5280000250786543, 0.0, 0.0, 0.0, 0.0, 0.0, 1.6480851303887403E9, 0.0, 2022-03-23 20:25:30.388
40.0, -23.075182726606727, 25.79782989434898, -20.11318196170032, -34.418299292214215, -0.4800000227987766, 0.7520000357180834, 0.5120000243186951, 0.0, 0.0, 0.0, 0.0, 0.0, 1.648085130389474E9, 0.0, 2022-03-23 20:25:30.389
40.0, -6.03619852848351, 22.820869529619813, -29.73220464773476, -23.168680225498974, -0.4800000227987766, 0.7520000357180834, 0.5120000243186951, 0.0, 0.0, 0.0, 0.0, 0.0, 1.648085130389474E9, 0.0, 2022-03-23 20:25:30.389
41.0, -6.623362821526825, 20.449772957712412, -30.670919536612928, -27.263870676979423, -0.4800000227987766, 0.7520000357180834, 0.5120000243186951, 0.0, 0.0, 0.0, 0.0, 0.0, 1.6480851304030416E9, 0.0, 2022-03-23 20:25:30.403
41.0, -13.459899940527976, 28.50551746226847, -22.289803735911846, -29.3843939518556, -0.4800000227987766, 0.7520000357180834, 0.5120000243186951, 0.0, 0.0, 0.0, 0.0, 0.0, 1.6480851304030416E9, 0.0, 2022-03-23 20:25:30.403
42.0, -10.116429380141199, 21.29499034769833, -31.77792992349714, -24.20463251322508, -0.49600002355873585, 0.7520000357180834, 0.5120000243186951, 0.0, 0.0, 0.0, 0.0, 0.0, 1.648085130418798E9, 0.0, 2022-03-23 20:25:30.418
42.0, 6.784178519621491, 25.853928393684328, -25.431319698691368, -9.476906487718225, -0.49600002355873585, 0.7520000357180834, 0.5120000243186951, 0.0, 0.0, 0.0, 0.0, 0.0, 1.648085130418798E9, 0.0, 2022-03-23 20:25:30.418
43.0, -2.4346748711541295, 34.54919579066336, -15.228872619569302, -8.986979593522847, -0.49600002355873585, 0.7520000357180834, 0.5120000243186951, 0.0, 0.0, 0.0, 0.0, 0.0, 1.648085130419448E9, 0.0, 2022-03-23 20:25:30.419
43.0, -17.177360496483743, 27.671519772149622, -23.78202381823212, -17.083862997591496, -0.49600002355873585, 0.7520000357180834, 0.5120000243186951, 0.0, 0.0, 0.0, 0.0, 0.0, 1.648085130419448E9, 0.0, 2022-03-23 20:25:30.419
44.0, 13.841369736008346, 18.318029982969165, -27.637860672548413, -10.83823007158935, -0.49600002355873585, 0.7520000357180834, 0.5120000243186951, 0.0, 0.0, 0.0, 0.0, 0.0, 1.648085130433052E9, 0.0, 2022-03-23 20:25:30.433
44.0, -3.0442785639315844, 26.489711386151612, -17.577529791742563, -9.102916492149234, -0.49600002355873585, 0.7520000357180834, 0.5120000243186951, 0.0, 0.0, 0.0, 0.0, 0.0, 1.648085130433052E9, 0.0, 2022-03-23 20:25:30.433
45.0, -16.51913810428232, 26.10824159067124, -16.57149670366198, -17.932820287533104, -0.49600002355873585, 0.7520000357180834, 0.5120000243186951, 0.0, 0.0, 0.0, 0.0, 0.0, 1.6480851304487534E9, 0.0, 2022-03-23 20:25:30.448
45.0, 0.7068410916253924, 19.473659069277346, -36.95769136212766, -17.218499395996332, -0.49600002355873585, 0.7520000357180834, 0.5120000243186951, 0.0, 0.0, 0.0, 0.0, 0.0, 1.6480851304487534E9, 0.0, 2022-03-23 20:25:30.448
46.0, 7.277845313772559, 27.33866867609322, -28.082908767275512, -19.137068073265254, -0.49600002355873585, 0.7520000357180834, 0.5120000243186951, 0.0, 0.0, 0.0, 0.0, 0.0, 1.648085130449443E9, 0.0, 2022-03-23 20:25:30.449
46.0, -12.435167352668941, 25.988564792089164, -16.279784507118165, -23.68478641938418, -0.49600002355873585, 0.7520000357180834, 0.5120000243186951, 0.0, 0.0, 0.0, 0.0, 0.0, 1.648085130449443E9, 0.0, 2022-03-23 20:25:30.449
47.0, -0.602123892866075, 28.864547858014703, -6.795398219488561, -10.022931881248951, -0.49600002355873585, 0.7520000357180834, 0.5120000243186951, 0.0, 0.0, 0.0, 0.0, 0.0, 1.648085130462994E9, 0.0, 2022-03-23 20:25:30.462
47.0, 9.843416683375835, 16.04791070986539, -24.286910312250257, -13.527218139730394, -0.49600002355873585, 0.7520000357180834, 0.5120000243186951, 0.0, 0.0, 0.0, 0.0, 0.0, 1.648085130462994E9, 0.0, 2022-03-23 20:25:30.462
48.0, -7.823870707303286, 20.98457865137607, -19.3053635712713, -17.001585198566318, -0.49600002355873585, 0.7520000357180834, 0.5120000243186951, 0.0, 0.0, 0.0, 0.0, 0.0, 1.6480851304787571E9, 0.0, 2022-03-23 20:25:30.478
48.0, -19.578376268036664, 13.897468235343695, -24.836675605736673, -22.630134631879628, -0.49600002355873585, 0.7520000357180834, 0.5120000243186951, 0.0, 0.0, 0.0, 0.0, 0.0, 1.6480851304787571E9, 0.0, 2022-03-23 20:25:30.478
49.0, 11.488972663879395, 14.780084624886513, -27.282570176757872, -13.175667543895543, -0.49600002355873585, 0.7520000357180834, 0.5120000243186951, 0.0, 0.0, 0.0, 0.0, 0.0, 1.648085130479493E9, 0.0, 2022-03-23 20:25:30.479
49.0, -10.785871472209692, 13.052250845357776, -30.771896835416555, -26.19425928965211, -0.49600002355873585, 0.7520000357180834, 0.5120000243186951, 0.0, 0.0, 0.0, 0.0, 0.0, 1.648085130479493E9, 0.0, 2022-03-23 20:25:30.479
50.0, -18.5648633800447, 13.983485934324563, -24.058776414953172, -32.424932615831494, -0.49600002355873585, 0.7520000357180834, 0.5440000258386135, 0.0, 0.0, 0.0, 0.0, 0.0, 1.6480851304930189E9, 0.0, 2022-03-23 20:25:30.493
50.0, 8.02956520486623, 20.49839165713638, -22.431919934228063, -11.399215064942837, -0.49600002355873585, 0.7520000357180834, 0.5440000258386135, 0.0, 0.0, 0.0, 0.0, 0.0, 1.6480851304930189E9, 0.0, 2022-03-23 20:25:30.493
51.0, 2.935821465216577, 13.964786434546113, -34.9792842855677, -14.88106192369014, -0.49600002355873585, 0.7520000357180834, 0.5440000258386135, 0.0, 0.0, 0.0, 0.0, 0.0, 1.648085130508748E9, 0.0, 2022-03-23 20:25:30.508
51.0, -17.32695649471134, 14.394874929450452, -30.072535543702543, -35.07652168441564, -0.49600002355873585, 0.7520000357180834, 0.5440000258386135, 0.0, 0.0, 0.0, 0.0, 0.0, 1.648085130508748E9, 0.0, 2022-03-23 20:25:30.508
52.0, -13.070950345136225, 14.817483624443412, -26.796383182518184, -25.32286259997636, -0.49600002355873585, 0.7520000357180834, 0.5440000258386135, 0.0, 0.0, 0.0, 0.0, 0.0, 1.6480851305095005E9, 0.0, 2022-03-23 20:25:30.509
52.0, 1.7988918786868453, 12.764278548769653, -29.79578294698149, -12.10605615656823, -0.49600002355873585, 0.7520000357180834, 0.5440000258386135, 0.0, 0.0, 0.0, 0.0, 0.0, 1.6480851305095005E9, 0.0, 2022-03-23 20:25:30.509
53.0, -22.775990730151534, 2.210280873812735, -44.041061878204346, -31.243124229833484, -0.49600002355873585, 0.7520000357180834, 0.5440000258386135, 0.0, 0.0, 0.0, 0.0, 0.0, 1.6480851305230231E9, 0.0, 2022-03-23 20:25:30.523
53.0, -33.39730660431087, -7.932327806018293, -55.735729039646685, -40.016929525882006, -0.49600002355873585, 0.7520000357180834, 0.5440000258386135, 0.0, 0.0, 0.0, 0.0, 0.0, 1.6480851305230231E9, 0.0, 2022-03-23 20:25:30.523
54.0, -0.5273258937522769, 1.525879181921482, -32.47355131525546, -22.293543635867536, -0.49600002355873585, 0.7520000357180834, 0.5440000258386135, 0.0, 0.0, 0.0, 0.0, 0.0, 1.6480851305386827E9, 0.0, 2022-03-23 20:25:30.538
54.0, -17.611188891343772, 0.4113889951258898, -24.60854170843959, -22.99664482753724, -0.49600002355873585, 0.7520000357180834, 0.5440000258386135, 0.0, 0.0, 0.0, 0.0, 0.0, 1.6480851305386827E9, 0.0, 2022-03-23 20:25:30.538
55.0, -30.5325432382524, -6.264332425780594, -14.424794129095972, -32.33517501689494, -0.49600002355873585, 0.7520000357180834, 0.5440000258386135, 0.0, 0.0, 0.0, 0.0, 0.0, 1.6480851305394688E9, 0.0, 2022-03-23 20:25:30.539
55.0, 0.28423239663243294, -12.824116948060691, -6.907595218159258, -17.932820287533104, -0.49600002355873585, 0.7520000357180834, 0.5440000258386135, 0.0, 0.0, 0.0, 0.0, 0.0, 1.6480851305394688E9, 0.0, 2022-03-23 20:25:30.539
56.0, -9.043078092858195, -20.670427055098116, -5.097483639605343, -23.221038824878633, -0.49600002355873585, 0.7520000357180834, 0.5440000258386135, 0.0, 0.0, 0.0, 0.0, 0.0, 1.6480851305530024E9, 0.0, 2022-03-23 20:25:30.553
56.0, -22.48801843356341, -27.35362827591598, -5.665948432870209, -33.07567520812154, -0.49600002355873585, 0.7520000357180834, 0.5440000258386135, 0.0, 0.0, 0.0, 0.0, 0.0, 1.6480851305530024E9, 0.0, 2022-03-23 20:25:30.553
57.0, -5.179761438630521, -17.813143488951027, 12.165894555859268, -11.530111563391984, -0.49600002355873585, 0.7520000357180834, 0.5440000258386135, 0.0, 0.0, 0.0, 0.0, 0.0, 1.6480851305687025E9, 0.0, 2022-03-23 20:25:30.568
57.0, 8.306317801587284, -17.095082697458565, 0.029919199645519257, -4.181208150461316, -0.49600002355873585, 0.7520000357180834, 0.5440000258386135, 0.0, 0.0, 0.0, 0.0, 0.0, 1.6480851305687025E9, 0.0, 2022-03-23 20:25:30.568
58.0, -9.824717183597386, -15.68514041416347, 3.788518655113876, -16.582716403529048, -0.49600002355873585, 0.7520000357180834, 0.5440000258386135, 0.0, 0.0, 0.0, 0.0, 0.0, 1.6480851305694451E9, 0.0, 2022-03-23 20:25:30.569
58.0, -24.99749130383134, -15.610342415049672, -4.981546740978956, -22.349642135202885, -0.49600002355873585, 0.7520000357180834, 0.5440000258386135, 0.0, 0.0, 0.0, 0.0, 0.0, 1.6480851305694451E9, 0.0, 2022-03-23 20:25:30.569
59.0, -0.7143208915367723, -19.133328173309565, -8.541931498795748, -10.819530571810901, -0.49600002355873585, 0.7520000357180834, 0.5440000258386135, 0.0, 0.0, 0.0, 0.0, 0.0, 1.648085130599365E9, 0.0, 2022-03-23 20:25:30.599
59.0, -15.068056921474636, -14.656667926348746, -7.9098884062841535, -19.226825672201812, -0.49600002355873585, 0.7520000357180834, 0.5440000258386135, 0.0, 0.0, 0.0, 0.0, 0.0, 1.648085130599365E9, 0.0, 2022-03-23 20:25:30.599
60.0, -25.494897997938097, -14.596829527057707, -8.657868397422135, -22.59647553227842, -0.49600002355873585, 0.7520000357180834, 0.5280000250786543, 0.0, 0.0, 0.0, 0.0, 0.0, 1.6480851306001625E9, 0.0, 2022-03-23 20:25:30.600
60.0, -7.674274709075689, -20.389934558421373, -11.462793364189565, -13.216806443408132, -0.49600002355873585, 0.7520000357180834, 0.5280000250786543, 0.0, 0.0, 0.0, 0.0, 0.0, 1.6480851306001625E9, 0.0, 2022-03-23 20:25:30.600
61.0, -3.6426625568419695, -14.121862232685089, -7.408741812221706, -9.147795291617513, -0.49600002355873585, 0.7520000357180834, 0.5280000250786543, 0.0, 0.0, 0.0, 0.0, 0.0, 1.6480851306010566E9, 0.0, 2022-03-23 20:25:30.601
61.0, -23.437953022308648, -9.607802986167371, 4.386902648024261, -23.658607119694352, -0.49600002355873585, 0.7520000357180834, 0.5280000250786543, 0.0, 0.0, 0.0, 0.0, 0.0, 1.6480851306010566E9, 0.0, 2022-03-23 20:25:30.601
62.0, -9.839676783420146, -8.41851480025798, 17.125001897104084, -6.346610224805772, -0.4640000220388174, 0.7520000357180834, 0.5280000250786543, 0.0, 0.0, 0.0, 0.0, 0.0, 1.6480851306130433E9, 0.0, 2022-03-23 20:25:30.613
62.0, 9.955613682046533, -6.062377828173339, 5.924001529812813, -7.924848006106913, -0.4640000220388174, 0.7520000357180834, 0.5280000250786543, 0.0, 0.0, 0.0, 0.0, 0.0, 1.6480851306130433E9, 0.0, 2022-03-23 20:25:30.613
63.0, -7.408741812221706, -3.855836854316294, 12.999892245978117, -6.731819920241833, -0.4640000220388174, 0.7520000357180834, 0.5280000250786543, 0.0, 0.0, 0.0, 0.0, 0.0, 1.648085130628714E9, 0.0, 2022-03-23 20:25:30.628
63.0, -6.384009224362671, 0.7405001912266016, 17.6373681910336, -5.546271634288132, -0.4640000220388174, 0.7520000357180834, 0.5280000250786543, 0.0, 0.0, 0.0, 0.0, 0.0, 1.648085130628714E9, 0.0, 2022-03-23 20:25:30.628
64.0, 23.879261217080057, -1.970927276648581, 22.315983035601676, 12.326710253953934, -0.4640000220388174, 0.7520000357180834, 0.5280000250786543, 0.0, 0.0, 0.0, 0.0, 0.0, 1.648085130629438E9, 0.0, 2022-03-23 20:25:30.629
64.0, -8.500792599283159, -4.626256245188415, 3.9680338529869914, -10.325863777659833, -0.4640000220388174, 0.7520000357180834, 0.5280000250786543, 0.0, 0.0, 0.0, 0.0, 0.0, 1.648085130629438E9, 0.0, 2022-03-23 20:25:30.629
65.0, -22.641354331746697, -11.114982668310404, 2.580530969426036, -12.337929953821003, -0.4640000220388174, 0.7520000357180834, 0.5280000250786543, 0.0, 0.0, 0.0, 0.0, 0.0, 1.6480851306430423E9, 0.0, 2022-03-23 20:25:30.643
65.0, 6.4588072234764695, -7.977206605486572, 4.256006149575114, -2.8797229658812284, -0.4640000220388174, 0.7520000357180834, 0.5280000250786543, 0.0, 0.0, 0.0, 0.0, 0.0, 1.6480851306430423E9, 0.0, 2022-03-23 20:25:30.643
66.0, 3.2724124612286687, -4.237306649796665, 9.910734882578254, 5.097483639605343, -0.4640000220388174, 0.7520000357180834, 0.5280000250786543, 0.0, 0.0, 0.0, 0.0, 0.0, 1.6480851306586926E9, 0.0, 2022-03-23 20:25:30.658
66.0, -20.244078460149467, -9.155275091528893, -1.484740282408893, -12.640861850231886, -0.4640000220388174, 0.7520000357180834, 0.5280000250786543, 0.0, 0.0, 0.0, 0.0, 0.0, 1.6480851306586926E9, 0.0, 2022-03-23 20:25:30.658
67.0, -15.195213519968092, -11.926540958695114, -2.1579222744330764, -20.763924553990364, -0.4640000220388174, 0.7520000357180834, 0.5280000250786543, 0.0, 0.0, 0.0, 0.0, 0.0, 1.648085130659433E9, 0.0, 2022-03-23 20:25:30.659
67.0, 4.772112343460321, -11.855482859537005, 8.175421303138137, -4.962847241200507, -0.4640000220388174, 0.7520000357180834, 0.5280000250786543, 0.0, 0.0, 0.0, 0.0, 0.0, 1.648085130659433E9, 0.0, 2022-03-23 20:25:30.659
68.0, -10.935467470437288, -12.169634455814958, 13.957306634634733, -11.66100806184113, -0.4640000220388174, 0.7520000357180834, 0.5280000250786543, 0.0, 0.0, 0.0, 0.0, 0.0, 1.6480851306731503E9, 0.0, 2022-03-23 20:25:30.673
68.0, -16.997845298610628, -11.040184669196606, 11.24213926680386, -18.198353184387088, -0.4640000220388174, 0.7520000357180834, 0.5280000250786543, 0.0, 0.0, 0.0, 0.0, 0.0, 1.6480851306731503E9, 0.0, 2022-03-23 20:25:30.673
69.0, 11.64230856206268, -13.602016138844192, -3.096637163311243, 2.0793843753635883, -0.4640000220388174, 0.7520000357180834, 0.5280000250786543, 0.0, 0.0, 0.0, 0.0, 0.0, 1.6480851306886735E9, 0.0, 2022-03-23 20:25:30.688
69.0, -0.7891188906505704, -7.0235321167856455, 9.046817992813885, -2.7189072677865624, -0.4640000220388174, 0.7520000357180834, 0.5280000250786543, 0.0, 0.0, 0.0, 0.0, 0.0, 1.6480851306886735E9, 0.0, 2022-03-23 20:25:30.688
70.0, -11.556290863081813, -5.834243930876255, 14.320076930336654, -14.308857230469584, -0.4640000220388174, 0.7520000357180834, 0.5280000250786543, 0.0, 0.0, 0.0, 0.0, 0.0, 1.6480851306894455E9, 0.0, 2022-03-23 20:25:30.689
70.0, 8.242739502340555, -1.2790457848459482, 14.690327025949955, -3.7249403558671474, -0.4640000220388174, 0.7520000357180834, 0.5280000250786543, 0.0, 0.0, 0.0, 0.0, 0.0, 1.6480851306894455E9, 0.0, 2022-03-23 20:25:30.689
71.0, 4.977806841023266, 5.190981138497591, 11.111242768354714, 1.970927276648581, -0.4640000220388174, 0.7840000372380018, 0.5280000250786543, 0.0, 0.0, 0.0, 0.0, 0.0, 1.6480851307030137E9, 0.0, 2022-03-23 20:25:30.703
71.0, -18.321769882924855, 2.6815082682296634, 9.64520198572427, -16.709873002022505, -0.4640000220388174, 0.7840000372380018, 0.5280000250786543, 0.0, 0.0, 0.0, 0.0, 0.0, 1.6480851307030137E9, 0.0, 2022-03-23 20:25:30.703
72.0, -17.035244298167527, -6.948734117671847, -0.11593689862638712, -14.308857230469584, -0.4800000227987766, 0.7840000372380018, 0.5280000250786543, 0.0, 0.0, 0.0, 0.0, 0.0, 1.6480851307188098E9, 0.0, 2022-03-23 20:25:30.718
72.0, 4.0839707516133785, -19.799030365422368, -3.896975753828883, -7.012312416918576, -0.4800000227987766, 0.7840000372380018, 0.5280000250786543, 0.0, 0.0, 0.0, 0.0, 0.0, 1.6480851307188098E9, 0.0, 2022-03-23 20:25:30.718
73.0, -18.13103498518467, -9.069257392548025, 2.984440164640546, -15.999292010441422, -0.4800000227987766, 0.7840000372380018, 0.5280000250786543, 0.0, 0.0, 0.0, 0.0, 0.0, 1.648085130719502E9, 0.0, 2022-03-23 20:25:30.719
73.0, -21.530604044906795, -4.01291265245527, 2.969480564817786, -26.291496688500047, -0.4800000227987766, 0.7840000372380018, 0.5280000250786543, 0.0, 0.0, 0.0, 0.0, 0.0, 1.648085130719502E9, 0.0, 2022-03-23 20:25:30.719
74.0, 3.6426625568419695, -6.85897651873529, 0.8190380902960896, -2.857283566147089, -0.4800000227987766, 0.7840000372380018, 0.5280000250786543, 0.0, 0.0, 0.0, 0.0, 0.0, 1.6480851307331178E9, 0.0, 2022-03-23 20:25:30.733
74.0, -10.337083477526903, 2.300038472749293, 4.753412843681872, -6.354090024717152, -0.4800000227987766, 0.7840000372380018, 0.5280000250786543, 0.0, 0.0, 0.0, 0.0, 0.0, 1.6480851307331178E9, 0.0, 2022-03-23 20:25:30.733
75.0, -30.001477444544435, -7.419961512088776, -6.675721420906484, -23.269657524302602, -0.4800000227987766, 0.7840000372380018, 0.5280000250786543, 0.0, 0.0, 0.0, 0.0, 0.0, 1.648085130765094E9, 0.0, 2022-03-23 20:25:30.765
75.0, -7.468580211512744, -5.422854935750365, -5.381716036237776, -9.372189288958907, -0.4800000227987766, 0.7840000372380018, 0.5280000250786543, 0.0, 0.0, 0.0, 0.0, 0.0, 1.648085130765094E9, 0.0, 2022-03-23 20:25:30.765
76.0, -14.450973428785801, -13.942347034811974, -24.88155440520495, -22.450619434006512, -0.4800000227987766, 0.7840000372380018, 0.5280000250786543, 0.0, 0.0, 0.0, 0.0, 0.0, 1.6480851307658696E9, 0.0, 2022-03-23 20:25:30.765
76.0, -35.44303188007325, -11.406694864854217, -28.61771446093917, -32.372574016451836, -0.4800000227987766, 0.7840000372380018, 0.5280000250786543, 0.0, 0.0, 0.0, 0.0, 0.0, 1.6480851307658696E9, 0.0, 2022-03-23 20:25:30.765
77.0, -25.528557097539306, -9.28991148993373, -10.004232381470501, -25.038630203343928, -0.4800000227987766, 0.7840000372380018, 0.5280000250786543, 0.0, 0.0, 0.0, 0.0, 0.0, 1.6480851307665598E9, 0.0, 2022-03-23 20:25:30.766
77.0, -7.150688715279102, -17.801923789083958, 0.5535051934421062, -12.165894555859268, -0.4800000227987766, 0.7840000372380018, 0.5280000250786543, 0.0, 0.0, 0.0, 0.0, 0.0, 1.6480851307665598E9, 0.0, 2022-03-23 20:25:30.766
78.0, -35.83572137542069, -20.94717965181917, -5.164801838807762, -26.422393186949193, -0.4800000227987766, 0.7840000372380018, 0.5280000250786543, 0.0, 0.0, 0.0, 0.0, 0.0, 1.648085130767311E9, 0.0, 2022-03-23 20:25:30.767
78.0, -19.840169264934957, -10.333343577571213, 15.644001514650881, -21.586702544242144, -0.4800000227987766, 0.7840000372380018, 0.5280000250786543, 0.0, 0.0, 0.0, 0.0, 0.0, 1.648085130767311E9, 0.0, 2022-03-23 20:25:30.767
79.0, 7.105809915810823, -10.531558275222778, 17.985178886912763, -7.154428615234792, -0.4800000227987766, 0.7840000372380018, 0.5280000250786543, 0.0, 0.0, 0.0, 0.0, 0.0, 1.6480851307781787E9, 0.0, 2022-03-23 20:25:30.778
79.0, -12.203293555416167, -17.027764498256147, 15.69636011403054, -27.252650977112353, -0.4800000227987766, 0.7840000372380018, 0.5280000250786543, 0.0, 0.0, 0.0, 0.0, 0.0, 1.6480851307781787E9, 0.0, 2022-03-23 20:25:30.778
80.0, -22.334682535380125, -11.975159658119082, 10.83449017163366, -17.869241988286376, -0.4800000227987766, 0.7840000372380018, 0.5280000250786543, 0.0, 0.0, 0.0, 0.0, 0.0, 1.648085130793008E9, 0.0, 2022-03-23 20:25:30.793
80.0, 3.8520969543606043, -2.651589068584144, 26.4934512861073, 2.3224778724834323, -0.4800000227987766, 0.7840000372380018, 0.5280000250786543, 0.0, 0.0, 0.0, 0.0, 0.0, 1.648085130793008E9, 0.0, 2022-03-23 20:25:30.793
81.0, -1.3800230836495757, -4.581377445720136, 24.95261250436306, -1.727833779528737, -0.4800000227987766, 0.7520000357180834, 0.5280000250786543, 0.0, 0.0, 0.0, 0.0, 0.0, 1.6480851308088093E9, 0.0, 2022-03-23 20:25:30.808
81.0, -24.08121581468731, -7.764032308012247, 17.977699087001383, -14.49211232829839, -0.4800000227987766, 0.7520000357180834, 0.5280000250786543, 0.0, 0.0, 0.0, 0.0, 0.0, 1.6480851308088093E9, 0.0, 2022-03-23 20:25:30.808
82.0, -17.442893393337727, -6.511165822856128, 11.331896865740418, -19.032350874505937, -0.5120000243186951, 0.7520000357180834, 0.5280000250786543, 0.0, 0.0, 0.0, 0.0, 0.0, 1.648085130809572E9, 0.0, 2022-03-23 20:25:30.809
82.0, -11.735806060954928, -17.457852993160486, 2.217760673724115, -19.189426672644913, -0.5120000243186951, 0.7520000357180834, 0.5280000250786543, 0.0, 0.0, 0.0, 0.0, 0.0, 1.648085130809572E9, 0.0, 2022-03-23 20:25:30.809
83.0, -28.10534816700965, -21.212712548673153, 4.558938045985997, -22.11776833795011, -0.5120000243186951, 0.7520000357180834, 0.5280000250786543, 0.0, 0.0, 0.0, 0.0, 0.0, 1.6480851308230891E9, 0.0, 2022-03-23 20:25:30.823
83.0, -27.02825697977096, -14.271458230912685, 12.536144651472569, -25.76043089479208, -0.5120000243186951, 0.7520000357180834, 0.5280000250786543, 0.0, 0.0, 0.0, 0.0, 0.0, 1.6480851308230891E9, 0.0, 2022-03-23 20:25:30.823
84.0, 3.1938745621591806, -10.606356274336576, 20.670427055098116, -11.29075796622783, -0.5120000243186951, 0.7520000357180834, 0.5280000250786543, 0.0, 0.0, 0.0, 0.0, 0.0, 1.6480851308388257E9, 0.0, 2022-03-23 20:25:30.838
84.0, -17.65232779085636, -11.533851463347673, 9.23755289055407, -15.872135411947966, -0.5120000243186951, 0.7520000357180834, 0.5280000250786543, 0.0, 0.0, 0.0, 0.0, 0.0, 1.6480851308388257E9, 0.0, 2022-03-23 20:25:30.838
85.0, -33.659099601209164, -18.736898778006434, 6.290511725470424, -27.129234278574586, -0.5120000243186951, 0.7520000357180834, 0.5280000250786543, 0.0, 0.0, 0.0, 0.0, 0.0, 1.6480851308394663E9, 0.0, 2022-03-23 20:25:30.839
85.0, -7.610696409828961, -20.85742205288261, -2.2775990730151534, -20.820023053325713, -0.5120000243186951, 0.7520000357180834, 0.5280000250786543, 0.0, 0.0, 0.0, 0.0, 0.0, 1.6480851308394663E9, 0.0, 2022-03-23 20:25:30.839
86.0, -10.07529048062861, -19.122108473442495, -0.3029318964108825, -23.28461712412536, -0.5120000243186951, 0.7520000357180834, 0.5280000250786543, 0.0, 0.0, 0.0, 0.0, 0.0, 1.6480851308531046E9, 0.0, 2022-03-23 20:25:30.853
86.0, -25.573435897007585, -17.091342797502875, -2.2289803735911846, -18.5274643804878, -0.5120000243186951, 0.7520000357180834, 0.5280000250786543, 0.0, 0.0, 0.0, 0.0, 0.0, 1.6480851308531046E9, 0.0, 2022-03-23 20:25:30.853
87.0, -19.137068073265254, -16.88564829993993, 1.529619081877172, -27.29752977658063, -0.5120000243186951, 0.7520000357180834, 0.5280000250786543, 0.0, 0.0, 0.0, 0.0, 0.0, 1.648085130868765E9, 0.0, 2022-03-23 20:25:30.868
87.0, -11.197260467335582, -16.02921121008694, -6.963693717494607, -22.12898803781718, -0.5120000243186951, 0.7520000357180834, 0.5280000250786543, 0.0, 0.0, 0.0, 0.0, 0.0, 1.648085130868765E9, 0.0, 2022-03-23 20:25:30.868
88.0, -23.224778724834323, -15.498145416378975, -5.2246402380988, -27.79867637064308, -0.5120000243186951, 0.7520000357180834, 0.5280000250786543, 0.0, 0.0, 0.0, 0.0, 0.0, 1.6480851308694623E9, 0.0, 2022-03-23 20:25:30.869
88.0, -34.52301649097353, -27.955752168782055, -6.3391304248943925, -31.130927231162786, -0.5120000243186951, 0.7520000357180834, 0.5280000250786543, 0.0, 0.0, 0.0, 0.0, 0.0, 1.6480851308694623E9, 0.0, 2022-03-23 20:25:30.869
89.0, -4.985286640934646, -29.051542855799198, -4.794551743194461, -15.572943415492773, -0.5120000243186951, 0.7520000357180834, 0.5280000250786543, 0.0, 0.0, 0.0, 0.0, 0.0, 1.6480851308830655E9, 0.0, 2022-03-23 20:25:30.883
89.0, -17.35313579440117, -22.615175032056868, -4.2073874501511455, -20.90604075230658, -0.5120000243186951, 0.7520000357180834, 0.5280000250786543, 0.0, 0.0, 0.0, 0.0, 0.0, 1.6480851308830655E9, 0.0, 2022-03-23 20:25:30.883
90.0, -27.82485567033291, -18.332989582791924, -3.8072181548923254, -19.421300469897687, -0.5120000243186951, 0.7520000357180834, 0.5440000258386135, 0.0, 0.0, 0.0, 0.0, 0.0, 1.6480851308987308E9, 0.0, 2022-03-23 20:25:30.898
90.0, -4.274705649353564, -12.768018448725343, 7.453620611689985, -9.518045387230814, -0.5120000243186951, 0.7520000357180834, 0.5440000258386135, 0.0, 0.0, 0.0, 0.0, 0.0, 1.6480851308987308E9, 0.0, 2022-03-23 20:25:30.898
91.0, -4.555198146030307, -9.28243169002235, 8.620469397865236, -8.351196601055562, -0.5120000243186951, 0.7040000334382057, 0.5440000258386135, 0.0, 0.0, 0.0, 0.0, 0.0, 1.6480851308994632E9, 0.0, 2022-03-23 20:25:30.899
91.0, -25.603355096653104, -7.3040246134623885, 10.108949580229819, -27.226471677422523, -0.5120000243186951, 0.7040000334382057, 0.5440000258386135, 0.0, 0.0, 0.0, 0.0, 0.0, 1.6480851308994632E9, 0.0, 2022-03-23 20:25:30.899
92.0, -22.349642135202885, -7.191827614791691, 3.466887258924544, -22.92558672837913, -0.5120000243186951, 0.7040000334382057, 0.5440000258386135, 0.0, 0.0, 0.0, 0.0, 0.0, 1.6480851309131136E9, 0.0, 2022-03-23 20:25:30.913
92.0, -11.844263159669936, -13.392581741325557, -17.74582528974861, -29.39561365172267, -0.5120000243186951, 0.7040000334382057, 0.5440000258386135, 0.0, 0.0, 0.0, 0.0, 0.0, 1.6480851309131136E9, 0.0, 2022-03-23 20:25:30.913
93.0, -21.186533248983324, -7.995906105265021, -3.6875413563102484, -26.250357788987458, -0.5120000243186951, 0.7040000334382057, 0.5440000258386135, 0.0, 0.0, 0.0, 0.0, 0.0, 1.6480851309287171E9, 0.0, 2022-03-23 20:25:30.928
93.0, -18.433966881595552, 0.6320430925115943, -2.0419853758066893, -22.06914963852614, -0.5120000243186951, 0.7040000334382057, 0.5440000258386135, 0.0, 0.0, 0.0, 0.0, 0.0, 1.6480851309287171E9, 0.0, 2022-03-23 20:25:30.928
94.0, -0.7591996910050511, -7.573297410272062, -1.694174679927528, -18.04875718615949, -0.5120000243186951, 0.7040000334382057, 0.5440000258386135, 0.0, 0.0, 0.0, 0.0, 0.0, 1.6480851309294484E9, 0.0, 2022-03-23 20:25:30.929
94.0, -11.28701806627214, -9.63024238590151, 4.057791451923549, -18.96503267530352, -0.5120000243186951, 0.7040000334382057, 0.5440000258386135, 0.0, 0.0, 0.0, 0.0, 0.0, 1.6480851309294484E9, 0.0, 2022-03-23 20:25:30.929
95.0, -14.660407826304436, -5.056344740092754, -1.9484878769144416, -18.9725124752149, -0.5120000243186951, 0.7040000334382057, 0.5440000258386135, 0.0, 0.0, 0.0, 0.0, 0.0, 1.6480851309430397E9, 0.0, 2022-03-23 20:25:30.943
95.0, 1.2341669853776693, -5.882862630300224, -1.8437706781551242, -10.06407078076154, -0.5120000243186951, 0.7040000334382057, 0.5440000258386135, 0.0, 0.0, 0.0, 0.0, 0.0, 1.6480851309430397E9, 0.0, 2022-03-23 20:25:30.943
96.0, -12.640861850231886, -9.054297792725265, -13.66185453813523, -14.263978431001306, -0.5120000243186951, 0.7040000334382057, 0.5440000258386135, 0.0, 0.0, 0.0, 0.0, 0.0, 1.6480851309587424E9, 0.0, 2022-03-23 20:25:30.958
96.0, -21.081816050224006, -2.1167833749204874, -6.002539428882301, -18.437706781551242, -0.5120000243186951, 0.7040000334382057, 0.5440000258386135, 0.0, 0.0, 0.0, 0.0, 0.0, 1.6480851309587424E9, 0.0, 2022-03-23 20:25:30.958
97.0, -11.743285860866308, -5.931481329724193, -1.4174220832064748, -17.36809539422393, -0.5120000243186951, 0.7040000334382057, 0.5440000258386135, 0.0, 0.0, 0.0, 0.0, 0.0, 1.6480851309594812E9, 0.0, 2022-03-23 20:25:30.959
97.0, 4.136329350993037, -7.715413608588278, -5.669688332825899, -14.555690627545118, -0.5120000243186951, 0.7040000334382057, 0.5440000258386135, 0.0, 0.0, 0.0, 0.0, 0.0, 1.6480851309594812E9, 0.0, 2022-03-23 20:25:30.959
98.0, -11.960200058296323, -2.659068868495524, 2.329957672394812, -21.455806045792997, -0.5120000243186951, 0.7040000334382057, 0.5440000258386135, 0.0, 0.0, 0.0, 0.0, 0.0, 1.6480851309731135E9, 0.0, 2022-03-23 20:25:30.973
98.0, -11.29075796622783, 7.206787214614451, 16.04043090995401, -10.385702176950872, -0.5120000243186951, 0.7040000334382057, 0.5440000258386135, 0.0, 0.0, 0.0, 0.0, 0.0, 1.6480851309731135E9, 0.0, 2022-03-23 20:25:30.973
99.0, 7.390042312443256, 3.1976144621148705, 7.150688715279102, -7.513459010981023, -0.5120000243186951, 0.7040000334382057, 0.5440000258386135, 0.0, 0.0, 0.0, 0.0, 0.0, 1.6480851309887338E9, 0.0, 2022-03-23 20:25:30.988
99.0, -3.2836321610957384, -0.0523585993796587, 4.663655244745314, -7.782731807790697, -0.5120000243186951, 0.7040000334382057, 0.5440000258386135, 0.0, 0.0, 0.0, 0.0, 0.0, 1.6480851309887338E9, 0.0, 2022-03-23 20:25:30.988
100.0, -17.977699087001383, -2.9956598645076156, 2.1841015741229057, -9.413328188471496, -0.5120000243186951, 0.7040000334382057, 0.576000027358532, 0.0, 0.0, 0.0, 0.0, 0.0, 1.648085130989574E9, 0.0, 2022-03-23 20:25:30.989
100.0, -0.16829549800604582, 1.3164447844028473, -5.864163130521774, -9.959353582002223, -0.5120000243186951, 0.7040000334382057, 0.576000027358532, 0.0, 0.0, 0.0, 0.0, 0.0, 1.648085130989574E9, 0.0, 2022-03-23 20:25:30.989
0.0, 730.9054778902791, 304.360538193956, 1482.1260923398659, 716.9911801051348, -0.5120000243186951, 0.7040000334382057, 0.576000027358532, 0.0, 0.0, 0.0, 0.0, 0.0, 1.6480851310037444E9, 0.0, 2022-03-23 20:25:31.003
1.0, 722.6776979877613, 313.53825268521905, 1501.9139030054212, 718.0159126929939, -0.5120000243186951, 0.6560000311583281, 0.576000027358532, 0.0, 0.0, 0.0, 0.0, 0.0, 1.6480851310044572E9, 0.0, 2022-03-23 20:25:31.004
1.0, 738.8078864966519, 323.57614416629076, 1504.4345955755562, 724.9347276110202, -0.5120000243186951, 0.6560000311583281, 0.576000027358532, 0.0, 0.0, 0.0, 0.0, 0.0, 1.6480851310044572E9, 0.0, 2022-03-23 20:25:31.004
2.0, 752.761453231331, 316.28707915265113, 1494.112471697852, 731.7263859305531, -0.5120000243186951, 0.6560000311583281, 0.576000027358532, 0.0, 0.0, 0.0, 0.0, 0.0, 1.6480851310180013E9, 0.0, 2022-03-23 20:25:31.018
2.0, 731.8142735795118, 315.8195916581899, 1492.7287087142467, 722.6870477376506, -0.5120000243186951, 0.6560000311583281, 0.576000027358532, 0.0, 0.0, 0.0, 0.0, 0.0, 1.6480851310180013E9, 0.0, 2022-03-23 20:25:31.018
3.0, 728.1342120231129, 318.2729660291225, 1496.9884547637776, 715.9776672171429, -0.5120000243186951, 0.6560000311583281, 0.576000027358532, 0.0, 0.0, 0.0, 0.0, 0.0, 1.6480851310336373E9, 0.0, 2022-03-23 20:25:31.033
3.0, 748.4044697829522, 315.38950316328555, 1484.7926410082728, 718.0495717925951, -0.5120000243186951, 0.6560000311583281, 0.576000027358532, 0.0, 0.0, 0.0, 0.0, 0.0, 1.6480851310336373E9, 0.0, 2022-03-23 20:25:31.033
4.0, 730.3744120965712, 312.34896449930966, 1492.5417137164623, 711.1232770746574, -0.5120000243186951, 0.6560000311583281, 0.576000027358532, 0.0, 0.0, 0.0, 0.0, 0.0, 1.6480851310343742E9, 0.0, 2022-03-23 20:25:31.034
4.0, 716.1403528652154, 315.7447936590761, 1508.3353112293407, 700.8834309959784, -0.5120000243186951, 0.6560000311583281, 0.576000027358532, 0.0, 0.0, 0.0, 0.0, 0.0, 1.6480851310343742E9, 0.0, 2022-03-23 20:25:31.034
5.0, 729.6713109049015, 317.94011493306607, 1508.4250688282773, 704.3839773545042, -0.5120000243186951, 0.6560000311583281, 0.576000027358532, 0.0, 0.0, 0.0, 0.0, 0.0, 1.648085131048006E9, 0.0, 2022-03-23 20:25:31.048
5.0, 726.4475171430968, 317.1173369428143, 1502.8526178942993, 719.6652085734531, -0.5120000243186951, 0.6560000311583281, 0.576000027358532, 0.0, 0.0, 0.0, 0.0, 0.0, 1.648085131048006E9, 0.0, 2022-03-23 20:25:31.048
6.0, 713.3915263977833, 321.60895678959787, 1516.3947956338525, 732.9904721155763, -0.5120000243186951, 0.6560000311583281, 0.576000027358532, 0.0, 0.0, 0.0, 0.0, 0.0, 1.648085131063694E9, 0.0, 2022-03-23 20:25:31.063
6.0, 734.5705798468553, 334.88186173234135, 1525.2620984287933, 747.3030692460015, -0.5120000243186951, 0.6560000311583281, 0.576000027358532, 0.0, 0.0, 0.0, 0.0, 0.0, 1.648085131063694E9, 0.0, 2022-03-23 20:25:31.063
7.0, 757.1595755792223, 336.8677486088127, 1516.3499168343842, 754.7529499577358, -0.5120000243186951, 0.6560000311583281, 0.576000027358532, 0.0, 0.0, 0.0, 0.0, 0.0, 1.6480851310644448E9, 0.0, 2022-03-23 20:25:31.064
7.0, 744.5037541291676, 336.1235085176304, 1504.4308556756005, 749.5918880188838, -0.5120000243186951, 0.6560000311583281, 0.576000027358532, 0.0, 0.0, 0.0, 0.0, 0.0, 1.6480851310644448E9, 0.0, 2022-03-23 20:25:31.064
8.0, 741.7998064612038, 323.80801796354353, 1506.0390126565471, 749.9546583145857, -0.5120000243186951, 0.6560000311583281, 0.576000027358532, 0.0, 0.0, 0.0, 0.0, 0.0, 1.6480851310780673E9, 0.0, 2022-03-23 20:25:31.078
8.0, 775.1223150664009, 325.53959164302796, 1507.2170811425894, 773.0036617415026, -0.5120000243186951, 0.6560000311583281, 0.576000027358532, 0.0, 0.0, 0.0, 0.0, 0.0, 1.6480851310780673E9, 0.0, 2022-03-23 20:25:31.078
9.0, 757.7018610727973, 319.02842582017183, 1509.2104478189722, 768.2652084976435, -0.5120000243186951, 0.6560000311583281, 0.576000027358532, 0.0, 0.0, 0.0, 0.0, 0.0, 1.6480851310936804E9, 0.0, 2022-03-23 20:25:31.093
9.0, 725.3891254556365, 319.09200411941856, 1482.028854941018, 732.3359896233305, -0.5120000243186951, 0.6560000311583281, 0.576000027358532, 0.0, 0.0, 0.0, 0.0, 0.0, 1.6480851310936804E9, 0.0, 2022-03-23 20:25:31.093
10.0, 732.2144428747706, 312.7715731943026, 1471.897465961054, 725.2301797075197, -0.5120000243186951, 0.6560000311583281, 0.5600000265985727, 0.0, 0.0, 0.0, 0.0, 0.0, 1.648085131094482E9, 0.0, 2022-03-23 20:25:31.094
10.0, 722.344846891705, 312.4499417981133, 1466.8112020213157, 716.3553971126676, -0.5120000243186951, 0.6560000311583281, 0.5600000265985727, 0.0, 0.0, 0.0, 0.0, 0.0, 1.648085131094482E9, 0.0, 2022-03-23 20:25:31.094
11.0, 715.915958867874, 319.94844120927155, 1471.437458266504, 720.3159511657432, -0.5120000243186951, 0.8160000387579203, 0.5600000265985727, 0.0, 0.0, 0.0, 0.0, 0.0, 1.6480851311080265E9, 0.0, 2022-03-23 20:25:31.108
11.0, 729.4656164073385, 317.7082411358133, 1474.6612520283088, 730.256605247967, -0.5120000243186951, 0.8160000387579203, 0.5600000265985727, 0.0, 0.0, 0.0, 0.0, 0.0, 1.6480851311080265E9, 0.0, 2022-03-23 20:25:31.108
12.0, 741.5193139645271, 320.2177140060812, 1472.1816983576864, 725.3049777066335, -0.5280000250786543, 0.8160000387579203, 0.5600000265985727, 0.0, 0.0, 0.0, 0.0, 0.0, 1.648085131123685E9, 0.0, 2022-03-23 20:25:31.123
12.0, 722.6066398886032, 309.8581911288202, 1471.1307864701375, 728.2968976711854, -0.5280000250786543, 0.8160000387579203, 0.5600000265985727, 0.0, 0.0, 0.0, 0.0, 0.0, 1.648085131123685E9, 0.0, 2022-03-23 20:25:31.123
13.0, 715.7551431697793, 300.93478983454406, 1470.9063924727961, 727.5077787805349, -0.5280000250786543, 0.8160000387579203, 0.5600000265985727, 0.0, 0.0, 0.0, 0.0, 0.0, 1.6480851311244042E9, 0.0, 2022-03-23 20:25:31.124
13.0, 746.8524113013409, 306.5222003683448, 1471.5197360655293, 748.2417841348797, -0.5280000250786543, 0.8160000387579203, 0.5600000265985727, 0.0, 0.0, 0.0, 0.0, 0.0, 1.6480851311244042E9, 0.0, 2022-03-23 20:25:31.124
14.0, 727.0085021364503, 308.4893877450377, 1469.7058845870197, 735.466285886243, -0.5280000250786543, 0.8160000387579203, 0.5600000265985727, 0.0, 0.0, 0.0, 0.0, 0.0, 1.6480851311545203E9, 0.0, 2022-03-23 20:25:31.154
14.0, 715.6691254707985, 303.57515920326114, 1462.7534105693921, 730.3987214462832, -0.5280000250786543, 0.8160000387579203, 0.5600000265985727, 0.0, 0.0, 0.0, 0.0, 0.0, 1.6480851311545203E9, 0.0, 2022-03-23 20:25:31.154
15.0, 734.8772516432218, 301.42845662869513, 1451.0250843083486, 733.5738965086639, -0.5280000250786543, 0.8160000387579203, 0.5600000265985727, 0.0, 0.0, 0.0, 0.0, 0.0, 1.6480851311552203E9, 0.0, 2022-03-23 20:25:31.155
15.0, 723.261122380849, 293.75792181957513, 1444.5849765846506, 722.3018380422145, -0.5280000250786543, 0.8160000387579203, 0.5600000265985727, 0.0, 0.0, 0.0, 0.0, 0.0, 1.6480851311552203E9, 0.0, 2022-03-23 20:25:31.155
16.0, 711.7571901171468, 302.1352977203205, 1450.6323948130012, 726.8719957880676, -0.5280000250786543, 0.8160000387579203, 0.5600000265985727, 0.0, 0.0, 0.0, 0.0, 0.0, 1.648085131156045E9, 0.0, 2022-03-23 20:25:31.156
16.0, 726.2306029456668, 307.68904915452003, 1457.9738184260204, 727.6162358792499, -0.5280000250786543, 0.8160000387579203, 0.5600000265985727, 0.0, 0.0, 0.0, 0.0, 0.0, 1.648085131156045E9, 0.0, 2022-03-23 20:25:31.156
17.0, 740.7451546736993, 309.16630963701755, 1462.454218572937, 733.6599142076448, -0.5280000250786543, 0.8160000387579203, 0.5600000265985727, 0.0, 0.0, 0.0, 0.0, 0.0, 1.6480851311680975E9, 0.0, 2022-03-23 20:25:31.168
17.0, 734.8735117432661, 316.1973215537146, 1477.1482854988426, 743.1555201951414, -0.5280000250786543, 0.8160000387579203, 0.5600000265985727, 0.0, 0.0, 0.0, 0.0, 0.0, 1.6480851311680975E9, 0.0, 2022-03-23 20:25:31.168
18.0, 730.5127883949317, 317.90645583346486, 1471.643152764067, 741.4426460154355, -0.5280000250786543, 0.8160000387579203, 0.5600000265985727, 0.0, 0.0, 0.0, 0.0, 0.0, 1.6480851311837463E9, 0.0, 2022-03-23 20:25:31.183
18.0, 749.4778210702352, 313.0483257910237, 1470.921352072619, 747.2170515470207, -0.5280000250786543, 0.8160000387579203, 0.5600000265985727, 0.0, 0.0, 0.0, 0.0, 0.0, 1.6480851311837463E9, 0.0, 2022-03-23 20:25:31.183
19.0, 730.5763666941784, 308.69134234264493, 1468.4679777016863, 734.441553298384, -0.5280000250786543, 0.8160000387579203, 0.5600000265985727, 0.0, 0.0, 0.0, 0.0, 0.0, 1.6480851311844532E9, 0.0, 2022-03-23 20:25:31.184
19.0, 722.995589483995, 313.1193838901818, 1463.6809057584032, 739.4417995391414, -0.5280000250786543, 0.8160000387579203, 0.5600000265985727, 0.0, 0.0, 0.0, 0.0, 0.0, 1.6480851311844532E9, 0.0, 2022-03-23 20:25:31.184
20.0, 736.8780981195159, 300.90861053485423, 1458.5759423188865, 746.8168822517619, -0.5280000250786543, 0.8160000387579203, 0.49600002355873585, 0.0, 0.0, 0.0, 0.0, 0.0, 1.6480851311979823E9, 0.0, 2022-03-23 20:25:31.197
20.0, 732.2593216742389, 303.5901188030839, 1451.9712789971381, 739.6961127361283, -0.5280000250786543, 0.8160000387579203, 0.49600002355873585, 0.0, 0.0, 0.0, 0.0, 0.0, 1.6480851311979823E9, 0.0, 2022-03-23 20:25:31.197
21.0, 710.9119727271609, 305.05989948567003, 1449.3122101286426, 725.9332808991894, -0.5280000250786543, 0.7840000372380018, 0.49600002355873585, 0.0, 0.0, 0.0, 0.0, 0.0, 1.6480851312137508E9, 0.0, 2022-03-23 20:25:31.213
21.0, 716.3123882631771, 305.4787682807073, 1457.2520177345723, 733.6823536073789, -0.5280000250786543, 0.7840000372380018, 0.49600002355873585, 0.0, 0.0, 0.0, 0.0, 0.0, 1.6480851312137508E9, 0.0, 2022-03-23 20:25:31.213
22.0, 719.618459824007, 299.2144358549267, 1455.2960500577465, 733.2597449123859, -0.4480000212788582, 0.7840000372380018, 0.49600002355873585, 0.0, 0.0, 0.0, 0.0, 0.0, 1.6480851312144687E9, 0.0, 2022-03-23 20:25:31.214
22.0, 709.1803990476765, 305.3029929827899, 1472.656665652059, 745.1601065713912, -0.4480000212788582, 0.7840000372380018, 0.49600002355873585, 0.0, 0.0, 0.0, 0.0, 0.0, 1.6480851312144687E9, 0.0, 2022-03-23 20:25:31.214
23.0, 705.6087945899926, 310.04892602656037, 1474.1975044338033, 752.0452623898163, -0.4480000212788582, 0.7840000372380018, 0.49600002355873585, 0.0, 0.0, 0.0, 0.0, 0.0, 1.6480851312279809E9, 0.0, 2022-03-23 20:25:31.227
23.0, 722.7150969873182, 308.34353164676577, 1472.667885351926, 752.6361665828153, -0.4480000212788582, 0.7840000372380018, 0.49600002355873585, 0.0, 0.0, 0.0, 0.0, 0.0, 1.6480851312279809E9, 0.0, 2022-03-23 20:25:31.227
24.0, 722.4009453910403, 317.5586451375857, 1483.2256229268387, 758.369433214888, -0.4480000212788582, 0.7840000372380018, 0.49600002355873585, 0.0, 0.0, 0.0, 0.0, 0.0, 1.6480851312437472E9, 0.0, 2022-03-23 20:25:31.243
24.0, 700.2308184537105, 314.817298470065, 1474.7584894271567, 740.2084790300578, -0.4480000212788582, 0.7840000372380018, 0.49600002355873585, 0.0, 0.0, 0.0, 0.0, 0.0, 1.6480851312437472E9, 0.0, 2022-03-23 20:25:31.243
25.0, 721.5781674007885, 317.4127890393138, 1483.7791281202808, 741.6333809131756, -0.4480000212788582, 0.7840000372380018, 0.49600002355873585, 0.0, 0.0, 0.0, 0.0, 0.0, 1.6480851312444897E9, 0.0, 2022-03-23 20:25:31.244
25.0, 708.1444467599504, 311.31301221158355, 1483.5921331224963, 723.1807145318016, -0.4480000212788582, 0.7840000372380018, 0.49600002355873585, 0.0, 0.0, 0.0, 0.0, 0.0, 1.6480851312444897E9, 0.0, 2022-03-23 20:25:31.244
26.0, 683.6892409496941, 314.7462403709069, 1488.588639463298, 719.91952177044, -0.4480000212788582, 0.7840000372380018, 0.49600002355873585, 0.0, 0.0, 0.0, 0.0, 0.0, 1.6480851312580452E9, 0.0, 2022-03-23 20:25:31.258
26.0, 680.7571593844332, 324.4811999555677, 1491.8797514243051, 736.4050007751212, -0.4480000212788582, 0.7840000372380018, 0.49600002355873585, 0.0, 0.0, 0.0, 0.0, 0.0, 1.6480851312580452E9, 0.0, 2022-03-23 20:25:31.258
27.0, 682.3241774658673, 326.02577863726765, 1493.413110406138, 738.3198295524344, -0.4480000212788582, 0.7840000372380018, 0.49600002355873585, 0.0, 0.0, 0.0, 0.0, 0.0, 1.648085131273708E9, 0.0, 2022-03-23 20:25:31.273
27.0, 647.3785522799008, 323.42654816806316, 1501.2444609133527, 707.6526499157771, -0.4480000212788582, 0.7840000372380018, 0.49600002355873585, 0.0, 0.0, 0.0, 0.0, 0.0, 1.648085131273708E9, 0.0, 2022-03-23 20:25:31.273
28.0, 638.9824768793769, 334.32087673898786, 1512.3407440818846, 708.2659935085103, -0.4480000212788582, 0.7840000372380018, 0.49600002355873585, 0.0, 0.0, 0.0, 0.0, 0.0, 1.6480851312744396E9, 0.0, 2022-03-23 20:25:31.274
28.0, 644.2145969173871, 341.47156545426697, 1505.7173812603578, 705.049679546617, -0.4480000212788582, 0.7840000372380018, 0.49600002355873585, 0.0, 0.0, 0.0, 0.0, 0.0, 1.6480851312744396E9, 0.0, 2022-03-23 20:25:31.274
29.0, 611.4605531054549, 340.24861816875637, 1489.0972658572719, 685.8415533741936, -0.4480000212788582, 0.7840000372380018, 0.49600002355873585, 0.0, 0.0, 0.0, 0.0, 0.0, 1.6480851312880597E9, 0.0, 2022-03-23 20:25:31.288
29.0, 640.4672171617858, 352.19385862722993, 1512.9952265741304, 705.9472555359825, -0.4480000212788582, 0.7840000372380018, 0.49600002355873585, 0.0, 0.0, 0.0, 0.0, 0.0, 1.6480851312880597E9, 0.0, 2022-03-23 20:25:31.288
30.0, 675.2894256492145, 350.41366624832153, 1513.904022263363, 712.8548507541418, -0.4480000212788582, 0.7840000372380018, 0.4480000212788582, 0.0, 0.0, 0.0, 0.0, 0.0, 1.6480851313201778E9, 0.0, 2022-03-23 20:25:31.320
30.0, 675.5325191463344, 343.9885181244463, 1482.3430065372959, 720.3234309656546, -0.4480000212788582, 0.7840000372380018, 0.4480000212788582, 0.0, 0.0, 0.0, 0.0, 0.0, 1.6480851313201778E9, 0.0, 2022-03-23 20:25:31.320
31.0, 702.0671093319543, 350.6118809459731, 1489.9088241476566, 732.2125729247928, -0.4480000212788582, 0.6880000326782465, 0.4480000212788582, 0.0, 0.0, 0.0, 0.0, 0.0, 1.6480851313209476E9, 0.0, 2022-03-23 20:25:31.320
31.0, 709.378613745328, 340.77594406250864, 1481.7483624443412, 725.6864475021139, -0.4480000212788582, 0.6880000326782465, 0.4480000212788582, 0.0, 0.0, 0.0, 0.0, 0.0, 1.6480851313209476E9, 0.0, 2022-03-23 20:25:31.320
32.0, 720.2766822162084, 338.76761778630316, 1468.78586919792, 736.2105259774253, -0.4800000227987766, 0.6880000326782465, 0.4480000212788582, 0.0, 0.0, 0.0, 0.0, 0.0, 1.6480851313215816E9, 0.0, 2022-03-23 20:25:31.321
32.0, 715.3474940746091, 334.3171368390322, 1460.101821500808, 737.081922667101, -0.4800000227987766, 0.6880000326782465, 0.4480000212788582, 0.0, 0.0, 0.0, 0.0, 0.0, 1.6480851313215816E9, 0.0, 2022-03-23 20:25:31.321
33.0, 709.3711339454167, 342.17466664593667, 1467.9817907074466, 741.4650854151696, -0.4800000227987766, 0.6880000326782465, 0.4480000212788582, 0.0, 0.0, 0.0, 0.0, 0.0, 1.6480851313223484E9, 0.0, 2022-03-23 20:25:31.322
33.0, 728.7737349155359, 324.3802226567641, 1460.8834605915472, 743.9595986856148, -0.4800000227987766, 0.6880000326782465, 0.4480000212788582, 0.0, 0.0, 0.0, 0.0, 0.0, 1.6480851313223484E9, 0.0, 2022-03-23 20:25:31.322
34.0, 714.9548045792617, 314.01321997959167, 1444.7046533832327, 730.0471708504483, -0.4800000227987766, 0.6880000326782465, 0.4480000212788582, 0.0, 0.0, 0.0, 0.0, 0.0, 1.648085131333006E9, 0.0, 2022-03-23 20:25:31.333
34.0, 712.2957357107662, 309.27850663568825, 1441.9221678161994, 734.067563302815, -0.4800000227987766, 0.6880000326782465, 0.4480000212788582, 0.0, 0.0, 0.0, 0.0, 0.0, 1.648085131333006E9, 0.0, 2022-03-23 20:25:31.333
35.0, 717.3184213512577, 299.3266328535974, 1426.3118254011497, 725.0357049098238, -0.4800000227987766, 0.6880000326782465, 0.4480000212788582, 0.0, 0.0, 0.0, 0.0, 0.0, 1.6480851313644354E9, 0.0, 2022-03-23 20:25:31.364
35.0, 694.1497411257587, 285.27208882011473, 1404.309993961826, 724.7851316127926, -0.4800000227987766, 0.6880000326782465, 0.4480000212788582, 0.0, 0.0, 0.0, 0.0, 0.0, 1.6480851313644354E9, 0.0, 2022-03-23 20:25:31.364
36.0, 677.0509185283445, 296.2860941896215, 1422.5607057455927, 737.2576979650185, -0.4800000227987766, 0.6880000326782465, 0.4480000212788582, 0.0, 0.0, 0.0, 0.0, 0.0, 1.6480851313652873E9, 0.0, 2022-03-23 20:25:31.365
36.0, 676.3515572366305, 296.3982911882922, 1431.1774352435023, 731.2439388362691, -0.4800000227987766, 0.6880000326782465, 0.4480000212788582, 0.0, 0.0, 0.0, 0.0, 0.0, 1.6480851313652873E9, 0.0, 2022-03-23 20:25:31.365
37.0, 687.5338581041433, 292.1759441383183, 1432.7930720243603, 723.2293332312256, -0.4800000227987766, 0.6880000326782465, 0.4480000212788582, 0.0, 0.0, 0.0, 0.0, 0.0, 1.6480851313659544E9, 0.0, 2022-03-23 20:25:31.365
37.0, 666.2725268560462, 291.15121155045927, 1426.9737876933068, 710.5922112809494, -0.4800000227987766, 0.6880000326782465, 0.4480000212788582, 0.0, 0.0, 0.0, 0.0, 0.0, 1.6480851313659544E9, 0.0, 2022-03-23 20:25:31.365
38.0, 676.0374056403525, 298.60109226219356, 1438.6422755550593, 712.8436310542747, -0.4800000227987766, 0.6880000326782465, 0.4480000212788582, 0.0, 0.0, 0.0, 0.0, 0.0, 1.648085131378031E9, 0.0, 2022-03-23 20:25:31.378
38.0, 692.3845083466731, 295.60169249773026, 1432.097450632602, 713.6103105451912, -0.4800000227987766, 0.6880000326782465, 0.4480000212788582, 0.0, 0.0, 0.0, 0.0, 0.0, 1.648085131378031E9, 0.0, 2022-03-23 20:25:31.378
39.0, 668.9054164248519, 290.26111536100507, 1422.4111097473651, 697.4427230367437, -0.4800000227987766, 0.6880000326782465, 0.4480000212788582, 0.0, 0.0, 0.0, 0.0, 0.0, 1.648085131393878E9, 0.0, 2022-03-23 20:25:31.393
39.0, 663.9500489835627, 293.204416626133, 1436.7947649769485, 698.3739581257105, -0.4800000227987766, 0.6880000326782465, 0.4480000212788582, 0.0, 0.0, 0.0, 0.0, 0.0, 1.648085131393878E9, 0.0, 2022-03-23 20:25:31.393
40.0, 700.0251239561476, 300.6954362373799, 1442.1091628139839, 718.135589491576, -0.4800000227987766, 0.6880000326782465, 0.6560000311583281, 0.0, 0.0, 0.0, 0.0, 0.0, 1.6480851313944848E9, 0.0, 2022-03-23 20:25:31.394
40.0, 708.0733886607923, 302.1876563197002, 1449.5627834256738, 720.5889638625085, -0.4800000227987766, 0.6880000326782465, 0.6560000311583281, 0.0, 0.0, 0.0, 0.0, 0.0, 1.6480851313944848E9, 0.0, 2022-03-23 20:25:31.394
41.0, 692.6575210434385, 306.2155285719782, 1449.9554729210213, 720.1065167682245, -0.4800000227987766, 0.7520000357180834, 0.6560000311583281, 0.0, 0.0, 0.0, 0.0, 0.0, 1.6480851314080255E9, 0.0, 2022-03-23 20:25:31.408
41.0, 702.8824075222947, 305.6321041788906, 1447.9546264447272, 725.0319650098681, -0.4800000227987766, 0.7520000357180834, 0.6560000311583281, 0.0, 0.0, 0.0, 0.0, 0.0, 1.6480851314080255E9, 0.0, 2022-03-23 20:25:31.408
42.0, 720.8675864092074, 303.53028040379286, 1449.259851529263, 732.2050931248814, -0.5280000250786543, 0.7520000357180834, 0.6560000311583281, 0.0, 0.0, 0.0, 0.0, 0.0, 1.6480851314236643E9, 0.0, 2022-03-23 20:25:31.423
42.0, 709.1579596479423, 299.4724889518693, 1437.1650150725618, 740.0027845324948, -0.5280000250786543, 0.7520000357180834, 0.6560000311583281, 0.0, 0.0, 0.0, 0.0, 0.0, 1.6480851314236643E9, 0.0, 2022-03-23 20:25:31.423
43.0, 700.7207453479059, 300.5944589385763, 1441.6641147192568, 730.2491254480556, -0.5280000250786543, 0.7520000357180834, 0.6560000311583281, 0.0, 0.0, 0.0, 0.0, 0.0, 1.6480851314244392E9, 0.0, 2022-03-23 20:25:31.424
43.0, 705.4442389919423, 301.6939895255491, 1451.1709404066205, 726.7747583892196, -0.5280000250786543, 0.7520000357180834, 0.6560000311583281, 0.0, 0.0, 0.0, 0.0, 0.0, 1.6480851314244392E9, 0.0, 2022-03-23 20:25:31.424
44.0, 656.8217996680178, 314.0057401796803, 1457.5773890307173, 708.2884329082444, -0.5280000250786543, 0.7520000357180834, 0.6560000311583281, 0.0, 0.0, 0.0, 0.0, 0.0, 1.6480851314380395E9, 0.0, 2022-03-23 20:25:31.438
44.0, 614.7254857667722, 296.9106574822217, 1434.4311482049525, 672.6359666306525, -0.5280000250786543, 0.7520000357180834, 0.6560000311583281, 0.0, 0.0, 0.0, 0.0, 0.0, 1.6480851314380395E9, 0.0, 2022-03-23 20:25:31.438
45.0, 624.0191371566616, 291.6112192450091, 1426.9550881935284, 667.4300258923322, -0.5280000250786543, 0.7520000357180834, 0.6560000311583281, 0.0, 0.0, 0.0, 0.0, 0.0, 1.6480851314538271E9, 0.0, 2022-03-23 20:25:31.453
45.0, 647.7001836760901, 304.5961518911645, 1451.5299708023667, 686.0509877717122, -0.5280000250786543, 0.7520000357180834, 0.6560000311583281, 0.0, 0.0, 0.0, 0.0, 0.0, 1.6480851314538271E9, 0.0, 2022-03-23 20:25:31.453
46.0, 660.3073864267208, 303.7359749013558, 1455.3409288572147, 693.7327422806993, -0.5280000250786543, 0.7520000357180834, 0.6560000311583281, 0.0, 0.0, 0.0, 0.0, 0.0, 1.6480851314544747E9, 0.0, 2022-03-23 20:25:31.454
46.0, 685.065524133388, 303.94540929887444, 1455.3409288572147, 712.0657318634912, -0.5280000250786543, 0.7520000357180834, 0.6560000311583281, 0.0, 0.0, 0.0, 0.0, 0.0, 1.6480851314544747E9, 0.0, 2022-03-23 20:25:31.454
47.0, 703.9220997099765, 294.49842201080173, 1450.1424679188058, 728.5886098677292, -0.5280000250786543, 0.7520000357180834, 0.6560000311583281, 0.0, 0.0, 0.0, 0.0, 0.0, 1.648085131468092E9, 0.0, 2022-03-23 20:25:31.468
47.0, 700.7992832469754, 306.13325077295303, 1456.1412674477324, 727.3656625822186, -0.5280000250786543, 0.7520000357180834, 0.6560000311583281, 0.0, 0.0, 0.0, 0.0, 0.0, 1.648085131468092E9, 0.0, 2022-03-23 20:25:31.468
48.0, 695.6008223085664, 305.1384373847395, 1453.8861077744514, 721.3818226531148, -0.5280000250786543, 0.7520000357180834, 0.6560000311583281, 0.0, 0.0, 0.0, 0.0, 0.0, 1.6480851314837403E9, 0.0, 2022-03-23 20:25:31.483
48.0, 700.8778211460449, 309.61509763170034, 1451.0849227076396, 727.2198064839467, -0.5280000250786543, 0.7520000357180834, 0.6560000311583281, 0.0, 0.0, 0.0, 0.0, 0.0, 1.6480851314837403E9, 0.0, 2022-03-23 20:25:31.483
49.0, 701.057336343918, 316.1187836546451, 1460.5206902958453, 744.2812300818041, -0.5280000250786543, 0.7520000357180834, 0.6560000311583281, 0.0, 0.0, 0.0, 0.0, 0.0, 1.648085131484486E9, 0.0, 2022-03-23 20:25:31.484
49.0, 703.8099027113058, 320.13917610701174, 1459.4660385083407, 752.2621765872464, -0.5280000250786543, 0.7520000357180834, 0.6560000311583281, 0.0, 0.0, 0.0, 0.0, 0.0, 1.648085131484486E9, 0.0, 2022-03-23 20:25:31.484
50.0, 710.6464398303069, 313.4372753864154, 1459.282783410512, 729.35154945869, -0.5280000250786543, 0.7520000357180834, 0.5440000258386135, 0.0, 0.0, 0.0, 0.0, 0.0, 1.648085131498002E9, 0.0, 2022-03-23 20:25:31.498
50.0, 702.3289023288526, 324.02867206092924, 1481.3818522486836, 734.3779749991372, -0.5280000250786543, 0.7520000357180834, 0.5440000258386135, 0.0, 0.0, 0.0, 0.0, 0.0, 1.648085131498002E9, 0.0, 2022-03-23 20:25:31.498
51.0, 666.2762667560019, 328.09394331276417, 1479.627839169465, 704.2979596555233, -0.5280000250786543, 0.8640000410377979, 0.5440000258386135, 0.0, 0.0, 0.0, 0.0, 0.0, 1.648085131530196E9, 0.0, 2022-03-23 20:25:31.530
51.0, 654.0617535007186, 328.6362288063392, 1484.897358207032, 696.0851393528283, -0.5280000250786543, 0.8640000410377979, 0.5440000258386135, 0.0, 0.0, 0.0, 0.0, 0.0, 1.648085131530196E9, 0.0, 2022-03-23 20:25:31.530
52.0, 616.4757589460351, 328.17248121183366, 1469.8367810854688, 693.6055856822059, -0.576000027358532, 0.8640000410377979, 0.5440000258386135, 0.0, 0.0, 0.0, 0.0, 0.0, 1.6480851315309367E9, 0.0, 2022-03-23 20:25:31.530
52.0, 615.1144353621639, 324.91876825038344, 1474.7584894271567, 678.6946045588702, -0.576000027358532, 0.8640000410377979, 0.5440000258386135, 0.0, 0.0, 0.0, 0.0, 0.0, 1.6480851315309367E9, 0.0, 2022-03-23 20:25:31.530
53.0, 654.9219304905273, 324.05485136061907, 1472.0395821593702, 694.9220304666087, -0.576000027358532, 0.8640000410377979, 0.5440000258386135, 0.0, 0.0, 0.0, 0.0, 0.0, 1.64808513153163E9, 0.0, 2022-03-23 20:25:31.531
53.0, 677.8362975190394, 317.5511653376743, 1471.4299784665927, 718.1094101918861, -0.576000027358532, 0.8640000410377979, 0.5440000258386135, 0.0, 0.0, 0.0, 0.0, 0.0, 1.64808513153163E9, 0.0, 2022-03-23 20:25:31.531
54.0, 689.624462179374, 317.75685983523726, 1454.7201054645702, 708.31835210789, -0.576000027358532, 0.8640000410377979, 0.5440000258386135, 0.0, 0.0, 0.0, 0.0, 0.0, 1.6480851315323732E9, 0.0, 2022-03-23 20:25:31.532
54.0, 705.9940042854287, 328.277198410593, 1464.877673744224, 704.9935810472816, -0.576000027358532, 0.8640000410377979, 0.5440000258386135, 0.0, 0.0, 0.0, 0.0, 0.0, 1.6480851315323732E9, 0.0, 2022-03-23 20:25:31.532
55.0, 730.714742992539, 330.14340848848224, 1474.5004363302141, 714.1077172392979, -0.576000027358532, 0.8640000410377979, 0.5440000258386135, 0.0, 0.0, 0.0, 0.0, 0.0, 1.6480851315431108E9, 0.0, 2022-03-23 20:25:31.543
55.0, 734.3013070500456, 323.58736386615783, 1464.2568503515795, 713.1802220502868, -0.576000027358532, 0.8640000410377979, 0.5440000258386135, 0.0, 0.0, 0.0, 0.0, 0.0, 1.6480851315431108E9, 0.0, 2022-03-23 20:25:31.543
56.0, 714.3639003862627, 313.28393948823214, 1452.5958422897384, 692.3190600974485, -0.576000027358532, 0.8640000410377979, 0.5440000258386135, 0.0, 0.0, 0.0, 0.0, 0.0, 1.6480851315580812E9, 0.0, 2022-03-23 20:25:31.558
56.0, 727.8611993263476, 321.8109113872051, 1470.0088164834306, 712.2115879617631, -0.576000027358532, 0.8640000410377979, 0.5440000258386135, 0.0, 0.0, 0.0, 0.0, 0.0, 1.6480851315580812E9, 0.0, 2022-03-23 20:25:31.558
57.0, 723.152665282134, 313.0483257910237, 1461.5529026836157, 699.428609913215, -0.576000027358532, 0.8640000410377979, 0.5440000258386135, 0.0, 0.0, 0.0, 0.0, 0.0, 1.6480851315737069E9, 0.0, 2022-03-23 20:25:31.573
57.0, 707.8602143633179, 316.0028467560187, 1455.4755652556196, 683.496636101976, -0.576000027358532, 0.8640000410377979, 0.5440000258386135, 0.0, 0.0, 0.0, 0.0, 0.0, 1.6480851315737069E9, 0.0, 2022-03-23 20:25:31.573
58.0, 710.3734271335416, 324.200707458891, 1468.6026141000912, 690.6323652174324, -0.576000027358532, 0.8640000410377979, 0.5440000258386135, 0.0, 0.0, 0.0, 0.0, 0.0, 1.6480851315744364E9, 0.0, 2022-03-23 20:25:31.574
58.0, 731.8217533794232, 323.1610152712092, 1469.6011673882604, 692.5845929943025, -0.576000027358532, 0.8640000410377979, 0.5440000258386135, 0.0, 0.0, 0.0, 0.0, 0.0, 1.6480851315744364E9, 0.0, 2022-03-23 20:25:31.574
59.0, 726.2006837460212, 326.5194454314187, 1466.1305402293801, 693.5307876830921, -0.576000027358532, 0.8640000410377979, 0.5440000258386135, 0.0, 0.0, 0.0, 0.0, 0.0, 1.6480851315881038E9, 0.0, 2022-03-23 20:25:31.588
59.0, 731.3841850846075, 328.16874131187797, 1468.1164271058515, 700.0008146064356, -0.576000027358532, 0.8640000410377979, 0.5440000258386135, 0.0, 0.0, 0.0, 0.0, 0.0, 1.6480851315881038E9, 0.0, 2022-03-23 20:25:31.588
60.0, 757.06607808033, 322.3457170808688, 1474.0740877352655, 714.1039773393422, -0.576000027358532, 0.8640000410377979, 0.4800000227987766, 0.0, 0.0, 0.0, 0.0, 0.0, 1.6480851316201549E9, 0.0, 2022-03-23 20:25:31.620
60.0, 738.1122651048936, 310.4416155219078, 1443.9192743925378, 689.5365745304152, -0.576000027358532, 0.8640000410377979, 0.4800000227987766, 0.0, 0.0, 0.0, 0.0, 0.0, 1.6480851316201549E9, 0.0, 2022-03-23 20:25:31.620
61.0, 742.1214378573932, 312.7117347950116, 1432.9613675223663, 687.3225537566468, -0.576000027358532, 0.6880000326782465, 0.4800000227987766, 0.0, 0.0, 0.0, 0.0, 0.0, 1.6480851316208124E9, 0.0, 2022-03-23 20:25:31.620
61.0, 736.0179211297072, 286.67455130349845, 1400.3718793084845, 669.7412840649486, -0.576000027358532, 0.6880000326782465, 0.4800000227987766, 0.0, 0.0, 0.0, 0.0, 0.0, 1.6480851316208124E9, 0.0, 2022-03-23 20:25:31.620
62.0, 764.0335116977803, 296.89943778235465, 1419.3069927841425, 695.8308261558414, -0.41600001975893974, 0.6880000326782465, 0.4800000227987766, 0.0, 0.0, 0.0, 0.0, 0.0, 1.6480851316215563E9, 0.0, 2022-03-23 20:25:31.621
62.0, 764.4411607929505, 288.4397840825841, 1416.273933920078, 699.3799912137911, -0.41600001975893974, 0.6880000326782465, 0.4800000227987766, 0.0, 0.0, 0.0, 0.0, 0.0, 1.6480851316215563E9, 0.0, 2022-03-23 20:25:31.621
63.0, 778.7574978233315, 285.0327352229506, 1420.1372505743057, 702.6112647755072, -0.41600001975893974, 0.6880000326782465, 0.4800000227987766, 0.0, 0.0, 0.0, 0.0, 0.0, 1.6480851316223109E9, 0.0, 2022-03-23 20:25:31.622
63.0, 805.2397294095717, 281.66682526282966, 1411.7710943734273, 723.984793022275, -0.41600001975893974, 0.6880000326782465, 0.4800000227987766, 0.0, 0.0, 0.0, 0.0, 0.0, 1.6480851316223109E9, 0.0, 2022-03-23 20:25:31.622
64.0, 782.598375077825, 279.78565558511764, 1409.4411367010325, 706.1903490331024, -0.41600001975893974, 0.6880000326782465, 0.4800000227987766, 0.0, 0.0, 0.0, 0.0, 0.0, 1.6480851316330488E9, 0.0, 2022-03-23 20:25:31.633
64.0, 740.3113262788393, 272.3208152735606, 1400.9702633013949, 672.7818227289245, -0.41600001975893974, 0.6880000326782465, 0.4800000227987766, 0.0, 0.0, 0.0, 0.0, 0.0, 1.6480851316330488E9, 0.0, 2022-03-23 20:25:31.633
65.0, 740.2215686799027, 267.2682104334235, 1395.2369966693223, 675.7213840940967, -0.41600001975893974, 0.6880000326782465, 0.4800000227987766, 0.0, 0.0, 0.0, 0.0, 0.0, 1.6480851316480489E9, 0.0, 2022-03-23 20:25:31.648
65.0, 734.0806529526599, 285.3281873194501, 1414.2169889444485, 674.8350278045982, -0.41600001975893974, 0.6880000326782465, 0.4800000227987766, 0.0, 0.0, 0.0, 0.0, 0.0, 1.6480851316480489E9, 0.0, 2022-03-23 20:25:31.648
66.0, 727.614365929272, 287.6618848918006, 1432.639736126177, 679.7455164464191, -0.41600001975893974, 0.6880000326782465, 0.4800000227987766, 0.0, 0.0, 0.0, 0.0, 0.0, 1.6480851316637993E9, 0.0, 2022-03-23 20:25:31.663
66.0, 729.0355279124342, 292.5162750342861, 1432.6472159260884, 672.0338427377865, -0.41600001975893974, 0.6880000326782465, 0.4800000227987766, 0.0, 0.0, 0.0, 0.0, 0.0, 1.6480851316637993E9, 0.0, 2022-03-23 20:25:31.663
67.0, 726.6008530412801, 292.97628272883594, 1419.1648765858263, 664.0715957321227, -0.41600001975893974, 0.6880000326782465, 0.4800000227987766, 0.0, 0.0, 0.0, 0.0, 0.0, 1.6480851316645455E9, 0.0, 2022-03-23 20:25:31.664
67.0, 728.3473863205872, 291.30080754868686, 1428.0583586804569, 674.7714495053515, -0.41600001975893974, 0.6880000326782465, 0.4800000227987766, 0.0, 0.0, 0.0, 0.0, 0.0, 1.6480851316645455E9, 0.0, 2022-03-23 20:25:31.664
68.0, 745.3938503186218, 299.31167325377464, 1445.9500400684774, 687.0532809598371, -0.41600001975893974, 0.6880000326782465, 0.4800000227987766, 0.0, 0.0, 0.0, 0.0, 0.0, 1.648085131678012E9, 0.0, 2022-03-23 20:25:31.678
68.0, 755.076451303903, 299.9624158460647, 1448.3697553398088, 696.8630385436118, -0.41600001975893974, 0.6880000326782465, 0.4800000227987766, 0.0, 0.0, 0.0, 0.0, 0.0, 1.648085131678012E9, 0.0, 2022-03-23 20:25:31.678
69.0, 745.416289718356, 300.7290953369811, 1448.4669927386567, 692.7977672917768, -0.41600001975893974, 0.6880000326782465, 0.4800000227987766, 0.0, 0.0, 0.0, 0.0, 0.0, 1.6480851317101264E9, 0.0, 2022-03-23 20:25:31.710
69.0, 729.6563513050787, 300.05217344500124, 1456.014110849239, 700.2364283036441, -0.41600001975893974, 0.6880000326782465, 0.4800000227987766, 0.0, 0.0, 0.0, 0.0, 0.0, 1.6480851317101264E9, 0.0, 2022-03-23 20:25:31.710
70.0, 732.5173747711815, 294.71907610818744, 1457.0725025366992, 697.5623998353258, -0.41600001975893974, 0.6880000326782465, 0.35200001671910286, 0.0, 0.0, 0.0, 0.0, 0.0, 1.6480851317109747E9, 0.0, 2022-03-23 20:25:31.710
70.0, 736.5377672235481, 299.9511961461976, 1446.0771966669708, 695.5877326587215, -0.41600001975893974, 0.6880000326782465, 0.35200001671910286, 0.0, 0.0, 0.0, 0.0, 0.0, 1.6480851317109747E9, 0.0, 2022-03-23 20:25:31.710
71.0, 744.9749815235846, 307.4496955573559, 1451.7169658001512, 703.879090860486, -0.41600001975893974, 0.8960000425577164, 0.35200001671910286, 0.0, 0.0, 0.0, 0.0, 0.0, 1.6480851317116165E9, 0.0, 2022-03-23 20:25:31.711
71.0, 744.0587060344405, 307.3786374581978, 1450.187346718274, 694.7799142682925, -0.41600001975893974, 0.8960000425577164, 0.35200001671910286, 0.0, 0.0, 0.0, 0.0, 0.0, 1.6480851317116165E9, 0.0, 2022-03-23 20:25:31.711
72.0, 744.8627845249139, 306.16316997259855, 1447.4908788502216, 688.4220843436196, -0.4000000189989805, 0.8960000425577164, 0.35200001671910286, 0.0, 0.0, 0.0, 0.0, 0.0, 1.6480851317123368E9, 0.0, 2022-03-23 20:25:31.712
72.0, 747.3498179954477, 304.5138740921393, 1458.0598361250013, 682.8234541099519, -0.4000000189989805, 0.8960000425577164, 0.35200001671910286, 0.0, 0.0, 0.0, 0.0, 0.0, 1.6480851317123368E9, 0.0, 2022-03-23 20:25:31.712
73.0, 754.3247314128093, 314.3685104753822, 1466.2913559274748, 695.6587907578796, -0.4000000189989805, 0.8960000425577164, 0.35200001671910286, 0.0, 0.0, 0.0, 0.0, 0.0, 1.6480851317231429E9, 0.0, 2022-03-23 20:25:31.723
73.0, 771.0645236144774, 322.14002258330584, 1470.9288318725303, 715.360583724454, -0.4000000189989805, 0.8960000425577164, 0.35200001671910286, 0.0, 0.0, 0.0, 0.0, 0.0, 1.6480851317231429E9, 0.0, 2022-03-23 20:25:31.723
74.0, 776.6257548485883, 316.01406645588577, 1473.0755344470963, 724.1979673197493, -0.4000000189989805, 0.8960000425577164, 0.35200001671910286, 0.0, 0.0, 0.0, 0.0, 0.0, 1.648085131738138E9, 0.0, 2022-03-23 20:25:31.738
74.0, 772.4632461979054, 322.270919081755, 1473.3298476440832, 709.4365821946412, -0.4000000189989805, 0.8960000425577164, 0.35200001671910286, 0.0, 0.0, 0.0, 0.0, 0.0, 1.648085131738138E9, 0.0, 2022-03-23 20:25:31.738
75.0, 770.6082558198832, 325.10202334821224, 1470.4164655786008, 726.0866167973727, -0.4000000189989805, 0.8960000425577164, 0.35200001671910286, 0.0, 0.0, 0.0, 0.0, 0.0, 1.6480851317538476E9, 0.0, 2022-03-23 20:25:31.753
75.0, 774.7632846706547, 322.644909077324, 1469.3543339911848, 726.613942691125, -0.4000000189989805, 0.8960000425577164, 0.35200001671910286, 0.0, 0.0, 0.0, 0.0, 0.0, 1.6480851317538476E9, 0.0, 2022-03-23 20:25:31.753
76.0, 782.0149506847374, 326.94579402636737, 1477.552194694057, 743.2901565935463, -0.4000000189989805, 0.8960000425577164, 0.35200001671910286, 0.0, 0.0, 0.0, 0.0, 0.0, 1.6480851317545168E9, 0.0, 2022-03-23 20:25:31.754
76.0, 799.0427151829936, 315.5577986612916, 1470.472564077936, 746.0502027608454, -0.4000000189989805, 0.8960000425577164, 0.35200001671910286, 0.0, 0.0, 0.0, 0.0, 0.0, 1.6480851317545168E9, 0.0, 2022-03-23 20:25:31.754
77.0, 833.9135423698463, 303.3283258061856, 1454.589208966121, 766.3541196202859, -0.4000000189989805, 0.8960000425577164, 0.35200001671910286, 0.0, 0.0, 0.0, 0.0, 0.0, 1.6480851317681153E9, 0.0, 2022-03-23 20:25:31.768
77.0, 828.4084096350707, 305.50494758039713, 1454.6677468651906, 761.6867244755849, -0.4000000189989805, 0.8960000425577164, 0.35200001671910286, 0.0, 0.0, 0.0, 0.0, 0.0, 1.6480851317681153E9, 0.0, 2022-03-23 20:25:31.768
78.0, 822.2674939078279, 300.3588452413678, 1446.9261539569125, 759.4876633016393, -0.4000000189989805, 0.8960000425577164, 0.35200001671910286, 0.0, 0.0, 0.0, 0.0, 0.0, 1.6480851317835083E9, 0.0, 2022-03-23 20:25:31.783
78.0, 820.2105489321984, 305.0262403860688, 1440.4112482341006, 752.1051007891074, -0.4000000189989805, 0.8960000425577164, 0.35200001671910286, 0.0, 0.0, 0.0, 0.0, 0.0, 1.6480851317835083E9, 0.0, 2022-03-23 20:25:31.783
79.0, 809.0768667641096, 297.6212384738028, 1448.257558341138, 745.0441696727648, -0.4000000189989805, 0.8960000425577164, 0.35200001671910286, 0.0, 0.0, 0.0, 0.0, 0.0, 1.6480851317986715E9, 0.0, 2022-03-23 20:25:31.798
79.0, 805.0901334113441, 292.7593685314059, 1450.4715791149065, 751.4618379967287, -0.4000000189989805, 0.8960000425577164, 0.35200001671910286, 0.0, 0.0, 0.0, 0.0, 0.0, 1.6480851317986715E9, 0.0, 2022-03-23 20:25:31.798
80.0, 808.3588059726171, 287.23179639689624, 1446.2417522650212, 744.9768514735624, -0.4000000189989805, 0.8960000425577164, 0.3200000151991844, 0.0, 0.0, 0.0, 0.0, 0.0, 1.6480851317994764E9, 0.0, 2022-03-23 20:25:31.799
80.0, 792.0117032662965, 284.89809882454574, 1443.2348727006465, 736.6219149725512, -0.4000000189989805, 0.8960000425577164, 0.3200000151991844, 0.0, 0.0, 0.0, 0.0, 0.0, 1.6480851317994764E9, 0.0, 2022-03-23 20:25:31.799
81.0, 790.0744350892492, 301.87350472342223, 1457.5998284304515, 741.4688253151253, -0.4000000189989805, 0.9120000433176756, 0.3200000151991844, 0.0, 0.0, 0.0, 0.0, 0.0, 1.6480851318137128E9, 0.0, 2022-03-23 20:25:31.813
81.0, 798.2648159922101, 313.2876793881878, 1466.3063155272976, 752.9390984792262, -0.4000000189989805, 0.9120000433176756, 0.3200000151991844, 0.0, 0.0, 0.0, 0.0, 0.0, 1.6480851318137128E9, 0.0, 2022-03-23 20:25:31.813
82.0, 790.3923265854828, 313.0296262912452, 1460.969478290528, 749.1580596240237, -0.4000000189989805, 0.9120000433176756, 0.3200000151991844, 0.0, 0.0, 0.0, 0.0, 0.0, 1.648085131814495E9, 0.0, 2022-03-23 20:25:31.814
82.0, 798.1264396938495, 326.73261972889304, 1482.9152112305164, 756.3386675389484, -0.4000000189989805, 0.9120000433176756, 0.3200000151991844, 0.0, 0.0, 0.0, 0.0, 0.0, 1.648085131814495E9, 0.0, 2022-03-23 20:25:31.814
83.0, 780.7321649999358, 320.4121888037771, 1486.8682854836807, 724.8898488115519, -0.4000000189989805, 0.9120000433176756, 0.3200000151991844, 0.0, 0.0, 0.0, 0.0, 0.0, 1.6480851318280804E9, 0.0, 2022-03-23 20:25:31.828
83.0, 779.8570284103043, 332.0470175659284, 1484.078320116736, 727.3768822820857, -0.4000000189989805, 0.9120000433176756, 0.3200000151991844, 0.0, 0.0, 0.0, 0.0, 0.0, 1.6480851318280804E9, 0.0, 2022-03-23 20:25:31.828
84.0, 785.1489868476056, 331.54961087182164, 1493.0054613109678, 731.3112570354715, -0.4000000189989805, 0.9120000433176756, 0.3200000151991844, 0.0, 0.0, 0.0, 0.0, 0.0, 1.6480851318437536E9, 0.0, 2022-03-23 20:25:31.843
84.0, 769.2768514356576, 326.4109883327037, 1483.0573274288327, 719.0219457810745, -0.4000000189989805, 0.9120000433176756, 0.3200000151991844, 0.0, 0.0, 0.0, 0.0, 0.0, 1.6480851318437536E9, 0.0, 2022-03-23 20:25:31.843
85.0, 758.8574901591055, 325.55081134289503, 1483.3378199255094, 713.0119265522808, -0.4000000189989805, 0.9120000433176756, 0.3200000151991844, 0.0, 0.0, 0.0, 0.0, 0.0, 1.648085131844448E9, 0.0, 2022-03-23 20:25:31.844
85.0, 763.4837464042939, 338.7900571860373, 1498.877104241401, 714.4405683353543, -0.4000000189989805, 0.9120000433176756, 0.3200000151991844, 0.0, 0.0, 0.0, 0.0, 0.0, 1.648085131844448E9, 0.0, 2022-03-23 20:25:31.844
86.0, 748.4044697829522, 344.6766597162932, 1502.4449687991291, 705.4161897422746, -0.4000000189989805, 0.9120000433176756, 0.3200000151991844, 0.0, 0.0, 0.0, 0.0, 0.0, 1.6480851318580315E9, 0.0, 2022-03-23 20:25:31.858
86.0, 759.0968437562697, 355.62708678655326, 1508.8775967229158, 710.8240850782022, -0.4000000189989805, 0.9120000433176756, 0.3200000151991844, 0.0, 0.0, 0.0, 0.0, 0.0, 1.6480851318580315E9, 0.0, 2022-03-23 20:25:31.858
87.0, 775.6122419605963, 360.358060230501, 1511.7311403891072, 731.1354817375541, -0.4000000189989805, 0.9120000433176756, 0.3200000151991844, 0.0, 0.0, 0.0, 0.0, 0.0, 1.6480851318901093E9, 0.0, 2022-03-23 20:25:31.890
87.0, 796.3312877151184, 365.5527812689543, 1529.9220137735829, 750.0331962136552, -0.4000000189989805, 0.9120000433176756, 0.3200000151991844, 0.0, 0.0, 0.0, 0.0, 0.0, 1.6480851318901093E9, 0.0, 2022-03-23 20:25:31.890
88.0, 804.3982519195415, 368.0697339391336, 1521.0584508785978, 756.0245159426704, -0.4000000189989805, 0.9120000433176756, 0.3200000151991844, 0.0, 0.0, 0.0, 0.0, 0.0, 1.6480851318908222E9, 0.0, 2022-03-23 20:25:31.890
88.0, 814.559560099151, 369.15430492628366, 1522.5244916612282, 761.7203835751861, -0.4000000189989805, 0.9120000433176756, 0.3200000151991844, 0.0, 0.0, 0.0, 0.0, 0.0, 1.6480851318908222E9, 0.0, 2022-03-23 20:25:31.890
89.0, 810.9318571421318, 370.9157978054136, 1526.6196821127087, 768.6578979929909, -0.4000000189989805, 0.9120000433176756, 0.3200000151991844, 0.0, 0.0, 0.0, 0.0, 0.0, 1.6480851318915827E9, 0.0, 2022-03-23 20:25:31.891
89.0, 804.6226459168829, 366.9627235522494, 1520.6807209830731, 764.2522958451882, -0.4000000189989805, 0.9120000433176756, 0.3200000151991844, 0.0, 0.0, 0.0, 0.0, 0.0, 1.6480851318915827E9, 0.0, 2022-03-23 20:25:31.891
90.0, 800.2544427686371, 355.25683669093996, 1499.3445917358622, 754.5921342596412, -0.4000000189989805, 0.9120000433176756, 0.35200001671910286, 0.0, 0.0, 0.0, 0.0, 0.0, 1.648085131892357E9, 0.0, 2022-03-23 20:25:31.892
90.0, 800.0300487712957, 353.85063430760056, 1506.7832527477294, 759.0725344065577, -0.4000000189989805, 0.9120000433176756, 0.35200001671910286, 0.0, 0.0, 0.0, 0.0, 0.0, 1.648085131892357E9, 0.0, 2022-03-23 20:25:31.892
91.0, 812.364238825161, 362.6580987032503, 1507.897742934525, 762.9695101603866, -0.4000000189989805, 0.8320000395178795, 0.35200001671910286, 0.0, 0.0, 0.0, 0.0, 0.0, 1.6480851319030488E9, 0.0, 2022-03-23 20:25:31.903
91.0, 818.3069398547523, 346.3932737959549, 1507.1834220429882, 762.1467321701348, -0.4000000189989805, 0.8320000395178795, 0.35200001671910286, 0.0, 0.0, 0.0, 0.0, 0.0, 1.6480851319030488E9, 0.0, 2022-03-23 20:25:31.903
92.0, 818.8567051482387, 339.2313653808087, 1499.0528795393184, 762.0681942710653, -0.43200002051889896, 0.8320000395178795, 0.35200001671910286, 0.0, 0.0, 0.0, 0.0, 0.0, 1.6480851319180396E9, 0.0, 2022-03-23 20:25:31.918
92.0, 813.014981417451, 346.6924657924101, 1505.0703785680234, 771.5413608588278, -0.43200002051889896, 0.8320000395178795, 0.35200001671910286, 0.0, 0.0, 0.0, 0.0, 0.0, 1.6480851319180396E9, 0.0, 2022-03-23 20:25:31.918
93.0, 791.0580287775956, 343.22183863352984, 1495.1633835854009, 753.2607298754156, -0.43200002051889896, 0.8320000395178795, 0.35200001671910286, 0.0, 0.0, 0.0, 0.0, 0.0, 1.6480851319337676E9, 0.0, 2022-03-23 20:25:31.933
93.0, 783.8811607626267, 343.99973782431334, 1496.9884547637776, 751.9218456912786, -0.43200002051889896, 0.8320000395178795, 0.35200001671910286, 0.0, 0.0, 0.0, 0.0, 0.0, 1.6480851319337676E9, 0.0, 2022-03-23 20:25:31.933
94.0, 788.2568437107839, 351.614174134098, 1498.8471850417554, 742.9273862978444, -0.43200002051889896, 0.8320000395178795, 0.35200001671910286, 0.0, 0.0, 0.0, 0.0, 0.0, 1.6480851319345183E9, 0.0, 2022-03-23 20:25:31.934
94.0, 777.822522834409, 350.7988759437576, 1491.4384432295337, 738.0655163554475, -0.43200002051889896, 0.8320000395178795, 0.35200001671910286, 0.0, 0.0, 0.0, 0.0, 0.0, 1.6480851319345183E9, 0.0, 2022-03-23 20:25:31.934
95.0, 777.6317879366688, 346.74108449183404, 1489.3927179537714, 729.1682943608612, -0.43200002051889896, 0.8320000395178795, 0.35200001671910286, 0.0, 0.0, 0.0, 0.0, 0.0, 1.6480851319479945E9, 0.0, 2022-03-23 20:25:31.947
95.0, 770.357682522852, 338.15427419357, 1483.5771735226735, 719.9868399696425, -0.43200002051889896, 0.8320000395178795, 0.35200001671910286, 0.0, 0.0, 0.0, 0.0, 0.0, 1.6480851319479945E9, 0.0, 2022-03-23 20:25:31.947
96.0, 763.229433207307, 341.40424725506455, 1479.2875082734972, 727.4666398810223, -0.43200002051889896, 0.8320000395178795, 0.35200001671910286, 0.0, 0.0, 0.0, 0.0, 0.0, 1.6480851319637718E9, 0.0, 2022-03-23 20:25:31.963
96.0, 756.2919187895022, 336.9687259076163, 1472.5220292536542, 718.4871400874108, -0.43200002051889896, 0.8320000395178795, 0.35200001671910286, 0.0, 0.0, 0.0, 0.0, 0.0, 1.6480851319637718E9, 0.0, 2022-03-23 20:25:31.963
97.0, 757.5784443742596, 340.5739894649014, 1484.4336106125265, 719.0705644804984, -0.43200002051889896, 0.8320000395178795, 0.35200001671910286, 0.0, 0.0, 0.0, 0.0, 0.0, 1.6480851319645517E9, 0.0, 2022-03-23 20:25:31.964
97.0, 761.4716802281328, 351.55807563476264, 1500.3618445238099, 718.9957664813846, -0.43200002051889896, 0.8320000395178795, 0.35200001671910286, 0.0, 0.0, 0.0, 0.0, 0.0, 1.6480851319645517E9, 0.0, 2022-03-23 20:25:31.964
98.0, 733.3775517609902, 339.7512114746496, 1476.2806287091225, 697.9476095307618, -0.43200002051889896, 0.8320000395178795, 0.35200001671910286, 0.0, 0.0, 0.0, 0.0, 0.0, 1.6480851319780188E9, 0.0, 2022-03-23 20:25:31.978
98.0, 734.4995217476971, 341.21351235732436, 1484.089539816603, 692.4013378964737, -0.43200002051889896, 0.8320000395178795, 0.35200001671910286, 0.0, 0.0, 0.0, 0.0, 0.0, 1.6480851319780188E9, 0.0, 2022-03-23 20:25:31.978
99.0, 729.4693563072942, 348.73819106817245, 1500.0252535277978, 705.1244775457308, -0.43200002051889896, 0.8320000395178795, 0.35200001671910286, 0.0, 0.0, 0.0, 0.0, 0.0, 1.648085131993718E9, 0.0, 2022-03-23 20:25:31.993
99.0, 728.7587753157131, 349.96487825363874, 1494.2171888966113, 709.3991831950843, -0.43200002051889896, 0.8320000395178795, 0.35200001671910286, 0.0, 0.0, 0.0, 0.0, 0.0, 1.648085131993718E9, 0.0, 2022-03-23 20:25:31.993
100.0, 733.0820996644907, 350.03593635279685, 1486.4045378891751, 708.7671401025727, -0.43200002051889896, 0.8320000395178795, 0.3840000182390213, 0.0, 0.0, 0.0, 0.0, 0.0, 1.6480851319944985E9, 0.0, 2022-03-23 20:25:31.994
100.0, 719.1397526296787, 351.4645781358704, 1489.0449072578922, 692.5397141948342, -0.43200002051889896, 0.8320000395178795, 0.3840000182390213, 0.0, 0.0, 0.0, 0.0, 0.0, 1.6480851319944985E9, 0.0, 2022-03-23 20:25:31.994
0.0, 713.0998142012395, 345.0263403621502, 1478.662944980897, 686.9036849616095, -0.43200002051889896, 0.8320000395178795, 0.3840000182390213, 0.0, 0.0, 0.0, 0.0, 0.0, 1.6480851320087373E9, 0.0, 2022-03-23 20:25:32.008
1.0, 711.416859221179, 349.89943000441417, 1483.0909865284339, 696.0776595529169, -0.43200002051889896, 0.8320000395178795, 0.3840000182390213, 0.0, 0.0, 0.0, 0.0, 0.0, 1.6480851320094812E9, 0.0, 2022-03-23 20:25:32.009
1.0, 712.5425691078417, 326.6260325801559, 1464.926292443648, 687.947117049247, -0.43200002051889896, 0.8320000395178795, 0.3840000182390213, 0.0, 0.0, 0.0, 0.0, 0.0, 1.6480851320094812E9, 0.0, 2022-03-23 20:25:32.009
2.0, 730.9503566897474, 354.87723684543744, 1495.1633835854009, 712.6267168568447, -0.3840000182390213, 0.8320000395178795, 0.3840000182390213, 0.0, 0.0, 0.0, 0.0, 0.0, 1.6480851320230925E9, 0.0, 2022-03-23 20:25:32.023
2.0, 725.8005144507624, 349.334705111105, 1491.2439684318379, 716.4451547116041, -0.3840000182390213, 0.8320000395178795, 0.3840000182390213, 0.0, 0.0, 0.0, 0.0, 0.0, 1.6480851320230925E9, 0.0, 2022-03-23 20:25:32.023
3.0, 745.2966129197739, 346.61579784331843, 1493.1513174092397, 714.1862551383674, -0.3840000182390213, 0.8320000395178795, 0.3840000182390213, 0.0, 0.0, 0.0, 0.0, 0.0, 1.648085132038767E9, 0.0, 2022-03-23 20:25:32.038
3.0, 742.1625767569058, 347.94346232758835, 1486.3073004903272, 712.4846006585285, -0.3840000182390213, 0.8320000395178795, 0.3840000182390213, 0.0, 0.0, 0.0, 0.0, 0.0, 1.648085132038767E9, 0.0, 2022-03-23 20:25:32.038
4.0, 741.4445159654133, 339.82039962382987, 1484.4747495120391, 716.8154048072174, -0.3840000182390213, 0.8320000395178795, 0.3840000182390213, 0.0, 0.0, 0.0, 0.0, 0.0, 1.6480851320394642E9, 0.0, 2022-03-23 20:25:32.039
4.0, 743.5762589401565, 329.8460864420049, 1471.1233066702262, 717.1258165035397, -0.3840000182390213, 0.8320000395178795, 0.3840000182390213, 0.0, 0.0, 0.0, 0.0, 0.0, 1.6480851320394642E9, 0.0, 2022-03-23 20:25:32.039
5.0, 748.4381288825534, 325.75463589048013, 1479.4894628711045, 722.8927422352135, -0.3840000182390213, 0.8320000395178795, 0.3840000182390213, 0.0, 0.0, 0.0, 0.0, 0.0, 1.6480851320530057E9, 0.0, 2022-03-23 20:25:32.053
5.0, 759.4895332516171, 321.12089984538034, 1474.9043455254287, 718.5619380865246, -0.3840000182390213, 0.8320000395178795, 0.3840000182390213, 0.0, 0.0, 0.0, 0.0, 0.0, 1.6480851320530057E9, 0.0, 2022-03-23 20:25:32.053
6.0, 765.0657240855508, 325.2160902968608, 1466.313795327209, 715.1735887266695, -0.3840000182390213, 0.8320000395178795, 0.3840000182390213, 0.0, 0.0, 0.0, 0.0, 0.0, 1.6480851320686712E9, 0.0, 2022-03-23 20:25:32.068
6.0, 772.9643927919678, 310.1330737755634, 1465.0272697424516, 720.2037541670725, -0.3840000182390213, 0.8320000395178795, 0.3840000182390213, 0.0, 0.0, 0.0, 0.0, 0.0, 1.6480851320686712E9, 0.0, 2022-03-23 20:25:32.068
7.0, 775.3242696640082, 310.6043011699803, 1459.2379046110436, 719.6988676730543, -0.3840000182390213, 0.8320000395178795, 0.3840000182390213, 0.0, 0.0, 0.0, 0.0, 0.0, 1.6480851320694692E9, 0.0, 2022-03-23 20:25:32.069
7.0, 775.9974516560324, 320.82170784892514, 1471.994703359902, 732.2163128247485, -0.3840000182390213, 0.8320000395178795, 0.3840000182390213, 0.0, 0.0, 0.0, 0.0, 0.0, 1.6480851320694692E9, 0.0, 2022-03-23 20:25:32.069
8.0, 789.6555662942119, 330.64642503252253, 1484.815080408007, 735.8103566821665, -0.3840000182390213, 0.8320000395178795, 0.3840000182390213, 0.0, 0.0, 0.0, 0.0, 0.0, 1.6480851320830889E9, 0.0, 2022-03-23 20:25:32.083
8.0, 771.2402989123948, 320.52625575242564, 1481.0303016528487, 729.3066706592217, -0.3840000182390213, 0.8320000395178795, 0.3840000182390213, 0.0, 0.0, 0.0, 0.0, 0.0, 1.6480851320830889E9, 0.0, 2022-03-23 20:25:32.083
9.0, 760.6676017376594, 312.06660205265507, 1470.1284932820126, 727.80697077699, -0.3840000182390213, 0.8320000395178795, 0.3840000182390213, 0.0, 0.0, 0.0, 0.0, 0.0, 1.6480851320987315E9, 0.0, 2022-03-23 20:25:32.098
9.0, 766.3260703706183, 317.78490908490494, 1473.2700092447922, 722.5112724397331, -0.3840000182390213, 0.8320000395178795, 0.3840000182390213, 0.0, 0.0, 0.0, 0.0, 0.0, 1.6480851320987315E9, 0.0, 2022-03-23 20:25:32.098
10.0, 773.0765897906385, 315.04356241738424, 1474.0703478353098, 722.1298026442528, -0.3840000182390213, 0.8320000395178795, 0.41600001975893974, 0.0, 0.0, 0.0, 0.0, 0.0, 1.6480851320994687E9, 0.0, 2022-03-23 20:25:32.099
10.0, 773.686193483416, 315.38015341339633, 1476.478843406774, 723.2068938314915, -0.3840000182390213, 0.8320000395178795, 0.41600001975893974, 0.0, 0.0, 0.0, 0.0, 0.0, 1.6480851320994687E9, 0.0, 2022-03-23 20:25:32.099
11.0, 767.8108106530271, 317.6240933868103, 1468.8494474971667, 719.799844971858, -0.3840000182390213, 0.7200000341981649, 0.41600001975893974, 0.0, 0.0, 0.0, 0.0, 0.0, 1.6480851321130946E9, 0.0, 2022-03-23 20:25:32.113
11.0, 765.9595601749606, 313.9477717303671, 1462.585115071386, 716.5685714101419, -0.3840000182390213, 0.7200000341981649, 0.41600001975893974, 0.0, 0.0, 0.0, 0.0, 0.0, 1.6480851321130946E9, 0.0, 2022-03-23 20:25:32.113
12.0, 770.1445082253776, 314.89396641915664, 1472.5706479530782, 728.7082866663113, -0.3840000182390213, 0.7200000341981649, 0.41600001975893974, 0.0, 0.0, 0.0, 0.0, 0.0, 1.6480851321287117E9, 0.0, 2022-03-23 20:25:32.128
12.0, 761.613796426449, 307.26457050954923, 1470.943791472353, 729.0112185627222, -0.3840000182390213, 0.7200000341981649, 0.41600001975893974, 0.0, 0.0, 0.0, 0.0, 0.0, 1.6480851321287117E9, 0.0, 2022-03-23 20:25:32.128
13.0, 775.7281788592227, 308.7493107919581, 1461.2911096867174, 733.2373055126518, -0.3840000182390213, 0.7200000341981649, 0.41600001975893974, 0.0, 0.0, 0.0, 0.0, 0.0, 1.6480851321294794E9, 0.0, 2022-03-23 20:25:32.129
13.0, 771.4347737100907, 307.713358504232, 1457.8840608270839, 740.0551431318745, -0.3840000182390213, 0.7200000341981649, 0.41600001975893974, 0.0, 0.0, 0.0, 0.0, 0.0, 1.6480851321294794E9, 0.0, 2022-03-23 20:25:32.129
14.0, 762.6684482139535, 311.63277365779504, 1458.811556016095, 738.3086098525673, -0.3840000182390213, 0.7200000341981649, 0.41600001975893974, 0.0, 0.0, 0.0, 0.0, 0.0, 1.6480851321430216E9, 0.0, 2022-03-23 20:25:32.143
14.0, 759.3474170533009, 301.69585947552696, 1463.8492012564093, 730.0733501501381, -0.3840000182390213, 0.7200000341981649, 0.41600001975893974, 0.0, 0.0, 0.0, 0.0, 0.0, 1.6480851321430216E9, 0.0, 2022-03-23 20:25:32.143
15.0, 755.5214993986301, 297.8624620209448, 1460.2364578992128, 733.0877095144242, -0.3840000182390213, 0.7200000341981649, 0.41600001975893974, 0.0, 0.0, 0.0, 0.0, 0.0, 1.6480851321751225E9, 0.0, 2022-03-23 20:25:32.175
15.0, 769.3329499349929, 309.5010306830518, 1472.8174813501537, 736.6181750725955, -0.3840000182390213, 0.7200000341981649, 0.41600001975893974, 0.0, 0.0, 0.0, 0.0, 0.0, 1.6480851321751225E9, 0.0, 2022-03-23 20:25:32.175
16.0, 784.3860472566448, 312.66498604556546, 1465.674272434786, 743.462191991508, -0.3840000182390213, 0.7200000341981649, 0.41600001975893974, 0.0, 0.0, 0.0, 0.0, 0.0, 1.6480851321759846E9, 0.0, 2022-03-23 20:25:32.175
16.0, 798.3171745915897, 308.89142699027434, 1461.6538799824193, 751.3720803977922, -0.3840000182390213, 0.7200000341981649, 0.41600001975893974, 0.0, 0.0, 0.0, 0.0, 0.0, 1.6480851321759846E9, 0.0, 2022-03-23 20:25:32.175
17.0, 814.4361434006132, 313.6934585333802, 1465.3563809385523, 759.2819688040763, -0.3840000182390213, 0.7200000341981649, 0.41600001975893974, 0.0, 0.0, 0.0, 0.0, 0.0, 1.6480851321765764E9, 0.0, 2022-03-23 20:25:32.176
17.0, 806.9787828889675, 317.56051508756354, 1478.1730180867016, 763.6202527526766, -0.3840000182390213, 0.7200000341981649, 0.41600001975893974, 0.0, 0.0, 0.0, 0.0, 0.0, 1.6480851321765764E9, 0.0, 2022-03-23 20:25:32.176
18.0, 800.714450463187, 315.00616341782734, 1475.8580200141296, 754.8913262560964, -0.3840000182390213, 0.7200000341981649, 0.41600001975893974, 0.0, 0.0, 0.0, 0.0, 0.0, 1.6480851321773164E9, 0.0, 2022-03-23 20:25:32.177
18.0, 770.5558972205035, 316.4348052009009, 1469.7694628862664, 733.6187753081322, -0.3840000182390213, 0.7200000341981649, 0.41600001975893974, 0.0, 0.0, 0.0, 0.0, 0.0, 1.6480851321773164E9, 0.0, 2022-03-23 20:25:32.177
19.0, 698.186963127926, 292.372288885992, 1456.8294090395793, 957.754719552584, -0.3840000182390213, 0.7200000341981649, 0.41600001975893974, 0.0, 0.0, 0.0, 0.0, 0.0, 1.6480851321881237E9, 0.0, 2022-03-23 20:25:32.188
19.0, 461.3484486839734, 198.58307779720053, 1365.437473822385, 1179.669163223356, -0.3840000182390213, 0.7200000341981649, 0.41600001975893974, 0.0, 0.0, 0.0, 0.0, 0.0, 1.6480851321881237E9, 0.0, 2022-03-23 20:25:32.188
20.0, 354.5144665497355, 176.89165805419907, 1345.7207212559879, 1152.906439140439, -0.3840000182390213, 0.7200000341981649, 0.41600001975893974, 0.0, 0.0, 0.0, 0.0, 0.0, 1.6480851322030337E9, 0.0, 2022-03-23 20:25:32.203
20.0, 342.9282564870082, 172.5795534052886, 1341.704068703577, 1067.3412680542096, -0.3840000182390213, 0.7200000341981649, 0.41600001975893974, 0.0, 0.0, 0.0, 0.0, 0.0, 1.6480851322030337E9, 0.0, 2022-03-23 20:25:32.203
21.0, 176.48587890900671, 159.99852995434776, 1327.0062618777156, 1101.5950117483735, -0.3840000182390213, 0.800000037997961, 0.41600001975893974, 0.0, 0.0, 0.0, 0.0, 0.0, 1.6480851322187061E9, 0.0, 2022-03-23 20:25:32.218
21.0, 351.8684873310849, 125.28103866567835, 1294.6972661605105, 1239.043814919889, -0.3840000182390213, 0.800000037997961, 0.41600001975893974, 0.0, 0.0, 0.0, 0.0, 0.0, 1.6480851322187061E9, 0.0, 2022-03-23 20:25:32.218
22.0, 587.2278713425621, 93.08050004718825, 1259.2056155810133, 1264.7107483157888, -0.3840000182390213, 0.800000037997961, 0.41600001975893974, 0.0, 0.0, 0.0, 0.0, 0.0, 1.6480851322194793E9, 0.0, 2022-03-23 20:25:32.219
22.0, 648.5996296154335, 82.62373977107927, 1245.1959503469989, 1269.823191555217, -0.3840000182390213, 0.800000037997961, 0.41600001975893974, 0.0, 0.0, 0.0, 0.0, 0.0, 1.6480851322194793E9, 0.0, 2022-03-23 20:25:32.219
23.0, 465.06964913988486, 69.44433232722804, 1240.0648076077923, 1313.8492938335985, -0.3840000182390213, 0.800000037997961, 0.41600001975893974, 0.0, 0.0, 0.0, 0.0, 0.0, 1.6480851322330513E9, 0.0, 2022-03-23 20:25:32.233
23.0, 680.6000835862942, 54.44733350491151, 1220.1049615442753, 1354.6366427503526, -0.3840000182390213, 0.800000037997961, 0.41600001975893974, 0.0, 0.0, 0.0, 0.0, 0.0, 1.6480851322330513E9, 0.0, 2022-03-23 20:25:32.233
24.0, 712.4116726093926, 45.7071873084642, 1203.3277703430504, 1368.9641994806007, -0.3840000182390213, 0.800000037997961, 0.41600001975893974, 0.0, 0.0, 0.0, 0.0, 0.0, 1.6480851322650733E9, 0.0, 2022-03-23 20:25:32.265
24.0, 692.0890562501736, 28.31665251450613, 1206.1364352097735, 1377.1957192830741, -0.3840000182390213, 0.800000037997961, 0.41600001975893974, 0.0, 0.0, 0.0, 0.0, 0.0, 1.6480851322650733E9, 0.0, 2022-03-23 20:25:32.265
25.0, 659.6229847348295, 31.020600182469934, 1213.511517922394, 1381.2198516353965, -0.3840000182390213, 0.800000037997961, 0.41600001975893974, 0.0, 0.0, 0.0, 0.0, 0.0, 1.6480851322657776E9, 0.0, 2022-03-23 20:25:32.265
25.0, 752.9073093296029, 2.530042320024222, 1168.7112563531846, 1375.0228374088183, -0.3840000182390213, 0.800000037997961, 0.41600001975893974, 0.0, 0.0, 0.0, 0.0, 0.0, 1.6480851322657776E9, 0.0, 2022-03-23 20:25:32.265
26.0, 552.820791750215, -15.582293165381998, 1153.1270932378247, 1404.1940570631996, -0.3840000182390213, 0.800000037997961, 0.41600001975893974, 0.0, 0.0, 0.0, 0.0, 0.0, 1.648085132266584E9, 0.0, 2022-03-23 20:25:32.266
26.0, 350.7409074944444, -18.794867227319628, 1167.7351424647495, 1519.1660615010187, -0.3840000182390213, 0.800000037997961, 0.41600001975893974, 0.0, 0.0, 0.0, 0.0, 0.0, 1.648085132266584E9, 0.0, 2022-03-23 20:25:32.266
27.0, 545.81408918323, -57.00168517464772, 1129.3675088193268, 1679.0280851069838, -0.3840000182390213, 0.800000037997961, 0.41600001975893974, 0.0, 0.0, 0.0, 0.0, 0.0, 1.6480851322674837E9, 0.0, 2022-03-23 20:25:32.267
27.0, 325.61812954209745, -100.47802215954289, 1082.0428147800267, 1611.2293087602593, -0.3840000182390213, 0.800000037997961, 0.41600001975893974, 0.0, 0.0, 0.0, 0.0, 0.0, 1.6480851322674837E9, 0.0, 2022-03-23 20:25:32.267
28.0, 402.62827947968617, -128.38515562890097, 1059.9362661419436, 1648.284237521235, -0.3840000182390213, 0.800000037997961, 0.41600001975893974, 0.0, 0.0, 0.0, 0.0, 0.0, 1.648085132278119E9, 0.0, 2022-03-23 20:25:32.278
28.0, 442.3871559086256, -144.64998053619638, 1037.137836012058, 1451.8366425987333, -0.3840000182390213, 0.800000037997961, 0.41600001975893974, 0.0, 0.0, 0.0, 0.0, 0.0, 1.648085132278119E9, 0.0, 2022-03-23 20:25:32.278
29.0, 374.0012152688578, -190.90880308812484, 993.5680015282705, 1434.6349727525376, -0.3840000182390213, 0.800000037997961, 0.41600001975893974, 0.0, 0.0, 0.0, 0.0, 0.0, 1.648085132293074E9, 0.0, 2022-03-23 20:25:32.293
29.0, 211.60353949293494, -218.7486183582805, 970.032811107114, 1323.0868467241526, -0.3840000182390213, 0.800000037997961, 0.41600001975893974, 0.0, 0.0, 0.0, 0.0, 0.0, 1.648085132293074E9, 0.0, 2022-03-23 20:25:32.293
30.0, 435.1710189441219, -248.19285070942715, 941.8302255412564, 1270.1822219509631, -0.3840000182390213, 0.800000037997961, 0.5600000265985727, 0.0, 0.0, 0.0, 0.0, 0.0, 1.648085132308736E9, 0.0, 2022-03-23 20:25:32.308
30.0, 554.5710649294779, -286.2949514579959, 895.1861932938918, 1464.6457999469712, -0.3840000182390213, 0.800000037997961, 0.5600000265985727, 0.0, 0.0, 0.0, 0.0, 0.0, 1.648085132308736E9, 0.0, 2022-03-23 20:25:32.308
31.0, 399.627009765245, -312.3620541491546, 865.6447235438973, 1555.536588570103, -0.3840000182390213, 0.800000037997961, 0.5600000265985727, 0.0, 0.0, 0.0, 0.0, 0.0, 1.6480851323094697E9, 0.0, 2022-03-23 20:25:32.309
31.0, 541.2140122377314, -288.98767942609265, 892.9085942208767, 1486.5429141875356, -0.3840000182390213, 0.800000037997961, 0.5600000265985727, 0.0, 0.0, 0.0, 0.0, 0.0, 1.6480851323094697E9, 0.0, 2022-03-23 20:25:32.309
32.0, 460.36111509567127, -273.485794109758, 913.7660162737593, 1301.191602433566, -0.4000000189989805, 0.800000037997961, 0.5600000265985727, 0.0, 0.0, 0.0, 0.0, 0.0, 1.6480851323231752E9, 0.0, 2022-03-23 20:25:32.323
32.0, 678.0980905159377, -278.6992146479897, 898.8886942500249, 1076.2235304489732, -0.4000000189989805, 0.800000037997961, 0.5600000265985727, 0.0, 0.0, 0.0, 0.0, 0.0, 1.6480851323231752E9, 0.0, 2022-03-23 20:25:32.323
33.0, 457.01203468535095, -300.32331619178876, 886.2253930000588, 1201.1100096693262, -0.4000000189989805, 0.800000037997961, 0.5600000265985727, 0.0, 0.0, 0.0, 0.0, 0.0, 1.6480851323551822E9, 0.0, 2022-03-23 20:25:32.355
33.0, 370.76433185720816, -353.845024457667, 819.9319263854995, 1296.5746959382668, -0.4000000189989805, 0.800000037997961, 0.5600000265985727, 0.0, 0.0, 0.0, 0.0, 0.0, 1.6480851323551822E9, 0.0, 2022-03-23 20:25:32.355
34.0, 362.3794761565514, -371.03360465401784, 808.9366205157712, 1258.1173046939075, -0.4000000189989805, 0.800000037997961, 0.5600000265985727, 0.0, 0.0, 0.0, 0.0, 0.0, 1.6480851323560042E9, 0.0, 2022-03-23 20:25:32.356
34.0, 509.7502339105122, -384.1643933984451, 799.3736963290721, 1268.132756775245, -0.4000000189989805, 0.800000037997961, 0.5600000265985727, 0.0, 0.0, 0.0, 0.0, 0.0, 1.6480851323560042E9, 0.0, 2022-03-23 20:25:32.356
35.0, 289.89086526539177, -393.0129966936074, 787.4209760706872, 1251.6884166700765, -0.4000000189989805, 0.800000037997961, 0.5600000265985727, 0.0, 0.0, 0.0, 0.0, 0.0, 1.6480851323565967E9, 0.0, 2022-03-23 20:25:32.356
35.0, 139.15045765135437, -404.4383910582401, 782.2935732314363, 1151.328201359138, -0.4000000189989805, 0.800000037997961, 0.5600000265985727, 0.0, 0.0, 0.0, 0.0, 0.0, 1.6480851323565967E9, 0.0, 2022-03-23 20:25:32.356
36.0, 23.58193917060271, -415.041007432621, 770.9280172660947, 1066.6531264623627, -0.4000000189989805, 0.800000037997961, 0.5600000265985727, 0.0, 0.0, 0.0, 0.0, 0.0, 1.6480851323573458E9, 0.0, 2022-03-23 20:25:32.357
36.0, -91.7098267134279, -423.4782217326574, 763.0779672591016, 897.994858160615, -0.4000000189989805, 0.800000037997961, 0.5600000265985727, 0.0, 0.0, 0.0, 0.0, 0.0, 1.6480851323573458E9, 0.0, 2022-03-23 20:25:32.357
37.0, 121.87585975602269, -416.53322751494125, 763.3958587553352, 769.0281480886042, -0.4000000189989805, 0.800000037997961, 0.5600000265985727, 0.0, 0.0, 0.0, 0.0, 0.0, 1.6480851323680692E9, 0.0, 2022-03-23 20:25:32.368
37.0, 339.84470897354186, -425.9652552031912, 755.6804451467469, 636.9722806531936, -0.4000000189989805, 0.800000037997961, 0.5600000265985727, 0.0, 0.0, 0.0, 0.0, 0.0, 1.6480851323680692E9, 0.0, 2022-03-23 20:25:32.368
38.0, 376.3068635915406, -423.38472423376516, 761.215497081168, 428.1998454267159, -0.4000000189989805, 0.800000037997961, 0.5600000265985727, 0.0, 0.0, 0.0, 0.0, 0.0, 1.6480851323830347E9, 0.0, 2022-03-23 20:25:32.383
38.0, 515.9435082371347, -420.8453321638517, 764.4804297424853, 293.78036121930927, -0.4000000189989805, 0.800000037997961, 0.5600000265985727, 0.0, 0.0, 0.0, 0.0, 0.0, 1.6480851323830347E9, 0.0, 2022-03-23 20:25:32.383
39.0, 629.1016611964442, -428.80383926955983, 753.5150430724025, 187.69435907620937, -0.4000000189989805, 0.800000037997961, 0.5600000265985727, 0.0, 0.0, 0.0, 0.0, 0.0, 1.6480851324150906E9, 0.0, 2022-03-23 20:25:32.415
39.0, 668.6249239281751, -383.73804480349645, 801.3072246061638, 78.41074247099459, -0.4000000189989805, 0.800000037997961, 0.5600000265985727, 0.0, 0.0, 0.0, 0.0, 0.0, 1.6480851324150906E9, 0.0, 2022-03-23 20:25:32.415
40.0, 653.5344276069663, -378.352588867303, 812.4446466742083, 67.28454010281712, -0.4000000189989805, 0.800000037997961, 0.6400000303983688, 0.0, 0.0, 0.0, 0.0, 0.0, 1.6480851324158504E9, 0.0, 2022-03-23 20:25:32.415
40.0, 575.5126347313635, -376.87906828476116, 824.6068013301119, 83.1903346143663, -0.4000000189989805, 0.800000037997961, 0.6400000303983688, 0.0, 0.0, 0.0, 0.0, 0.0, 1.6480851324158504E9, 0.0, 2022-03-23 20:25:32.415
41.0, 648.8277635127306, -380.1290413462557, 822.3329421570525, 222.71104236133397, -0.4000000189989805, 0.8160000387579203, 0.6400000303983688, 0.0, 0.0, 0.0, 0.0, 0.0, 1.6480851324165847E9, 0.0, 2022-03-23 20:25:32.416
41.0, 785.4481788440607, -365.4873330197297, 829.767863268964, 255.42394727375358, -0.4000000189989805, 0.8160000387579203, 0.6400000303983688, 0.0, 0.0, 0.0, 0.0, 0.0, 1.6480851324165847E9, 0.0, 2022-03-23 20:25:32.416
42.0, 1018.9357429277152, -333.60094599751756, 857.4431229410693, 222.16127706784755, -0.41600001975893974, 0.8160000387579203, 0.6400000303983688, 0.0, 0.0, 0.0, 0.0, 0.0, 1.6480851324173143E9, 0.0, 2022-03-23 20:25:32.417
42.0, 1226.6965352161787, -299.7099725990556, 886.8798754923046, 324.2025774088688, -0.41600001975893974, 0.8160000387579203, 0.6400000303983688, 0.0, 0.0, 0.0, 0.0, 0.0, 1.6480851324173143E9, 0.0, 2022-03-23 20:25:32.417
43.0, 1106.907539635431, -285.28517846995965, 892.1643541296944, 210.6779142539017, -0.41600001975893974, 0.8160000387579203, 0.6400000303983688, 0.0, 0.0, 0.0, 0.0, 0.0, 1.6480851324281175E9, 0.0, 2022-03-23 20:25:32.428
43.0, 989.9795675207861, -293.13148857699707, 884.9239078154787, 106.08039229316637, -0.41600001975893974, 0.8160000387579203, 0.6400000303983688, 0.0, 0.0, 0.0, 0.0, 0.0, 1.6480851324281175E9, 0.0, 2022-03-23 20:25:32.428
44.0, 1071.2027147584595, -295.4502265495248, 872.3503641644493, 22.041100388858467, -0.41600001975893974, 0.8160000387579203, 0.6400000303983688, 0.0, 0.0, 0.0, 0.0, 0.0, 1.648085132459411E9, 0.0, 2022-03-23 20:25:32.459
44.0, 1218.794126609806, -296.2617848399095, 884.2956046229228, -1.6287264307029545, -0.41600001975893974, 0.8160000387579203, 0.6400000303983688, 0.0, 0.0, 0.0, 0.0, 0.0, 1.648085132459411E9, 0.0, 2022-03-23 20:25:32.459
45.0, 989.4578514769673, -295.8915347442962, 900.9456392256543, -14.191050381865352, -0.41600001975893974, 0.8160000387579203, 0.6400000303983688, 0.0, 0.0, 0.0, 0.0, 0.0, 1.6480851324601629E9, 0.0, 2022-03-23 20:25:32.460
45.0, 750.7456471552141, -303.44239275483415, 890.6609143475071, -1.2210773355327547, -0.41600001975893974, 0.8160000387579203, 0.6400000303983688, 0.0, 0.0, 0.0, 0.0, 0.0, 1.6480851324601629E9, 0.0, 2022-03-23 20:25:32.460
46.0, 866.3870936851017, -296.65447433525696, 890.6384749477729, -13.155098094139248, -0.41600001975893974, 0.8160000387579203, 0.6400000303983688, 0.0, 0.0, 0.0, 0.0, 0.0, 1.6480851324610584E9, 0.0, 2022-03-23 20:25:32.461
46.0, 872.0904411175288, -275.3781834873371, 908.8218685323372, -8.083793754223734, -0.41600001975893974, 0.8160000387579203, 0.6400000303983688, 0.0, 0.0, 0.0, 0.0, 0.0, 1.6480851324610584E9, 0.0, 2022-03-23 20:25:32.461
47.0, 864.2067320109345, -290.6818541060202, 900.407093632035, -72.68682558881119, -0.41600001975893974, 0.8160000387579203, 0.6400000303983688, 0.0, 0.0, 0.0, 0.0, 0.0, 1.6480851324894714E9, 0.0, 2022-03-23 20:25:32.489
47.0, 1022.1427071397193, -321.9062788360752, 865.8092791419476, -40.703201167751104, -0.41600001975893974, 0.8160000387579203, 0.6400000303983688, 0.0, 0.0, 0.0, 0.0, 0.0, 1.6480851324894714E9, 0.0, 2022-03-23 20:25:32.489
48.0, 970.3862316529267, -314.86030731955543, 858.5463934279978, -0.3459407459013164, -0.41600001975893974, 0.8160000387579203, 0.6400000303983688, 0.0, 0.0, 0.0, 0.0, 0.0, 1.6480851324901364E9, 0.0, 2022-03-23 20:25:32.490
48.0, 957.9248850005679, -305.9780449247919, 872.2830459652469, -7.010442466940731, -0.41600001975893974, 0.8160000387579203, 0.6400000303983688, 0.0, 0.0, 0.0, 0.0, 0.0, 1.6480851324901364E9, 0.0, 2022-03-23 20:25:32.490
49.0, 957.7528496026061, -309.1943588866852, 864.1899024611339, -225.86377802398056, -0.41600001975893974, 0.8160000387579203, 0.6400000303983688, 0.0, 0.0, 0.0, 0.0, 0.0, 1.648085132490936E9, 0.0, 2022-03-23 20:25:32.490
49.0, 882.9436307889409, -328.48850275808945, 854.0360740814358, 3.579084257595241, -0.41600001975893974, 0.8160000387579203, 0.6400000303983688, 0.0, 0.0, 0.0, 0.0, 0.0, 1.648085132490936E9, 0.0, 2022-03-23 20:25:32.490
50.0, 837.8740964229219, -332.063847115729, 853.2544349906966, 33.08315500803292, -0.41600001975893974, 0.8160000387579203, 0.5280000250786543, 0.0, 0.0, 0.0, 0.0, 0.0, 1.6480851325030158E9, 0.0, 2022-03-23 20:25:32.503
50.0, 904.9342425283976, -339.2257555308752, 836.5146427890286, 23.624948020093143, -0.41600001975893974, 0.8160000387579203, 0.5280000250786543, 0.0, 0.0, 0.0, 0.0, 0.0, 1.6480851325030158E9, 0.0, 2022-03-23 20:25:32.503
51.0, 799.9290714724921, -334.09087289171293, 847.4089713599533, -196.70377806946635, -0.41600001975893974, 0.7680000364780426, 0.5280000250786543, 0.0, 0.0, 0.0, 0.0, 0.0, 1.6480851325350945E9, 0.0, 2022-03-23 20:25:32.535
51.0, 819.7991599370725, -332.2059633140452, 852.3381595015526, -149.04249303415418, -0.41600001975893974, 0.7680000364780426, 0.5280000250786543, 0.0, 0.0, 0.0, 0.0, 0.0, 1.6480851325350945E9, 0.0, 2022-03-23 20:25:32.535
52.0, 631.1249470724724, -352.79411257011816, 832.5017301365733, -177.5087415468879, -0.4480000212788582, 0.7680000364780426, 0.5280000250786543, 0.0, 0.0, 0.0, 0.0, 0.0, 1.648085132535915E9, 0.0, 2022-03-23 20:25:32.535
52.0, 671.7402605912648, -373.0157516305335, 808.3943350221962, 8.62981914775446, -0.4480000212788582, 0.7680000364780426, 0.5280000250786543, 0.0, 0.0, 0.0, 0.0, 0.0, 1.648085132535915E9, 0.0, 2022-03-23 20:25:32.535
53.0, 544.8865939942189, -364.458860531915, 816.0199910318479, 28.82901880843565, -0.4480000212788582, 0.7680000364780426, 0.5280000250786543, 0.0, 0.0, 0.0, 0.0, 0.0, 1.6480851325365589E9, 0.0, 2022-03-23 20:25:32.536
53.0, 482.63595923176035, -336.90701755834743, 847.5286481585354, -57.42429386964068, -0.4480000212788582, 0.7680000364780426, 0.5280000250786543, 0.0, 0.0, 0.0, 0.0, 0.0, 1.6480851325365589E9, 0.0, 2022-03-23 20:25:32.536
54.0, 435.65907588833943, -319.1761518684216, 852.3979979008436, -280.5317656262778, -0.4480000212788582, 0.7680000364780426, 0.5280000250786543, 0.0, 0.0, 0.0, 0.0, 0.0, 1.6480851325373087E9, 0.0, 2022-03-23 20:25:32.537
54.0, 400.3880794062279, -301.6023619766347, 882.7024072417989, -394.5351359755732, -0.4480000212788582, 0.7680000364780426, 0.5280000250786543, 0.0, 0.0, 0.0, 0.0, 0.0, 1.6480851325373087E9, 0.0, 2022-03-23 20:25:32.537
55.0, 318.95923767099157, -319.41176556563005, 887.8896484803408, -411.34972617635503, -0.4480000212788582, 0.7680000364780426, 0.5280000250786543, 0.0, 0.0, 0.0, 0.0, 0.0, 1.6480851325481899E9, 0.0, 2022-03-23 20:25:32.548
55.0, 140.00128489127383, -322.30644813133404, 874.2464934419841, -195.7444937308319, -0.4480000212788582, 0.7680000364780426, 0.5280000250786543, 0.0, 0.0, 0.0, 0.0, 0.0, 1.6480851325481899E9, 0.0, 2022-03-23 20:25:32.548
56.0, 7.05532126640901, -323.6640318152495, 871.7295407718047, 16.03669100999832, -0.4480000212788582, 0.7680000364780426, 0.5280000250786543, 0.0, 0.0, 0.0, 0.0, 0.0, 1.6480851325794108E9, 0.0, 2022-03-23 20:25:32.579
56.0, -164.04510170640424, -332.1461249147542, 865.2669936483726, -45.99702955503017, -0.4480000212788582, 0.7680000364780426, 0.5280000250786543, 0.0, 0.0, 0.0, 0.0, 0.0, 1.6480851325794108E9, 0.0, 2022-03-23 20:25:32.579
57.0, -360.4571675793268, -344.20356237189844, 853.4601294882596, 13.231766043230891, -0.4480000212788582, 0.7680000364780426, 0.5280000250786543, 0.0, 0.0, 0.0, 0.0, 0.0, 1.6480851325803025E9, 0.0, 2022-03-23 20:25:32.580
57.0, -379.5306573533453, -343.8894107756205, 850.0381210288033, -82.7826855191961, -0.4480000212788582, 0.7680000364780426, 0.5280000250786543, 0.0, 0.0, 0.0, 0.0, 0.0, 1.6480851325803025E9, 0.0, 2022-03-23 20:25:32.580
58.0, -383.9811383006163, -346.82523224083707, 839.2522495565936, -207.53452834114432, -0.4480000212788582, 0.7680000364780426, 0.5280000250786543, 0.0, 0.0, 0.0, 0.0, 0.0, 1.648085132581019E9, 0.0, 2022-03-23 20:25:32.581
58.0, -622.9345661695115, -328.11825266247615, 857.3945042416453, -250.11328933667392, -0.4480000212788582, 0.7680000364780426, 0.5280000250786543, 0.0, 0.0, 0.0, 0.0, 0.0, 1.648085132581019E9, 0.0, 2022-03-23 20:25:32.581
59.0, -711.6936118179001, -321.7940818374045, 859.593565415591, -284.38199263066053, -0.4480000212788582, 0.7680000364780426, 0.5280000250786543, 0.0, 0.0, 0.0, 0.0, 0.0, 1.6480851326099477E9, 0.0, 2022-03-23 20:25:32.609
59.0, -780.1188214072026, -324.97299679974094, 858.9802218228579, -212.53477458190173, -0.4480000212788582, 0.7680000364780426, 0.5280000250786543, 0.0, 0.0, 0.0, 0.0, 0.0, 1.6480851326099477E9, 0.0, 2022-03-23 20:25:32.609
60.0, -760.9443543343805, -318.3645935780369, 880.5407450674102, -64.0308271413669, -0.4480000212788582, 0.7680000364780426, 0.6240000296384096, 0.0, 0.0, 0.0, 0.0, 0.0, 1.6480851326106014E9, 0.0, 2022-03-23 20:25:32.610
60.0, -650.2881944454275, -324.2137971087359, 866.841491529718, -43.614713283255696, -0.4480000212788582, 0.7680000364780426, 0.6240000296384096, 0.0, 0.0, 0.0, 0.0, 0.0, 1.6480851326106014E9, 0.0, 2022-03-23 20:25:32.610
61.0, -549.6400068379007, -332.6173523091711, 840.6547120399773, -43.637152682989836, -0.4480000212788582, 0.6560000311583281, 0.6240000296384096, 0.0, 0.0, 0.0, 0.0, 0.0, 1.6480851326237466E9, 0.0, 2022-03-23 20:25:32.623
61.0, -667.1345737958327, -345.23577475966886, 830.9833307545632, 107.52586362604052, -0.4480000212788582, 0.6560000311583281, 0.6240000296384096, 0.0, 0.0, 0.0, 0.0, 0.0, 1.6480851326237466E9, 0.0, 2022-03-23 20:25:32.623
62.0, -701.3789677401073, -390.473604623694, 793.0420457040891, 14.250888781156391, -0.41600001975893974, 0.6560000311583281, 0.6240000296384096, 0.0, 0.0, 0.0, 0.0, 0.0, 1.6480851326244884E9, 0.0, 2022-03-23 20:25:32.624
62.0, -624.3669478525408, -446.94609395461157, 725.0656241094694, 109.66695635067299, -0.41600001975893974, 0.6560000311583281, 0.6240000296384096, 0.0, 0.0, 0.0, 0.0, 0.0, 1.6480851326244884E9, 0.0, 2022-03-23 20:25:32.624
63.0, -866.4637616341934, -442.76114590419456, 736.5097179738805, 268.90815656399354, -0.41600001975893974, 0.6560000311583281, 0.6240000296384096, 0.0, 0.0, 0.0, 0.0, 0.0, 1.64808513265517E9, 0.0, 2022-03-23 20:25:32.655
63.0, -652.1824537729844, -476.15471260854974, 700.3187061026692, 469.3967133886181, -0.41600001975893974, 0.6560000311583281, 0.6240000296384096, 0.0, 0.0, 0.0, 0.0, 0.0, 1.64808513265517E9, 0.0, 2022-03-23 20:25:32.655
64.0, -518.7241238541901, -516.5456321300007, 658.7310185953975, 690.2976441713981, -0.41600001975893974, 0.6560000311583281, 0.6240000296384096, 0.0, 0.0, 0.0, 0.0, 0.0, 1.6480851326558928E9, 0.0, 2022-03-23 20:25:32.655
64.0, -368.71673663146794, -549.6100876382552, 641.4564207000658, 902.6828227550723, -0.41600001975893974, 0.6560000311583281, 0.6240000296384096, 0.0, 0.0, 0.0, 0.0, 0.0, 1.6480851326558928E9, 0.0, 2022-03-23 20:25:32.655
65.0, -351.41221953649074, -590.0683253589086, 602.9354511564597, 1088.5296712531708, -0.41600001975893974, 0.6560000311583281, 0.6240000296384096, 0.0, 0.0, 0.0, 0.0, 0.0, 1.6480851326566184E9, 0.0, 2022-03-23 20:25:32.656
65.0, -437.9628542610444, -615.7838774542324, 564.5004993118346, 1278.1725182062946, -0.41600001975893974, 0.6560000311583281, 0.6240000296384096, 0.0, 0.0, 0.0, 0.0, 0.0, 1.6480851326566184E9, 0.0, 2022-03-23 20:25:32.656
66.0, -560.5586447585374, -646.0359281958081, 533.9193373741582, 1432.1666387817822, -0.41600001975893974, 0.6560000311583281, 0.6240000296384096, 0.0, 0.0, 0.0, 0.0, 0.0, 1.6480851326573863E9, 0.0, 2022-03-23 20:25:32.657
66.0, -413.21780620422214, -680.4654471878894, 499.5795759810135, 1526.7075697616674, -0.41600001975893974, 0.6560000311583281, 0.6240000296384096, 0.0, 0.0, 0.0, 0.0, 0.0, 1.6480851326573863E9, 0.0, 2022-03-23 20:25:32.657
67.0, -204.97269687149674, -708.5146968555637, 487.6829542219639, 1607.904537699651, -0.41600001975893974, 0.6560000311583281, 0.6240000296384096, 0.0, 0.0, 0.0, 0.0, 0.0, 1.648085132668072E9, 0.0, 2022-03-23 20:25:32.668
67.0, -102.45081938616931, -727.6293255290948, 463.4895414086059, 1653.0002513653599, -0.41600001975893974, 0.6560000311583281, 0.6240000296384096, 0.0, 0.0, 0.0, 0.0, 0.0, 1.648085132668072E9, 0.0, 2022-03-23 20:25:32.668
68.0, -47.650065335445106, -742.4879480530508, 442.45260415785015, 1628.2795126582496, -0.41600001975893974, 0.6560000311583281, 0.6240000296384096, 0.0, 0.0, 0.0, 0.0, 0.0, 1.6480851326994667E9, 0.0, 2022-03-23 20:25:32.699
68.0, -112.96367816161364, -733.4785290597938, 452.35211934056133, 1613.5704861325212, -0.41600001975893974, 0.6560000311583281, 0.6240000296384096, 0.0, 0.0, 0.0, 0.0, 0.0, 1.6480851326994667E9, 0.0, 2022-03-23 20:25:32.699
69.0, -188.0870485715568, -742.8581981486641, 442.04121516272426, 1585.169685869012, -0.41600001975893974, 0.6560000311583281, 0.6240000296384096, 0.0, 0.0, 0.0, 0.0, 0.0, 1.648085132700171E9, 0.0, 2022-03-23 20:25:32.700
69.0, -325.6704881414771, -739.4249699893408, 435.81054183654487, 1540.9304092931561, -0.41600001975893974, 0.6560000311583281, 0.6240000296384096, 0.0, 0.0, 0.0, 0.0, 0.0, 1.648085132700171E9, 0.0, 2022-03-23 20:25:32.700
70.0, -83.75692945765331, -734.6603374457918, 431.0234698932618, 1472.9652073984034, -0.41600001975893974, 0.6560000311583281, 0.6560000311583281, 0.0, 0.0, 0.0, 0.0, 0.0, 1.6480851327009437E9, 0.0, 2022-03-23 20:25:32.700
