%OpenBCI Raw EEG Data
%Number of channels = 4
%Sample Rate = 200 Hz
%Board = OpenBCI_GUI$BoardGanglionBLE
Sample Index, EXG Channel 0, EXG Channel 1, EXG Channel 2, EXG Channel 3, Accel Channel 0, Accel Channel 1, Accel Channel 2, Other, Other, Other, Other, Other, Timestamp, Other, Timestamp (Formatted)
2.0, -13.474859540350735, -11.907841458916664, -7.790211607702076, -9.173974591307342, -0.12800000607967377, 0.0, 0.0, 0.0, 0.0, 0.0, 0.0, 0.0, 1.6480860819942653E9, 0.0, 2022-03-23 20:41:21.994
2.0, -7.090850315988064, 5.931481329724193, 0.0, 2.688988068141043, -0.12800000607967377, 0.0, 0.0, 0.0, 0.0, 0.0, 0.0, 0.0, 1.6480860819942653E9, 0.0, 2022-03-23 20:41:21.994
3.0, -2.0270257759839296, 0.6582223922014236, 16.186287008225918, 1.6979145798832178, -0.12800000607967377, 0.0, 0.0, 0.0, 0.0, 0.0, 0.0, 0.0, 1.6480860820087893E9, 0.0, 2022-03-23 20:41:22.008
3.0, 5.8978222301229835, 9.880815682932734, 26.302716388367116, 11.761985360644758, -0.12800000607967377, 0.0, 0.0, 0.0, 0.0, 0.0, 0.0, 0.0, 1.6480860820087893E9, 0.0, 2022-03-23 20:41:22.008
4.0, 15.644001514650881, 7.902408606372774, 18.381608282215893, 6.107256627641618, -0.12800000607967377, 0.0, 0.0, 0.0, 0.0, 0.0, 0.0, 0.0, 1.6480860820094469E9, 0.0, 2022-03-23 20:41:22.009
4.0, -2.8161446666345, -1.7427933793514967, 12.06865715701133, -3.4743670588359237, -0.12800000607967377, 0.0, 0.0, 0.0, 0.0, 0.0, 0.0, 0.0, 1.6480860820094469E9, 0.0, 2022-03-23 20:41:22.009
5.0, 2.894682565703988, 12.592243150807917, 22.237445136532187, 11.784424760378897, -0.12800000607967377, 0.0, 0.0, 0.0, 0.0, 0.0, 0.0, 0.0, 1.6480860820230706E9, 0.0, 2022-03-23 20:41:22.023
5.0, 24.97131200414151, 14.757645225152373, 22.59273563232273, 14.574390127323568, -0.12800000607967377, 0.0, 0.0, 0.0, 0.0, 0.0, 0.0, 0.0, 1.6480860820230706E9, 0.0, 2022-03-23 20:41:22.023
6.0, 16.754751801490784, 13.452420140616596, 19.066009974107146, 12.842816447839141, -0.12800000607967377, 0.0, 0.0, 0.0, 0.0, 0.0, 0.0, 0.0, 1.6480860820387669E9, 0.0, 2022-03-23 20:41:22.038
6.0, -5.377976136282086, 4.465440547093749, 10.591396674513817, 9.170234691351652, -0.12800000607967377, 0.0, 0.0, 0.0, 0.0, 0.0, 0.0, 0.0, 1.6480860820387669E9, 0.0, 2022-03-23 20:41:22.038
7.0, 10.628795674070716, 16.04791070986539, 24.709519007243216, 18.205832984298468, -0.12800000607967377, 0.0, 0.0, 0.0, 0.0, 0.0, 0.0, 0.0, 1.6480860820394855E9, 0.0, 2022-03-23 20:41:22.039
7.0, 3.021839164197445, 16.272304707206786, 16.47425930481404, 11.440353964455426, -0.12800000607967377, 0.0, 0.0, 0.0, 0.0, 0.0, 0.0, 0.0, 1.6480860820394855E9, 0.0, 2022-03-23 20:41:22.039
8.0, 3.9231550535187125, 11.848003059625626, 16.50791840441525, 1.4398614829406142, -0.12800000607967377, 0.0, 0.0, 0.0, 0.0, 0.0, 0.0, 0.0, 1.6480860820530205E9, 0.0, 2022-03-23 20:41:22.053
8.0, 10.587656774558127, 15.793597512878478, 31.45629852730781, 15.976852610707283, -0.12800000607967377, 0.0, 0.0, 0.0, 0.0, 0.0, 0.0, 0.0, 1.6480860820530205E9, 0.0, 2022-03-23 20:41:22.053
9.0, 20.685386654920876, 20.629288155585527, 37.42891875654459, 16.380761805921793, -0.12800000607967377, 0.0, 0.0, 0.0, 0.0, 0.0, 0.0, 0.0, 1.6480860820687792E9, 0.0, 2022-03-23 20:41:22.068
9.0, 7.573297410272062, 16.597676003351808, 26.411173487082124, 11.724586361087859, -0.12800000607967377, 0.0, 0.0, 0.0, 0.0, 0.0, 0.0, 0.0, 1.6480860820687792E9, 0.0, 2022-03-23 20:41:22.068
10.0, 10.643755273893476, 19.31284337118268, 22.48053863365203, 17.577529791742563, -0.12800000607967377, 0.0, 1.008000047877431, 0.0, 0.0, 0.0, 0.0, 0.0, 1.6480860820695007E9, 0.0, 2022-03-23 20:41:22.069
10.0, 28.18762596603483, 25.173266601748765, 20.674166955053806, 19.574636368080974, -0.12800000607967377, 0.0, 1.008000047877431, 0.0, 0.0, 0.0, 0.0, 0.0, 1.6480860820695007E9, 0.0, 2022-03-23 20:41:22.069
11.0, -4.072751051746309, 19.533497468568385, 17.035244298167527, 9.67512118536979, -0.12800000607967377, 0.09600000455975533, 1.008000047877431, 0.0, 0.0, 0.0, 0.0, 0.0, 1.6480860820830224E9, 0.0, 2022-03-23 20:41:22.083
11.0, 8.010865705087781, 20.341315858997405, 31.142146931029856, 18.45640628132969, -0.12800000607967377, 0.09600000455975533, 1.008000047877431, 0.0, 0.0, 0.0, 0.0, 0.0, 1.6480860820830224E9, 0.0, 2022-03-23 20:41:22.083
12.0, 18.246971883811057, 23.41177372261882, 18.736898778006434, 20.13936126139015, -0.144000006839633, 0.09600000455975533, 1.008000047877431, 0.0, 0.0, 0.0, 0.0, 0.0, 1.64808608209873E9, 0.0, 2022-03-23 20:41:22.098
12.0, 14.963339722715318, 18.85283567663282, 18.781777577474713, 18.000138486735523, -0.144000006839633, 0.09600000455975533, 1.008000047877431, 0.0, 0.0, 0.0, 0.0, 0.0, 1.64808608209873E9, 0.0, 2022-03-23 20:41:22.098
13.0, 12.85403614770621, 20.042123862542212, 23.565109620802104, 10.999045769684017, -0.144000006839633, 0.09600000455975533, 1.008000047877431, 0.0, 0.0, 0.0, 0.0, 0.0, 1.6480860820995097E9, 0.0, 2022-03-23 20:41:22.099
13.0, 19.211866072379053, 18.033797586336732, 27.75005767121911, 17.828103088773787, -0.144000006839633, 0.09600000455975533, 1.008000047877431, 0.0, 0.0, 0.0, 0.0, 0.0, 1.6480860820995097E9, 0.0, 2022-03-23 20:41:22.099
14.0, 16.317183506675065, 24.761877606622875, 30.887833734042943, 19.099669073708355, -0.144000006839633, 0.09600000455975533, 1.008000047877431, 0.0, 0.0, 0.0, 0.0, 0.0, 1.6480860821130211E9, 0.0, 2022-03-23 20:41:22.113
14.0, 5.62480953335762, 21.560523244552314, 28.733651359565556, 15.980592510662973, -0.144000006839633, 0.09600000455975533, 1.008000047877431, 0.0, 0.0, 0.0, 0.0, 0.0, 1.6480860821130211E9, 0.0, 2022-03-23 20:41:22.113
15.0, 12.734359349124134, 19.828949565067887, 27.125494378618896, 20.09822236187756, -0.144000006839633, 0.09600000455975533, 1.008000047877431, 0.0, 0.0, 0.0, 0.0, 0.0, 1.6480860821287353E9, 0.0, 2022-03-23 20:41:22.128
15.0, 25.81652939412743, 27.443385874852538, 20.614328555762768, 18.90893417596817, -0.144000006839633, 0.09600000455975533, 1.008000047877431, 0.0, 0.0, 0.0, 0.0, 0.0, 1.6480860821287353E9, 0.0, 2022-03-23 20:41:22.128
16.0, 18.303070383146405, 25.70807229541242, 26.381254287436604, 16.95296649914235, -0.144000006839633, 0.09600000455975533, 1.008000047877431, 0.0, 0.0, 0.0, 0.0, 0.0, 1.6480860821294692E9, 0.0, 2022-03-23 20:41:22.129
16.0, 15.70010001398623, 21.496944945305586, 28.774790259078145, 16.54905730392784, -0.144000006839633, 0.09600000455975533, 1.008000047877431, 0.0, 0.0, 0.0, 0.0, 0.0, 1.6480860821294692E9, 0.0, 2022-03-23 20:41:22.129
17.0, 14.155521332286298, 34.92692568618804, 20.389934558421373, 22.20378603693098, -0.144000006839633, 0.09600000455975533, 1.008000047877431, 0.0, 0.0, 0.0, 0.0, 0.0, 1.6480860821430032E9, 0.0, 2022-03-23 20:41:22.143
17.0, 7.25540591403842, 29.092681755311787, 16.186287008225918, 11.761985360644758, -0.144000006839633, 0.09600000455975533, 1.008000047877431, 0.0, 0.0, 0.0, 0.0, 0.0, 1.6480860821430032E9, 0.0, 2022-03-23 20:41:22.143
18.0, -3.863316654227674, 20.808803353458643, 24.94513270445168, 12.251912254840136, -0.144000006839633, 0.09600000455975533, 1.008000047877431, 0.0, 0.0, 0.0, 0.0, 0.0, 1.6480860821587253E9, 0.0, 2022-03-23 20:41:22.158
18.0, 17.65980759076774, 24.54870330914855, 29.459191950969398, 21.915813740342855, -0.144000006839633, 0.09600000455975533, 1.008000047877431, 0.0, 0.0, 0.0, 0.0, 0.0, 1.6480860821587253E9, 0.0, 2022-03-23 20:41:22.158
19.0, 30.902793333865702, 31.927525921724737, 47.97543663159013, 29.889280445873737, -0.144000006839633, 0.09600000455975533, 1.008000047877431, 0.0, 0.0, 0.0, 0.0, 0.0, 1.6480860821595075E9, 0.0, 2022-03-23 20:41:22.159
19.0, 21.7512581422925, 32.15565981902182, 43.88024618010968, 19.451219669543207, -0.144000006839633, 0.09600000455975533, 1.008000047877431, 0.0, 0.0, 0.0, 0.0, 0.0, 1.6480860821595075E9, 0.0, 2022-03-23 20:41:22.159
20.0, 18.239492083899677, 36.392966468818486, 48.28958822786808, 27.81737587042153, -0.144000006839633, 0.09600000455975533, 1.008000047877431, 0.0, 0.0, 0.0, 0.0, 0.0, 1.6480860821730256E9, 0.0, 2022-03-23 20:41:22.173
20.0, 26.747764483094215, 31.463778327219188, 35.12514038383961, 22.312243135645986, -0.144000006839633, 0.09600000455975533, 1.008000047877431, 0.0, 0.0, 0.0, 0.0, 0.0, 1.6480860821730256E9, 0.0, 2022-03-23 20:41:22.173
21.0, 9.087956892326474, 36.89411306288093, 35.985317373648286, 19.870088464580476, -0.144000006839633, 0.09600000455975533, 1.008000047877431, 0.0, 0.0, 0.0, 0.0, 0.0, 1.6480860821888084E9, 0.0, 2022-03-23 20:41:22.188
21.0, 17.26337819546461, 43.36787988618016, 46.69265094678849, 34.26870329398662, -0.144000006839633, 0.09600000455975533, 1.008000047877431, 0.0, 0.0, 0.0, 0.0, 0.0, 1.6480860821888084E9, 0.0, 2022-03-23 20:41:22.188
22.0, 29.631227348931134, 35.36823388095945, 43.07242778968066, 30.083755243569613, -0.144000006839633, 0.09600000455975533, 1.008000047877431, 0.0, 0.0, 0.0, 0.0, 0.0, 1.648086082189481E9, 0.0, 2022-03-23 20:41:22.189
22.0, 6.466287023387849, 27.641600572504103, 19.870088464580476, 13.530958039686084, -0.144000006839633, 0.09600000455975533, 1.008000047877431, 0.0, 0.0, 0.0, 0.0, 0.0, 1.648086082189481E9, 0.0, 2022-03-23 20:41:22.189
23.0, 5.520092334598303, 38.7603231407702, 12.753058848902583, 3.751119655556977, -0.144000006839633, 0.09600000455975533, 1.008000047877431, 0.0, 0.0, 0.0, 0.0, 0.0, 1.6480860822030368E9, 0.0, 2022-03-23 20:41:22.203
23.0, 33.161692907102406, 41.80460170470178, 41.90557900350541, 26.773943782784045, -0.144000006839633, 0.09600000455975533, 1.008000047877431, 0.0, 0.0, 0.0, 0.0, 0.0, 1.6480860822030368E9, 0.0, 2022-03-23 20:41:22.203
24.0, 16.702393202111125, 24.253251212649047, 42.78445549309254, 19.929926863871515, -0.144000006839633, 0.09600000455975533, 1.008000047877431, 0.0, 0.0, 0.0, 0.0, 0.0, 1.648086082218721E9, 0.0, 2022-03-23 20:41:22.218
24.0, 6.305471325293183, 24.814236206002533, 39.55692183133215, 14.196660231798887, -0.144000006839633, 0.09600000455975533, 1.008000047877431, 0.0, 0.0, 0.0, 0.0, 0.0, 1.648086082218721E9, 0.0, 2022-03-23 20:41:22.218
25.0, 27.465825274586678, 38.464871044270694, 43.42023848555982, 23.183639825321734, -0.144000006839633, 0.09600000455975533, 1.008000047877431, 0.0, 0.0, 0.0, 0.0, 0.0, 1.6480860822195456E9, 0.0, 2022-03-23 20:41:22.219
25.0, 35.71230467688292, 45.41360516194254, 48.56634082458913, 23.71844551898539, -0.144000006839633, 0.09600000455975533, 1.008000047877431, 0.0, 0.0, 0.0, 0.0, 0.0, 1.6480860822195456E9, 0.0, 2022-03-23 20:41:22.219
26.0, 21.68020004313439, 41.49419000837952, 52.70267017558217, 22.86948822904378, -0.144000006839633, 0.09600000455975533, 1.008000047877431, 0.0, 0.0, 0.0, 0.0, 0.0, 1.6480860822330253E9, 0.0, 2022-03-23 20:41:22.233
26.0, 15.543024215847254, 29.470411650836468, 48.40552512649447, 29.533989950083196, -0.144000006839633, 0.09600000455975533, 1.008000047877431, 0.0, 0.0, 0.0, 0.0, 0.0, 1.6480860822330253E9, 0.0, 2022-03-23 20:41:22.233
27.0, 20.54327045660466, 26.16434009000659, 31.130927231162786, 22.19256633706391, -0.144000006839633, 0.09600000455975533, 1.008000047877431, 0.0, 0.0, 0.0, 0.0, 0.0, 1.6480860822489755E9, 0.0, 2022-03-23 20:41:22.248
27.0, 18.699499778449535, 45.55198146030307, 30.483924538828433, 20.17302036099136, -0.144000006839633, 0.09600000455975533, 1.008000047877431, 0.0, 0.0, 0.0, 0.0, 0.0, 1.6480860822489755E9, 0.0, 2022-03-23 20:41:22.248
28.0, 15.180253920145333, 47.59396683610976, 28.11282796692103, 19.436260069720447, -0.144000006839633, 0.09600000455975533, 1.008000047877431, 0.0, 0.0, 0.0, 0.0, 0.0, 1.6480860822495167E9, 0.0, 2022-03-23 20:41:22.249
28.0, 13.362662541680038, 32.59696801379323, 24.99749130383134, 15.546764115802944, -0.144000006839633, 0.09600000455975533, 1.008000047877431, 0.0, 0.0, 0.0, 0.0, 0.0, 1.6480860822495167E9, 0.0, 2022-03-23 20:41:22.249
29.0, 42.851773692294955, 34.22382449451834, 34.57537509035319, 18.673320478759706, -0.144000006839633, 0.09600000455975533, 1.008000047877431, 0.0, 0.0, 0.0, 0.0, 0.0, 1.648086082263122E9, 0.0, 2022-03-23 20:41:22.263
29.0, 17.69346669036895, 34.410819492302835, 36.73329736478627, 6.069857628084719, -0.144000006839633, 0.09600000455975533, 1.008000047877431, 0.0, 0.0, 0.0, 0.0, 0.0, 1.648086082263122E9, 0.0, 2022-03-23 20:41:22.263
30.0, 17.147441296838224, 31.691912224516273, 41.12020001281053, 17.71964599005878, -0.144000006839633, 0.09600000455975533, 0.9920000471174717, 0.0, 0.0, 0.0, 0.0, 0.0, 1.6480860822788155E9, 0.0, 2022-03-23 20:41:22.278
30.0, 17.64484799094498, 3.100377063266933, 13.089649844914675, 12.831596747972071, -0.144000006839633, 0.09600000455975533, 0.9920000471174717, 0.0, 0.0, 0.0, 0.0, 0.0, 1.6480860822788155E9, 0.0, 2022-03-23 20:41:22.278
31.0, 6.294251625426114, 22.865748329088092, 33.76007690001279, 12.214513255283237, -0.144000006839633, 0.09600000455975533, 0.9920000471174717, 0.0, 0.0, 0.0, 0.0, 0.0, 1.6480860822795131E9, 0.0, 2022-03-23 20:41:22.279
31.0, 13.444940340705216, 45.58938045985997, 30.16603304259479, 19.054790274240077, -0.144000006839633, 0.09600000455975533, 0.9920000471174717, 0.0, 0.0, 0.0, 0.0, 0.0, 1.6480860822795131E9, 0.0, 2022-03-23 20:41:22.279
32.0, 22.57029623258859, 46.5767140481621, 25.599615196697414, 18.725679078139365, -0.12800000607967377, 0.09600000455975533, 0.9920000471174717, 0.0, 0.0, 0.0, 0.0, 0.0, 1.6480860822930813E9, 0.0, 2022-03-23 20:41:22.293
32.0, 18.658360878936946, 34.769849888049066, 32.95973830949515, 16.769711401313543, -0.12800000607967377, 0.09600000455975533, 0.9920000471174717, 0.0, 0.0, 0.0, 0.0, 0.0, 1.6480860822930813E9, 0.0, 2022-03-23 20:41:22.293
33.0, 10.83449017163366, 35.04660248477012, 36.65475946571678, 16.219946107827127, -0.12800000607967377, 0.09600000455975533, 0.9920000471174717, 0.0, 0.0, 0.0, 0.0, 0.0, 1.6480860823089013E9, 0.0, 2022-03-23 20:41:22.308
33.0, 21.863455140963197, 34.72871098853648, 15.845956112258136, 6.713120420463383, -0.12800000607967377, 0.09600000455975533, 0.9920000471174717, 0.0, 0.0, 0.0, 0.0, 0.0, 1.6480860823089013E9, 0.0, 2022-03-23 20:41:22.308
34.0, 27.458345474675298, 33.614220801740885, 19.70179296657443, 12.940053846687078, -0.12800000607967377, 0.09600000455975533, 0.9920000471174717, 0.0, 0.0, 0.0, 0.0, 0.0, 1.6480860823095336E9, 0.0, 2022-03-23 20:41:22.309
34.0, 13.242985743097961, 34.425779092125595, 42.16363210044801, 16.06287030968815, -0.12800000607967377, 0.09600000455975533, 0.9920000471174717, 0.0, 0.0, 0.0, 0.0, 0.0, 1.6480860823095336E9, 0.0, 2022-03-23 20:41:22.309
35.0, 35.259776782244444, 55.47393604274839, 67.4378760010004, 32.25289721786976, -0.12800000607967377, 0.09600000455975533, 0.9920000471174717, 0.0, 0.0, 0.0, 0.0, 0.0, 1.6480860823230836E9, 0.0, 2022-03-23 20:41:22.323
35.0, 29.72846474777907, 52.77746817469597, 46.99184294324368, 23.77828391827643, -0.12800000607967377, 0.09600000455975533, 0.9920000471174717, 0.0, 0.0, 0.0, 0.0, 0.0, 1.6480860823230836E9, 0.0, 2022-03-23 20:41:22.323
36.0, 30.386687139980495, 46.842246945016086, 37.47753745596856, 25.33034239988774, -0.12800000607967377, 0.09600000455975533, 0.9920000471174717, 0.0, 0.0, 0.0, 0.0, 0.0, 1.648086082338777E9, 0.0, 2022-03-23 20:41:22.338
36.0, 25.40140049904585, 42.021515902131796, 37.06988836079836, 25.214405501261353, -0.12800000607967377, 0.09600000455975533, 0.9920000471174717, 0.0, 0.0, 0.0, 0.0, 0.0, 1.648086082338777E9, 0.0, 2022-03-23 20:41:22.338
37.0, 25.36400149948895, 45.85865325666964, 34.392119992524385, 19.817729865200818, -0.12800000607967377, 0.09600000455975533, 0.9920000471174717, 0.0, 0.0, 0.0, 0.0, 0.0, 1.648086082339491E9, 0.0, 2022-03-23 20:41:22.339
37.0, 23.183639825321734, 53.345932967960835, 33.10559440776706, 21.78117734193802, -0.12800000607967377, 0.09600000455975533, 0.9920000471174717, 0.0, 0.0, 0.0, 0.0, 0.0, 1.648086082339491E9, 0.0, 2022-03-23 20:41:22.339
38.0, 23.939099616371095, 50.37645240314305, 36.13491337187588, 24.94887260440737, -0.12800000607967377, 0.09600000455975533, 0.9920000471174717, 0.0, 0.0, 0.0, 0.0, 0.0, 1.648086082353084E9, 0.0, 2022-03-23 20:41:22.353
38.0, 19.462439369410276, 44.32155437488109, 37.44761825632304, 20.689126554876566, -0.12800000607967377, 0.09600000455975533, 0.9920000471174717, 0.0, 0.0, 0.0, 0.0, 0.0, 1.648086082353084E9, 0.0, 2022-03-23 20:41:22.353
39.0, 14.626748726703227, 49.80798760987818, 37.982423949986696, 14.671627526171505, -0.12800000607967377, 0.09600000455975533, 0.9920000471174717, 0.0, 0.0, 0.0, 0.0, 0.0, 1.6480860823687878E9, 0.0, 2022-03-23 20:41:22.368
39.0, 26.605648284778, 40.60783371888101, 27.996891068294644, 24.249511312693357, -0.12800000607967377, 0.09600000455975533, 0.9920000471174717, 0.0, 0.0, 0.0, 0.0, 0.0, 1.6480860823687878E9, 0.0, 2022-03-23 20:41:22.368
40.0, 41.80460170470178, 45.286448563449085, 43.99618307873607, 26.5308502856642, -0.12800000607967377, 0.09600000455975533, 1.008000047877431, 0.0, 0.0, 0.0, 0.0, 0.0, 1.6480860823695476E9, 0.0, 2022-03-23 20:41:22.369
40.0, 20.90230085235089, 27.42468637507409, 29.84440164640546, 15.060577121563256, -0.12800000607967377, 0.09600000455975533, 1.008000047877431, 0.0, 0.0, 0.0, 0.0, 0.0, 1.6480860823695476E9, 0.0, 2022-03-23 20:41:22.369
41.0, 7.838830307126045, 10.782131572254002, 9.619022686034441, 4.798291643150151, -0.12800000607967377, 0.09600000455975533, 1.008000047877431, 0.0, 0.0, 0.0, 0.0, 0.0, 1.6480860823830829E9, 0.0, 2022-03-23 20:41:22.383
41.0, -11.313197365961969, -1.488480182364583, -5.707087332382798, -2.1205232748761773, -0.12800000607967377, 0.09600000455975533, 1.008000047877431, 0.0, 0.0, 0.0, 0.0, 0.0, 1.6480860823830829E9, 0.0, 2022-03-23 20:41:22.383
42.0, 0.2617929968982935, 8.45591379981488, 0.6619622921571136, -1.492220082320273, -0.12800000607967377, 0.09600000455975533, 1.008000047877431, 0.0, 0.0, 0.0, 0.0, 0.0, 1.6480860823984635E9, 0.0, 2022-03-23 20:41:22.398
42.0, 7.221746814437211, 8.489572899416089, 6.316691025160253, 0.643262792378664, -0.12800000607967377, 0.09600000455975533, 1.008000047877431, 0.0, 0.0, 0.0, 0.0, 0.0, 1.6480860823984635E9, 0.0, 2022-03-23 20:41:22.398
43.0, 0.07479799911379814, 6.608403221704066, 6.013759128749371, 1.9597075767815113, -0.12800000607967377, 0.09600000455975533, 1.008000047877431, 0.0, 0.0, 0.0, 0.0, 0.0, 1.6480860824137173E9, 0.0, 2022-03-23 20:41:22.413
43.0, -0.10097729880362749, 2.258899573236704, -1.970927276648581, -3.3621700601652265, -0.12800000607967377, 0.09600000455975533, 1.008000047877431, 0.0, 0.0, 0.0, 0.0, 0.0, 1.6480860824137173E9, 0.0, 2022-03-23 20:41:22.413
44.0, -12.46134665235877, -6.978653317317367, -14.619268926791847, -11.526371663436294, -0.12800000607967377, 0.09600000455975533, 1.008000047877431, 0.0, 0.0, 0.0, 0.0, 0.0, 1.6480860824145083E9, 0.0, 2022-03-23 20:41:22.414
44.0, -16.10774910915643, -3.104116963222623, -11.821823759935796, -13.628195438534021, -0.12800000607967377, 0.09600000455975533, 1.008000047877431, 0.0, 0.0, 0.0, 0.0, 0.0, 1.6480860824145083E9, 0.0, 2022-03-23 20:41:22.414
45.0, -9.27495189011097, 5.407895335927606, -22.94428622815758, -13.127048844471574, -0.12800000607967377, 0.09600000455975533, 1.008000047877431, 0.0, 0.0, 0.0, 0.0, 0.0, 1.6480860824287295E9, 0.0, 2022-03-23 20:41:22.428
45.0, -1.7353135794401169, 21.807356641627848, -7.520938810892403, -10.367002677172422, -0.12800000607967377, 0.09600000455975533, 1.008000047877431, 0.0, 0.0, 0.0, 0.0, 0.0, 1.6480860824287295E9, 0.0, 2022-03-23 20:41:22.428
46.0, -14.985779122449458, 20.13562136143446, 7.64061560947448, -6.4176683239638805, -0.12800000607967377, 0.09600000455975533, 1.008000047877431, 0.0, 0.0, 0.0, 0.0, 0.0, 1.6480860824295244E9, 0.0, 2022-03-23 20:41:22.429
46.0, -9.989272781647742, 21.425886846147478, 18.05997688602656, -7.098330115899444, -0.12800000607967377, 0.09600000455975533, 1.008000047877431, 0.0, 0.0, 0.0, 0.0, 0.0, 1.6480860824295244E9, 0.0, 2022-03-23 20:41:22.429
47.0, 6.997352817095816, 21.68393994309008, 25.954905692487955, -0.8938360894098878, -0.12800000607967377, 0.09600000455975533, 1.008000047877431, 0.0, 0.0, 0.0, 0.0, 0.0, 1.6480860824431393E9, 0.0, 2022-03-23 20:41:22.443
47.0, 8.612989597953856, 21.418407046236098, 25.034890303388238, -9.028118493035436, -0.12800000607967377, 0.09600000455975533, 1.008000047877431, 0.0, 0.0, 0.0, 0.0, 0.0, 1.6480860824431393E9, 0.0, 2022-03-23 20:41:22.443
48.0, 10.172527879476547, 25.569695997051895, 20.345055758953094, -13.852589435875416, -0.12800000607967377, 0.09600000455975533, 1.008000047877431, 0.0, 0.0, 0.0, 0.0, 0.0, 1.6480860824587245E9, 0.0, 2022-03-23 20:41:22.458
48.0, 9.26747209019959, 28.737391259521246, 30.439045739360154, -6.997352817095816, -0.12800000607967377, 0.09600000455975533, 1.008000047877431, 0.0, 0.0, 0.0, 0.0, 0.0, 1.6480860824587245E9, 0.0, 2022-03-23 20:41:22.458
49.0, 10.942947270348668, 18.224532484076917, 16.223686007782817, -21.36604844685644, -0.12800000607967377, 0.09600000455975533, 1.008000047877431, 0.0, 0.0, 0.0, 0.0, 0.0, 1.6480860824594607E9, 0.0, 2022-03-23 20:41:22.459
49.0, 23.191119625233114, 38.55836854316294, 31.160846430808306, -13.2654251428321, -0.12800000607967377, 0.09600000455975533, 1.008000047877431, 0.0, 0.0, 0.0, 0.0, 0.0, 1.6480860824594607E9, 0.0, 2022-03-23 20:41:22.459
50.0, 16.51165830437094, 49.303101115860045, 43.92512497957796, -13.115829144604504, -0.12800000607967377, 0.09600000455975533, 1.008000047877431, 0.0, 0.0, 0.0, 0.0, 0.0, 1.64808608247305E9, 0.0, 2022-03-23 20:41:22.473
50.0, 6.511165822856128, 42.088834101334214, 30.18099264241755, -18.56112348008901, -0.12800000607967377, 0.09600000455975533, 1.008000047877431, 0.0, 0.0, 0.0, 0.0, 0.0, 1.64808608247305E9, 0.0, 2022-03-23 20:41:22.473
51.0, 12.135975356213748, 38.61446704249829, 39.49334353208542, -15.28497111890465, -0.12800000607967377, 0.11200000531971455, 1.008000047877431, 0.0, 0.0, 0.0, 0.0, 0.0, 1.6480860824887242E9, 0.0, 2022-03-23 20:41:22.488
51.0, 37.88892645109445, 61.61111187003553, 65.32109262607992, 16.04791070986539, -0.12800000607967377, 0.11200000531971455, 1.008000047877431, 0.0, 0.0, 0.0, 0.0, 0.0, 1.6480860824887242E9, 0.0, 2022-03-23 20:41:22.488
52.0, 33.26641010586172, 63.04349355306476, 60.03661398869008, 25.74173139501363, -0.12800000607967377, 0.11200000531971455, 1.008000047877431, 0.0, 0.0, 0.0, 0.0, 0.0, 1.6480860824895055E9, 0.0, 2022-03-23 20:41:22.489
52.0, 43.95130427926779, 68.61968438699841, 64.19538273941725, 31.987364321015775, -0.12800000607967377, 0.11200000531971455, 1.008000047877431, 0.0, 0.0, 0.0, 0.0, 0.0, 1.6480860824895055E9, 0.0, 2022-03-23 20:41:22.489
53.0, 68.15967669244856, 86.98259316943586, 80.71452084369957, 58.7313889041543, -0.12800000607967377, 0.11200000531971455, 1.008000047877431, 0.0, 0.0, 0.0, 0.0, 0.0, 1.648086082503059E9, 0.0, 2022-03-23 20:41:22.503
53.0, 86.3355904771015, 117.17106561176479, 115.52924953121692, 88.01854545716196, -0.12800000607967377, 0.11200000531971455, 1.008000047877431, 0.0, 0.0, 0.0, 0.0, 0.0, 1.648086082503059E9, 0.0, 2022-03-23 20:41:22.503
54.0, 158.52687932178378, 209.88318551331758, 201.48337021283805, 150.52723331656307, -0.12800000607967377, 0.11200000531971455, 1.008000047877431, 0.0, 0.0, 0.0, 0.0, 0.0, 1.6480860825187404E9, 0.0, 2022-03-23 20:41:22.518
54.0, 182.24158494081348, 250.94354712683707, 239.12546326685697, 164.91462844610214, -0.12800000607967377, 0.11200000531971455, 1.008000047877431, 0.0, 0.0, 0.0, 0.0, 0.0, 1.6480860825187404E9, 0.0, 2022-03-23 20:41:22.518
55.0, 196.26994967460632, 267.1373139349744, 271.52421658299863, 163.8562367586419, -0.12800000607967377, 0.11200000531971455, 1.008000047877431, 0.0, 0.0, 0.0, 0.0, 0.0, 1.6480860825194092E9, 0.0, 2022-03-23 20:41:22.519
55.0, 212.65071148052812, 293.26425502542406, 299.5098879514262, 174.90764112770557, -0.12800000607967377, 0.11200000531971455, 1.008000047877431, 0.0, 0.0, 0.0, 0.0, 0.0, 1.6480860825194092E9, 0.0, 2022-03-23 20:41:22.519
56.0, 211.90273148939013, 300.1007921444252, 302.0006613219157, 204.8044013734907, -0.12800000607967377, 0.11200000531971455, 1.008000047877431, 0.0, 0.0, 0.0, 0.0, 0.0, 1.6480860825330515E9, 0.0, 2022-03-23 20:41:22.533
56.0, 231.49232745729387, 307.12432426121086, 312.01237350329757, 251.17542092408985, -0.12800000607967377, 0.11200000531971455, 1.008000047877431, 0.0, 0.0, 0.0, 0.0, 0.0, 1.6480860825330515E9, 0.0, 2022-03-23 20:41:22.533
57.0, 214.44960335921496, 299.63704454991966, 305.5834854794666, 233.12292383797467, -0.12800000607967377, 0.11200000531971455, 1.008000047877431, 0.0, 0.0, 0.0, 0.0, 0.0, 1.648086082548735E9, 0.0, 2022-03-23 20:41:22.548
57.0, 214.25886846147478, 297.2996070776135, 286.03876831103116, 209.11650602240115, -0.12800000607967377, 0.11200000531971455, 1.008000047877431, 0.0, 0.0, 0.0, 0.0, 0.0, 1.648086082548735E9, 0.0, 2022-03-23 20:41:22.548
58.0, 215.2836010493338, 290.732342755422, 290.2947744606063, 205.73937636241317, -0.12800000607967377, 0.11200000531971455, 1.008000047877431, 0.0, 0.0, 0.0, 0.0, 0.0, 1.648086082549521E9, 0.0, 2022-03-23 20:41:22.549
58.0, 211.99622898828238, 301.60049202665687, 295.59795259777457, 197.54525555949658, -0.12800000607967377, 0.11200000531971455, 1.008000047877431, 0.0, 0.0, 0.0, 0.0, 0.0, 1.648086082549521E9, 0.0, 2022-03-23 20:41:22.549
59.0, 214.44586345925927, 290.86323925387114, 288.5033623818308, 184.65756031218916, -0.12800000607967377, 0.11200000531971455, 1.008000047877431, 0.0, 0.0, 0.0, 0.0, 0.0, 1.6480860825630262E9, 0.0, 2022-03-23 20:41:22.563
59.0, 244.54457830265164, 293.56344702187926, 294.6592377088964, 207.32135404367, -0.12800000607967377, 0.11200000531971455, 1.008000047877431, 0.0, 0.0, 0.0, 0.0, 0.0, 1.6480860825630262E9, 0.0, 2022-03-23 20:41:22.563
60.0, 237.27047288883477, 293.5858864216134, 299.85769864730537, 223.61235825065523, -0.12800000607967377, 0.11200000531971455, 1.008000047877431, 0.0, 0.0, 0.0, 0.0, 0.0, 1.6480860825787342E9, 0.0, 2022-03-23 20:41:22.578
60.0, 235.38182341121137, 298.9115039585158, 295.7325889961794, 219.18431670311838, -0.12800000607967377, 0.11200000531971455, 1.008000047877431, 0.0, 0.0, 0.0, 0.0, 0.0, 1.6480860825787342E9, 0.0, 2022-03-23 20:41:22.578
61.0, 222.07525936886668, 294.55826041009277, 309.4468021336943, 219.00106160528958, -0.12800000607967377, 0.09600000455975533, 1.008000047877431, 0.0, 0.0, 0.0, 0.0, 0.0, 1.6480860825795817E9, 0.0, 2022-03-23 20:41:22.579
61.0, 225.59824512712657, 290.26111536100507, 301.37983792927116, 221.87704467121512, -0.12800000607967377, 0.09600000455975533, 1.008000047877431, 0.0, 0.0, 0.0, 0.0, 0.0, 1.6480860825795817E9, 0.0, 2022-03-23 20:41:22.579
62.0, 226.86607121210545, 286.6259326040745, 302.82717921212316, 214.81985345482826, -0.11200000531971455, 0.09600000455975533, 1.008000047877431, 0.0, 0.0, 0.0, 0.0, 0.0, 1.6480860825930266E9, 0.0, 2022-03-23 20:41:22.593
62.0, 241.7845321353525, 292.55741393379867, 305.8938971757889, 230.5910115679726, -0.11200000531971455, 0.09600000455975533, 1.008000047877431, 0.0, 0.0, 0.0, 0.0, 0.0, 1.6480860825930266E9, 0.0, 2022-03-23 20:41:22.593
63.0, 224.07610584516078, 279.901592483744, 304.1548436963931, 227.9282027995214, -0.11200000531971455, 0.09600000455975533, 1.008000047877431, 0.0, 0.0, 0.0, 0.0, 0.0, 1.6480860826087823E9, 0.0, 2022-03-23 20:41:22.608
63.0, 224.7717272369191, 285.1337125217542, 316.46285445056856, 231.1856556609273, -0.11200000531971455, 0.09600000455975533, 1.008000047877431, 0.0, 0.0, 0.0, 0.0, 0.0, 1.6480860826087823E9, 0.0, 2022-03-23 20:41:22.608
64.0, 220.79247368406504, 287.886278889142, 299.4388298522681, 225.9572755228728, -0.11200000531971455, 0.09600000455975533, 1.008000047877431, 0.0, 0.0, 0.0, 0.0, 0.0, 1.6480860826094787E9, 0.0, 2022-03-23 20:41:22.609
64.0, 216.22979573812336, 281.66682526282966, 305.7293415777385, 227.13908390887082, -0.11200000531971455, 0.09600000455975533, 1.008000047877431, 0.0, 0.0, 0.0, 0.0, 0.0, 1.6480860826094787E9, 0.0, 2022-03-23 20:41:22.609
65.0, 225.06343943346292, 277.6800919100642, 307.68156935460865, 232.67413584329188, -0.11200000531971455, 0.09600000455975533, 1.008000047877431, 0.0, 0.0, 0.0, 0.0, 0.0, 1.648086082623058E9, 0.0, 2022-03-23 20:41:22.623
65.0, 229.1848091846332, 277.93440510705113, 304.26704069506377, 222.94291615858674, -0.11200000531971455, 0.09600000455975533, 1.008000047877431, 0.0, 0.0, 0.0, 0.0, 0.0, 1.648086082623058E9, 0.0, 2022-03-23 20:41:22.623
66.0, 217.55372032243758, 278.74970329739153, 292.7743281312287, 218.27926091384143, -0.11200000531971455, 0.09600000455975533, 1.008000047877431, 0.0, 0.0, 0.0, 0.0, 0.0, 1.6480860826387684E9, 0.0, 2022-03-23 20:41:22.638
66.0, 210.48530940618366, 269.95719850156456, 294.49842201080173, 220.26140789035708, -0.11200000531971455, 0.09600000455975533, 1.008000047877431, 0.0, 0.0, 0.0, 0.0, 0.0, 1.6480860826387684E9, 0.0, 2022-03-23 20:41:22.638
67.0, 214.76001505553722, 271.0193300889805, 284.9579372238368, 212.51981498207897, -0.11200000531971455, 0.09600000455975533, 1.008000047877431, 0.0, 0.0, 0.0, 0.0, 0.0, 1.648086082639466E9, 0.0, 2022-03-23 20:41:22.639
67.0, 221.4058172767982, 257.8212231453508, 290.53038815781474, 216.81696003116667, -0.11200000531971455, 0.09600000455975533, 1.008000047877431, 0.0, 0.0, 0.0, 0.0, 0.0, 1.648086082639466E9, 0.0, 2022-03-23 20:41:22.639
68.0, 208.42462453059852, 259.10400883015245, 274.4600380482152, 202.21265070419759, -0.11200000531971455, 0.09600000455975533, 1.008000047877431, 0.0, 0.0, 0.0, 0.0, 0.0, 1.6480860826530907E9, 0.0, 2022-03-23 20:41:22.653
68.0, 205.96377035975456, 267.4514655312523, 279.32938779052347, 210.3581528076902, -0.11200000531971455, 0.09600000455975533, 1.008000047877431, 0.0, 0.0, 0.0, 0.0, 0.0, 1.6480860826530907E9, 0.0, 2022-03-23 20:41:22.653
69.0, 208.6901574274525, 257.1143820537254, 279.84923388436437, 209.2885414203629, -0.11200000531971455, 0.09600000455975533, 1.008000047877431, 0.0, 0.0, 0.0, 0.0, 0.0, 1.6480860826687293E9, 0.0, 2022-03-23 20:41:22.668
69.0, 196.2400304749608, 249.8627160396427, 275.55956863518804, 196.67011896986514, -0.11200000531971455, 0.09600000455975533, 1.008000047877431, 0.0, 0.0, 0.0, 0.0, 0.0, 1.6480860826687293E9, 0.0, 2022-03-23 20:41:22.668
70.0, 210.4703498063609, 256.9685259554535, 284.71110382676125, 209.33342021983117, -0.11200000531971455, 0.09600000455975533, 1.008000047877431, 0.0, 0.0, 0.0, 0.0, 0.0, 1.648086082669494E9, 0.0, 2022-03-23 20:41:22.669
70.0, 187.71305857598782, 243.54602501448244, 260.5663097128272, 196.47564417216927, -0.11200000531971455, 0.09600000455975533, 1.008000047877431, 0.0, 0.0, 0.0, 0.0, 0.0, 1.648086082669494E9, 0.0, 2022-03-23 20:41:22.669
71.0, 185.4204999031499, 238.24284687731415, 247.32332396972924, 184.6762598119676, -0.11200000531971455, 0.09600000455975533, 1.008000047877431, 0.0, 0.0, 0.0, 0.0, 0.0, 1.6480860826830947E9, 0.0, 2022-03-23 20:41:22.683
71.0, 202.5791608998552, 250.87622892763466, 254.90784107986838, 196.1353132762015, -0.11200000531971455, 0.09600000455975533, 1.008000047877431, 0.0, 0.0, 0.0, 0.0, 0.0, 1.6480860826830947E9, 0.0, 2022-03-23 20:41:22.683
72.0, 186.41531329136342, 231.7429007543251, 243.59090381395072, 192.57866841834038, -0.12800000607967377, 0.09600000455975533, 1.008000047877431, 0.0, 0.0, 0.0, 0.0, 0.0, 1.6480860826987317E9, 0.0, 2022-03-23 20:41:22.698
72.0, 170.57683697901666, 224.28554024267942, 229.32318548299372, 185.46537870261818, -0.12800000607967377, 0.09600000455975533, 1.008000047877431, 0.0, 0.0, 0.0, 0.0, 0.0, 1.6480860826987317E9, 0.0, 2022-03-23 20:41:22.698
73.0, 200.6119735231623, 244.7801919998601, 264.2276717694476, 219.24415510240942, -0.12800000607967377, 0.09600000455975533, 1.008000047877431, 0.0, 0.0, 0.0, 0.0, 0.0, 1.6480860826993895E9, 0.0, 2022-03-23 20:41:22.699
73.0, 189.67276615276933, 234.1513963257894, 241.1188299432397, 207.85989963728935, -0.12800000607967377, 0.09600000455975533, 1.008000047877431, 0.0, 0.0, 0.0, 0.0, 0.0, 1.6480860826993895E9, 0.0, 2022-03-23 20:41:22.699
74.0, 175.782777717337, 216.8468792308122, 228.08901849761605, 185.11382810678333, -0.12800000607967377, 0.09600000455975533, 1.008000047877431, 0.0, 0.0, 0.0, 0.0, 0.0, 1.648086082713052E9, 0.0, 2022-03-23 20:41:22.713
74.0, 184.69495931174606, 238.4822004744783, 251.06322392541915, 202.19395120441914, -0.12800000607967377, 0.09600000455975533, 1.008000047877431, 0.0, 0.0, 0.0, 0.0, 0.0, 1.648086082713052E9, 0.0, 2022-03-23 20:41:22.713
75.0, 181.17945335339755, 214.37480536010116, 235.24718701280653, 196.22133097518235, -0.12800000607967377, 0.09600000455975533, 1.008000047877431, 0.0, 0.0, 0.0, 0.0, 0.0, 1.6480860827286892E9, 0.0, 2022-03-23 20:41:22.728
75.0, 156.17448224965483, 189.81114245112985, 187.66817977651954, 166.1113964319229, -0.12800000607967377, 0.09600000455975533, 1.008000047877431, 0.0, 0.0, 0.0, 0.0, 0.0, 1.6480860827286892E9, 0.0, 2022-03-23 20:41:22.728
76.0, 150.4374757176265, 206.8800458488986, 212.45623668283224, 174.27559803519398, -0.12800000607967377, 0.09600000455975533, 1.008000047877431, 0.0, 0.0, 0.0, 0.0, 0.0, 1.6480860827294865E9, 0.0, 2022-03-23 20:41:22.729
76.0, 177.17028060089797, 239.0731046674773, 241.80323163513094, 193.30046910978854, -0.12800000607967377, 0.09600000455975533, 1.008000047877431, 0.0, 0.0, 0.0, 0.0, 0.0, 1.6480860827294865E9, 0.0, 2022-03-23 20:41:22.729
77.0, 193.83901470340788, 228.50414739269763, 239.20026126597077, 190.91441293805838, -0.12800000607967377, 0.09600000455975533, 1.008000047877431, 0.0, 0.0, 0.0, 0.0, 0.0, 1.6480860827430463E9, 0.0, 2022-03-23 20:41:22.743
77.0, 164.62665614951402, 206.55093465279788, 211.77557489089668, 178.0528969904408, -0.12800000607967377, 0.09600000455975533, 1.008000047877431, 0.0, 0.0, 0.0, 0.0, 0.0, 1.6480860827430463E9, 0.0, 2022-03-23 20:41:22.743
78.0, 153.68370887916535, 197.47045756038278, 205.79547486174852, 171.8970216633752, -0.12800000607967377, 0.09600000455975533, 1.008000047877431, 0.0, 0.0, 0.0, 0.0, 0.0, 1.6480860827587235E9, 0.0, 2022-03-23 20:41:22.758
78.0, 153.41443608235568, 202.4295649016276, 202.41834520176053, 165.4868331393227, -0.12800000607967377, 0.09600000455975533, 1.008000047877431, 0.0, 0.0, 0.0, 0.0, 0.0, 1.6480860827587235E9, 0.0, 2022-03-23 20:41:22.758
79.0, 167.5624776147306, 201.58434751164168, 204.11625978164375, 165.483093239367, -0.12800000607967377, 0.09600000455975533, 1.008000047877431, 0.0, 0.0, 0.0, 0.0, 0.0, 1.6480860827594566E9, 0.0, 2022-03-23 20:41:22.759
79.0, 155.10487086232752, 202.23883000388741, 197.41061916109174, 165.34845684096217, -0.12800000607967377, 0.09600000455975533, 1.008000047877431, 0.0, 0.0, 0.0, 0.0, 0.0, 1.6480860827594566E9, 0.0, 2022-03-23 20:41:22.759
80.0, 154.77201976627111, 207.19419744517654, 205.49254296533763, 178.59518248401582, -0.12800000607967377, 0.09600000455975533, 1.008000047877431, 0.0, 0.0, 0.0, 0.0, 0.0, 1.6480860827730436E9, 0.0, 2022-03-23 20:41:22.773
80.0, 146.97058845870197, 189.26885695755482, 197.74347025714815, 171.0106653738767, -0.12800000607967377, 0.09600000455975533, 1.008000047877431, 0.0, 0.0, 0.0, 0.0, 0.0, 1.6480860827730436E9, 0.0, 2022-03-23 20:41:22.773
81.0, 145.2502344790846, 190.84335483890027, 183.13168113026768, 168.4899728037417, -0.12800000607967377, 0.09600000455975533, 1.008000047877431, 0.0, 0.0, 0.0, 0.0, 0.0, 1.6480860827887297E9, 0.0, 2022-03-23 20:41:22.788
81.0, 158.9607077166438, 196.28864917438477, 180.80920325778425, 179.6797534711659, -0.12800000607967377, 0.09600000455975533, 1.008000047877431, 0.0, 0.0, 0.0, 0.0, 0.0, 1.6480860827887297E9, 0.0, 2022-03-23 20:41:22.788
82.0, 157.50588663388044, 208.1703113336116, 195.06944178882986, 180.1958596650511, -0.12800000607967377, 0.09600000455975533, 1.008000047877431, 0.0, 0.0, 0.0, 0.0, 0.0, 1.6480860827893863E9, 0.0, 2022-03-23 20:41:22.789
82.0, 154.76080006640404, 204.45285077765584, 193.17331251129508, 179.15242757741362, -0.12800000607967377, 0.09600000455975533, 1.008000047877431, 0.0, 0.0, 0.0, 0.0, 0.0, 1.6480860827893863E9, 0.0, 2022-03-23 20:41:22.789
83.0, 159.91064230538905, 205.19709086883813, 200.22676382772624, 182.61557493638247, -0.12800000607967377, 0.09600000455975533, 1.008000047877431, 0.0, 0.0, 0.0, 0.0, 0.0, 1.648086082803053E9, 0.0, 2022-03-23 20:41:22.803
83.0, 150.15698322094977, 193.79039600398391, 196.3484875736758, 179.3843013746664, -0.12800000607967377, 0.09600000455975533, 1.008000047877431, 0.0, 0.0, 0.0, 0.0, 0.0, 1.648086082803053E9, 0.0, 2022-03-23 20:41:22.803
84.0, 161.0737511916086, 185.18862610589713, 191.3145822333172, 174.3765753339976, -0.12800000607967377, 0.09600000455975533, 1.008000047877431, 0.0, 0.0, 0.0, 0.0, 0.0, 1.6480860828188455E9, 0.0, 2022-03-23 20:41:22.818
84.0, 145.08941878098994, 181.9049939448014, 166.01789893303066, 172.34954955801368, -0.12800000607967377, 0.09600000455975533, 1.008000047877431, 0.0, 0.0, 0.0, 0.0, 0.0, 1.6480860828188455E9, 0.0, 2022-03-23 20:41:22.818
85.0, 144.1020851926878, 177.1590609010309, 168.68818750139326, 165.90570193435997, -0.12800000607967377, 0.09600000455975533, 1.008000047877431, 0.0, 0.0, 0.0, 0.0, 0.0, 1.6480860828195062E9, 0.0, 2022-03-23 20:41:22.819
85.0, 128.51418217737228, 157.68914173170924, 161.5599381858483, 163.8898958582431, -0.12800000607967377, 0.09600000455975533, 1.008000047877431, 0.0, 0.0, 0.0, 0.0, 0.0, 1.6480860828195062E9, 0.0, 2022-03-23 20:41:22.819
86.0, 126.55447460059077, 156.90002284105867, 167.16978811938316, 165.06796434428543, -0.12800000607967377, 0.09600000455975533, 1.008000047877431, 0.0, 0.0, 0.0, 0.0, 0.0, 1.6480860828331149E9, 0.0, 2022-03-23 20:41:22.833
86.0, 355.6046473868191, 150.17568272072822, 158.06687162723392, 277.9830238064751, -0.12800000607967377, 0.09600000455975533, 1.008000047877431, 0.0, 0.0, 0.0, 0.0, 0.0, 1.6480860828331149E9, 0.0, 2022-03-23 20:41:22.833
87.0, 190.89758338825777, 104.4554057624191, 103.07912257872522, 41.903709053527564, -0.12800000607967377, 0.09600000455975533, 1.008000047877431, 0.0, 0.0, 0.0, 0.0, 0.0, 1.6480860828489492E9, 0.0, 2022-03-23 20:41:22.848
87.0, 42.86486334213987, 107.29772972874343, 99.85906871687621, 11.621739112306386, -0.12800000607967377, 0.09600000455975533, 1.008000047877431, 0.0, 0.0, 0.0, 0.0, 0.0, 1.6480860828489492E9, 0.0, 2022-03-23 20:41:22.848
88.0, -167.94768731016666, 69.52848007623106, 56.805340426974, 220.2370985406451, -0.12800000607967377, 0.09600000455975533, 1.008000047877431, 0.0, 0.0, 0.0, 0.0, 0.0, 1.6480860828495212E9, 0.0, 2022-03-23 20:41:22.849
88.0, 51.61061938852072, -9.963093481957912, -24.455205810256302, 206.4686568537727, -0.12800000607967377, 0.09600000455975533, 1.008000047877431, 0.0, 0.0, 0.0, 0.0, 0.0, 1.6480860828495212E9, 0.0, 2022-03-23 20:41:22.849
89.0, 194.86374729126692, -51.59565978869796, -54.19489025790244, 246.3808691808954, -0.12800000607967377, 0.09600000455975533, 1.008000047877431, 0.0, 0.0, 0.0, 0.0, 0.0, 1.6480860828630292E9, 0.0, 2022-03-23 20:41:22.863
89.0, 242.64283917518333, -58.08064631186426, -74.3679106188938, 147.97662154678255, -0.12800000607967377, 0.09600000455975533, 1.008000047877431, 0.0, 0.0, 0.0, 0.0, 0.0, 1.6480860828630292E9, 0.0, 2022-03-23 20:41:22.863
90.0, 255.34727932466194, -94.90370127558708, -116.53154271934181, 237.4799072863534, -0.12800000607967377, 0.09600000455975533, 1.008000047877431, 0.0, 0.0, 0.0, 0.0, 0.0, 1.6480860828790035E9, 0.0, 2022-03-23 20:41:22.879
90.0, 319.2135508679785, -116.55398211907595, -127.41839149035513, 330.81285058055073, -0.12800000607967377, 0.09600000455975533, 1.008000047877431, 0.0, 0.0, 0.0, 0.0, 0.0, 1.6480860828790035E9, 0.0, 2022-03-23 20:41:22.879
91.0, 549.069672094658, -137.74051536805928, -129.55387436505407, 278.07278140541166, -0.12800000607967377, 0.09600000455975533, 1.008000047877431, 0.0, 0.0, 0.0, 0.0, 0.0, 1.6480860828795822E9, 0.0, 2022-03-23 20:41:22.879
91.0, 541.3467786861584, -145.74390127323568, -148.70590203814209, 167.59426676435396, -0.12800000607967377, 0.09600000455975533, 1.008000047877431, 0.0, 0.0, 0.0, 0.0, 0.0, 1.6480860828795822E9, 0.0, 2022-03-23 20:41:22.879
92.0, 353.47103446209803, -201.22157721593976, -209.01178882364184, -28.662593260407448, -0.12800000607967377, 0.09600000455975533, 1.008000047877431, 0.0, 0.0, 0.0, 0.0, 0.0, 1.6480860828930168E9, 0.0, 2022-03-23 20:41:22.893
92.0, 420.6545972661115, -269.5308499066159, -278.7160441977903, -199.61529018497095, -0.12800000607967377, 0.09600000455975533, 1.008000047877431, 0.0, 0.0, 0.0, 0.0, 0.0, 1.6480860828930168E9, 0.0, 2022-03-23 20:41:22.893
93.0, 435.9021693854593, -283.08424734603614, -299.1471176557243, -324.49428960541263, -0.12800000607967377, 0.09600000455975533, 1.008000047877431, 0.0, 0.0, 0.0, 0.0, 0.0, 1.6480860829087167E9, 0.0, 2022-03-23 20:41:22.908
93.0, 383.502431106288, -323.4489875677973, -337.32775630336255, -279.98948013270274, -0.12800000607967377, 0.09600000455975533, 1.008000047877431, 0.0, 0.0, 0.0, 0.0, 0.0, 1.6480860829087167E9, 0.0, 2022-03-23 20:41:22.908
94.0, 271.82527852943167, -331.28781787492335, -346.25115759763867, -508.5983447241597, -0.12800000607967377, 0.09600000455975533, 1.008000047877431, 0.0, 0.0, 0.0, 0.0, 0.0, 1.6480860829094672E9, 0.0, 2022-03-23 20:41:22.909
94.0, 95.48151581874117, -342.51499754190445, -344.29518992081285, -533.8482792750001, -0.12800000607967377, 0.09600000455975533, 1.008000047877431, 0.0, 0.0, 0.0, 0.0, 0.0, 1.6480860829094672E9, 0.0, 2022-03-23 20:41:22.909
95.0, -24.80114655615762, -356.9397916710004, -358.1328197568655, -362.41874510608613, -0.12800000607967377, 0.09600000455975533, 1.008000047877431, 0.0, 0.0, 0.0, 0.0, 0.0, 1.6480860829230268E9, 0.0, 2022-03-23 20:41:22.923
95.0, -212.77973802899942, -349.8339817551896, -359.7970752371475, -515.5302492920309, -0.12800000607967377, 0.09600000455975533, 1.008000047877431, 0.0, 0.0, 0.0, 0.0, 0.0, 1.6480860829230268E9, 0.0, 2022-03-23 20:41:22.923
96.0, -240.66817199857906, -358.62648655101657, -363.686571191065, -646.6511417385191, -0.12800000607967377, 0.09600000455975533, 1.008000047877431, 0.0, 0.0, 0.0, 0.0, 0.0, 1.6480860829388268E9, 0.0, 2022-03-23 20:41:22.938
96.0, 2.6029703691601753, -361.3977524181828, -359.96537073515356, -745.077828772366, -0.12800000607967377, 0.09600000455975533, 1.008000047877431, 0.0, 0.0, 0.0, 0.0, 0.0, 1.6480860829388268E9, 0.0, 2022-03-23 20:41:22.938
97.0, -123.46905713714659, -335.43162702582777, -340.81708296202123, -797.7094408487901, -0.12800000607967377, 0.09600000455975533, 1.008000047877431, 0.0, 0.0, 0.0, 0.0, 0.0, 1.6480860829394803E9, 0.0, 2022-03-23 20:41:22.939
97.0, -203.40193889010698, -350.11821415182203, -349.89382015448064, -733.7010531071573, -0.12800000607967377, 0.09600000455975533, 1.008000047877431, 0.0, 0.0, 0.0, 0.0, 0.0, 1.6480860829394803E9, 0.0, 2022-03-23 20:41:22.939
98.0, -268.3453016206622, -340.50667126569897, -344.0446166237816, -811.0608836906031, -0.12800000607967377, 0.09600000455975533, 1.008000047877431, 0.0, 0.0, 0.0, 0.0, 0.0, 1.648086082970152E9, 0.0, 2022-03-23 20:41:22.970
98.0, -365.3283872716129, -336.61717531178147, -347.0589759880677, -935.2480016192421, -0.12800000607967377, 0.09600000455975533, 1.008000047877431, 0.0, 0.0, 0.0, 0.0, 0.0, 1.648086082970152E9, 0.0, 2022-03-23 20:41:22.970
99.0, -439.3260477948934, -342.81418953835964, -343.6107882289216, -836.2827689917758, -0.12800000607967377, 0.09600000455975533, 1.008000047877431, 0.0, 0.0, 0.0, 0.0, 0.0, 1.6480860829708953E9, 0.0, 2022-03-23 20:41:22.970
99.0, -526.3161207642406, -341.7857170505449, -338.99201178364456, -821.409186867997, -0.12800000607967377, 0.09600000455975533, 1.008000047877431, 0.0, 0.0, 0.0, 0.0, 0.0, 1.6480860829708953E9, 0.0, 2022-03-23 20:41:22.970
100.0, -573.8764285007492, -328.03036501351744, -341.00033805985004, -984.2444309387356, -0.12800000607967377, 0.09600000455975533, 1.008000047877431, 0.0, 0.0, 0.0, 0.0, 0.0, 1.6480860829716475E9, 0.0, 2022-03-23 20:41:22.971
100.0, -661.6444006608799, -307.50579405669123, -323.778098763898, -1102.9114565327764, -0.12800000607967377, 0.09600000455975533, 1.008000047877431, 0.0, 0.0, 0.0, 0.0, 0.0, 1.6480860829716475E9, 0.0, 2022-03-23 20:41:22.971
0.0, 6042.679775106721, 256.94421660574153, 1341.677889403887, 7283.490692755673, -0.12800000607967377, 0.09600000455975533, 1.008000047877431, 0.0, 0.0, 0.0, 0.0, 0.0, 1.6480860829723914E9, 0.0, 2022-03-23 20:41:22.972
1.0, 6092.753295613453, 245.41036514239386, 1325.8992514908314, 7138.1320011778735, -0.12800000607967377, 0.09600000455975533, 1.008000047877431, 0.0, 0.0, 0.0, 0.0, 0.0, 1.6480860829987745E9, 0.0, 2022-03-23 20:41:22.998
1.0, 6079.113880475052, 245.14857214549556, 1322.454803631641, 6960.340897184331, -0.12800000607967377, 0.09600000455975533, 1.008000047877431, 0.0, 0.0, 0.0, 0.0, 0.0, 1.6480860829987745E9, 0.0, 2022-03-23 20:41:22.998
2.0, 5871.061375990044, 241.71160408621654, 1329.8298863442615, 6865.878504103515, -0.11200000531971455, 0.09600000455975533, 1.008000047877431, 0.0, 0.0, 0.0, 0.0, 0.0, 1.6480860829995365E9, 0.0, 2022-03-23 20:41:22.999
2.0, 5720.25739007676, 246.66697152750567, 1348.4994669230655, 6701.528600550722, -0.11200000531971455, 0.09600000455975533, 1.008000047877431, 0.0, 0.0, 0.0, 0.0, 0.0, 1.6480860829995365E9, 0.0, 2022-03-23 20:41:22.999
3.0, 5659.850525992457, 257.8754516947083, 1339.0599594349042, 6559.068331438582, -0.11200000531971455, 0.09600000455975533, 1.008000047877431, 0.0, 0.0, 0.0, 0.0, 0.0, 1.6480860830137887E9, 0.0, 2022-03-23 20:41:23.013
3.0, 5638.376020446885, 272.5508191208355, 1347.6318101333454, 6382.9826218248345, -0.11200000531971455, 0.09600000455975533, 1.008000047877431, 0.0, 0.0, 0.0, 0.0, 0.0, 1.6480860830137887E9, 0.0, 2022-03-23 20:41:23.013
4.0, 5768.277705507819, 272.27032662415877, 1373.0032914327458, 6271.948732040357, -0.11200000531971455, 0.09600000455975533, 1.008000047877431, 0.0, 0.0, 0.0, 0.0, 0.0, 1.6480860830144918E9, 0.0, 2022-03-23 20:41:23.014
4.0, 5757.992980629671, 282.68968790071085, 1385.5469158841297, 6153.371464045253, -0.11200000531971455, 0.09600000455975533, 1.008000047877431, 0.0, 0.0, 0.0, 0.0, 0.0, 1.6480860830144918E9, 0.0, 2022-03-23 20:41:23.014
5.0, 5711.128294284921, 282.58123080199584, 1372.7153191361576, 6277.887693169992, -0.11200000531971455, 0.09600000455975533, 1.008000047877431, 0.0, 0.0, 0.0, 0.0, 0.0, 1.648086083028014E9, 0.0, 2022-03-23 20:41:23.028
5.0, 5759.230887515005, 260.134351267945, 1352.7405134728178, 6058.600529218093, -0.11200000531971455, 0.09600000455975533, 1.008000047877431, 0.0, 0.0, 0.0, 0.0, 0.0, 1.648086083028014E9, 0.0, 2022-03-23 20:41:23.028
6.0, 5862.50074499147, 264.102385120932, 1341.281460008584, 5938.91999073606, -0.11200000531971455, 0.09600000455975533, 1.008000047877431, 0.0, 0.0, 0.0, 0.0, 0.0, 1.6480860830437844E9, 0.0, 2022-03-23 20:41:23.043
6.0, 5652.86252292525, 265.11963790887967, 1361.4657000694424, 5838.6644926238805, -0.11200000531971455, 0.09600000455975533, 1.008000047877431, 0.0, 0.0, 0.0, 0.0, 0.0, 1.6480860830437844E9, 0.0, 2022-03-23 20:41:23.043
7.0, 5593.6655164766125, 253.211796449963, 1342.1752960979939, 5867.304646484554, -0.11200000531971455, 0.09600000455975533, 1.008000047877431, 0.0, 0.0, 0.0, 0.0, 0.0, 1.6480860830444987E9, 0.0, 2022-03-23 20:41:23.044
7.0, 5765.940268035512, 231.78216970385984, 1339.157196833752, 5944.933749864809, -0.11200000531971455, 0.09600000455975533, 1.008000047877431, 0.0, 0.0, 0.0, 0.0, 0.0, 1.6480860830444987E9, 0.0, 2022-03-23 20:41:23.044
8.0, 5879.734203987289, 198.8934894935228, 1298.8335955115035, 5895.761545247398, -0.11200000531971455, 0.09600000455975533, 1.008000047877431, 0.0, 0.0, 0.0, 0.0, 0.0, 1.6480860830580325E9, 0.0, 2022-03-23 20:41:23.058
8.0, 5934.628455536906, 176.73832215601578, 1263.8804905256256, 6029.672403060831, -0.11200000531971455, 0.09600000455975533, 1.008000047877431, 0.0, 0.0, 0.0, 0.0, 0.0, 1.6480860830580325E9, 0.0, 2022-03-23 20:41:23.058
9.0, 5939.034057684708, 155.13666001195088, 1244.2086167586967, 6004.551495058462, -0.11200000531971455, 0.09600000455975533, 1.008000047877431, 0.0, 0.0, 0.0, 0.0, 0.0, 1.648086083073773E9, 0.0, 2022-03-23 20:41:23.073
9.0, 5750.608548167162, 136.83358962880448, 1231.145146213472, 6194.261660210788, -0.11200000531971455, 0.09600000455975533, 1.008000047877431, 0.0, 0.0, 0.0, 0.0, 0.0, 1.648086083073773E9, 0.0, 2022-03-23 20:41:23.073
10.0, 5972.074203843251, 122.60327029740438, 1218.021837268956, 6162.2855155896395, -0.11200000531971455, 0.09600000455975533, 1.008000047877431, 0.0, 0.0, 0.0, 0.0, 0.0, 1.6480860830745375E9, 0.0, 2022-03-23 20:41:23.074
10.0, 6207.975873348303, 119.66370893223211, 1205.8596826130524, 6148.058936158195, -0.11200000531971455, 0.09600000455975533, 1.008000047877431, 0.0, 0.0, 0.0, 0.0, 0.0, 1.6480860830745375E9, 0.0, 2022-03-23 20:41:23.074
11.0, 6396.059182019904, 101.09136575227603, 1195.3543036375195, 6116.299705734476, -0.11200000531971455, 0.09600000455975533, 1.008000047877431, 0.0, 0.0, 0.0, 0.0, 0.0, 1.6480860830879996E9, 0.0, 2022-03-23 20:41:23.087
11.0, 6539.865815116093, 92.4708963544108, 1179.332572227344, 6054.826970162801, -0.11200000531971455, 0.09600000455975533, 1.008000047877431, 0.0, 0.0, 0.0, 0.0, 0.0, 1.6480860830879996E9, 0.0, 2022-03-23 20:41:23.087
12.0, 6666.038819921203, 70.49150431482121, 1169.5938727427274, 6089.566900851205, -0.12800000607967377, 0.09600000455975533, 1.008000047877431, 0.0, 0.0, 0.0, 0.0, 0.0, 1.648086083103799E9, 0.0, 2022-03-23 20:41:23.103
12.0, 6740.690962936729, 72.63446698943153, 1162.772295223549, 6044.534765484743, -0.12800000607967377, 0.09600000455975533, 1.008000047877431, 0.0, 0.0, 0.0, 0.0, 0.0, 1.648086083103799E9, 0.0, 2022-03-23 20:41:23.103
13.0, 6820.698642688803, 68.82350893458351, 1161.0407215440646, 5977.908447774127, -0.12800000607967377, 0.09600000455975533, 1.008000047877431, 0.0, 0.0, 0.0, 0.0, 0.0, 1.6480860831045108E9, 0.0, 2022-03-23 20:41:23.104
13.0, 6832.748600346036, 64.11871479032561, 1157.1325260903686, 5937.842899548821, -0.12800000607967377, 0.09600000455975533, 1.008000047877431, 0.0, 0.0, 0.0, 0.0, 0.0, 1.6480860831045108E9, 0.0, 2022-03-23 20:41:23.104
14.0, 6831.8772036563605, 66.86006145784631, 1158.067501079291, 5875.925115882419, -0.12800000607967377, 0.09600000455975533, 1.008000047877431, 0.0, 0.0, 0.0, 0.0, 0.0, 1.6480860831180248E9, 0.0, 2022-03-23 20:41:23.118
14.0, 6817.9236369216815, 64.85547508159652, 1149.951918175444, 5788.160883622244, -0.12800000607967377, 0.09600000455975533, 1.008000047877431, 0.0, 0.0, 0.0, 0.0, 0.0, 1.6480860831180248E9, 0.0, 2022-03-23 20:41:23.118
15.0, 6761.3352106921375, 65.02377057960257, 1157.1362659903243, 5751.191972560249, -0.12800000607967377, 0.09600000455975533, 1.008000047877431, 0.0, 0.0, 0.0, 0.0, 0.0, 1.6480860831338215E9, 0.0, 2022-03-23 20:41:23.133
15.0, 6699.484745224938, 68.72627153573558, 1172.252941611223, 5655.450533694588, -0.12800000607967377, 0.09600000455975533, 1.008000047877431, 0.0, 0.0, 0.0, 0.0, 0.0, 1.6480860831338215E9, 0.0, 2022-03-23 20:41:23.133
16.0, 6644.257642579265, 74.84848776319996, 1166.0260081849992, 5587.952819294296, -0.12800000607967377, 0.09600000455975533, 1.008000047877431, 0.0, 0.0, 0.0, 0.0, 0.0, 1.648086083134468E9, 0.0, 2022-03-23 20:41:23.134
16.0, 6611.327823469415, 78.86140041565523, 1172.8326261043549, 5559.316405333579, -0.12800000607967377, 0.09600000455975533, 1.008000047877431, 0.0, 0.0, 0.0, 0.0, 0.0, 1.648086083134468E9, 0.0, 2022-03-23 20:41:23.134
17.0, 6529.005145644769, 83.80928805703297, 1187.8857234260067, 5495.405254990794, -0.12800000607967377, 0.09600000455975533, 1.008000047877431, 0.0, 0.0, 0.0, 0.0, 0.0, 1.6480860831480336E9, 0.0, 2022-03-23 20:41:23.148
17.0, 6428.3419984374195, 84.1683184527792, 1181.4044768027961, 5394.472834986635, -0.12800000607967377, 0.09600000455975533, 1.008000047877431, 0.0, 0.0, 0.0, 0.0, 0.0, 1.6480860831480336E9, 0.0, 2022-03-23 20:41:23.148
18.0, 6356.431202089414, 92.56439385330305, 1177.6346576474607, 5335.8835622807965, -0.12800000607967377, 0.09600000455975533, 1.008000047877431, 0.0, 0.0, 0.0, 0.0, 0.0, 1.6480860831637588E9, 0.0, 2022-03-23 20:41:23.163
18.0, 6282.844930561259, 96.87649850221351, 1192.2539265742525, 5277.559822471812, -0.12800000607967377, 0.09600000455975533, 1.008000047877431, 0.0, 0.0, 0.0, 0.0, 0.0, 1.6480860831637588E9, 0.0, 2022-03-23 20:41:23.163
19.0, 6185.035327020101, 94.48296253057197, 1182.4030300909653, 5326.627309890464, -0.12800000607967377, 0.09600000455975533, 1.008000047877431, 0.0, 0.0, 0.0, 0.0, 0.0, 1.6480860831644533E9, 0.0, 2022-03-23 20:41:23.164
19.0, 6131.416381355375, 103.85515181953087, 1178.3938573384658, 5333.056197914295, -0.12800000607967377, 0.09600000455975533, 1.008000047877431, 0.0, 0.0, 0.0, 0.0, 0.0, 1.6480860831644533E9, 0.0, 2022-03-23 20:41:23.164
20.0, 6094.888778488152, 117.75262005487457, 1194.1500558517873, 5299.494335711934, -0.12800000607967377, 0.09600000455975533, 1.008000047877431, 0.0, 0.0, 0.0, 0.0, 0.0, 1.6480860831780384E9, 0.0, 2022-03-23 20:41:23.178
20.0, 6066.981645018794, 122.36765660019591, 1208.0176048874855, 5233.294366596267, -0.12800000607967377, 0.09600000455975533, 1.008000047877431, 0.0, 0.0, 0.0, 0.0, 0.0, 1.6480860831780384E9, 0.0, 2022-03-23 20:41:23.178
21.0, 6041.1015373254195, 111.67902252683416, 1193.2898788619787, 5142.130565276369, -0.12800000607967377, 0.09600000455975533, 1.008000047877431, 0.0, 0.0, 0.0, 0.0, 0.0, 1.6480860831937616E9, 0.0, 2022-03-23 20:41:23.193
21.0, 6047.440667750314, 117.54318565735593, 1213.582576021552, 5067.025894366205, -0.12800000607967377, 0.09600000455975533, 1.008000047877431, 0.0, 0.0, 0.0, 0.0, 0.0, 1.6480860831937616E9, 0.0, 2022-03-23 20:41:23.193
22.0, 6036.097551184706, 130.4495804044418, 1220.7856233362108, 5037.29368971847, -0.12800000607967377, 0.09600000455975533, 1.008000047877431, 0.0, 0.0, 0.0, 0.0, 0.0, 1.6480860831944923E9, 0.0, 2022-03-23 20:41:23.194
22.0, 6031.471294939518, 129.5632241149433, 1220.4639919400215, 5048.315174887888, -0.12800000607967377, 0.09600000455975533, 1.008000047877431, 0.0, 0.0, 0.0, 0.0, 0.0, 1.6480860831944923E9, 0.0, 2022-03-23 20:41:23.194
23.0, 5991.589001812041, 131.13398209633306, 1226.9377587633207, 5047.720530794933, -0.12800000607967377, 0.09600000455975533, 1.008000047877431, 0.0, 0.0, 0.0, 0.0, 0.0, 1.6480860832080362E9, 0.0, 2022-03-23 20:41:23.208
23.0, 5959.216427795589, 139.2720043999143, 1229.4621912334114, 4971.707064195536, -0.12800000607967377, 0.09600000455975533, 1.008000047877431, 0.0, 0.0, 0.0, 0.0, 0.0, 1.6480860832080362E9, 0.0, 2022-03-23 20:41:23.208
24.0, 5883.049625298008, 141.31398977572098, 1222.786469812505, 4941.103462858126, -0.12800000607967377, 0.09600000455975533, 1.008000047877431, 0.0, 0.0, 0.0, 0.0, 0.0, 1.648086083223745E9, 0.0, 2022-03-23 20:41:23.223
24.0, 5812.193480737507, 138.09767581382766, 1230.6701789190993, 4840.937722344883, -0.12800000607967377, 0.09600000455975533, 1.008000047877431, 0.0, 0.0, 0.0, 0.0, 0.0, 1.648086083223745E9, 0.0, 2022-03-23 20:41:23.223
25.0, 5731.744492790662, 134.9299805513583, 1229.8100019292906, 4804.900046371855, -0.12800000607967377, 0.09600000455975533, 1.008000047877431, 0.0, 0.0, 0.0, 0.0, 0.0, 1.648086083224497E9, 0.0, 2022-03-23 20:41:23.224
25.0, 5678.701491719112, 152.95629833778366, 1229.4995902329683, 4768.499600103125, -0.12800000607967377, 0.09600000455975533, 1.008000047877431, 0.0, 0.0, 0.0, 0.0, 0.0, 1.648086083224497E9, 0.0, 2022-03-23 20:41:23.224
26.0, 5566.085624253377, 163.3195611150004, 1233.5873008845374, 4728.239577080123, -0.12800000607967377, 0.09600000455975533, 1.008000047877431, 0.0, 0.0, 0.0, 0.0, 0.0, 1.6480860832543628E9, 0.0, 2022-03-23 20:41:23.254
26.0, 5480.939321962185, 157.53019598359242, 1232.0801212023944, 4647.12862684112, -0.12800000607967377, 0.09600000455975533, 1.008000047877431, 0.0, 0.0, 0.0, 0.0, 0.0, 1.6480860832543628E9, 0.0, 2022-03-23 20:41:23.254
27.0, 5400.475374415517, 167.4334510662593, 1262.6725028399378, 4574.552128301002, -0.12800000607967377, 0.09600000455975533, 1.008000047877431, 0.0, 0.0, 0.0, 0.0, 0.0, 1.648086083255154E9, 0.0, 2022-03-23 20:41:23.255
27.0, 5323.508233327419, 184.15080386819318, 1263.248447433114, 4550.242778589018, -0.12800000607967377, 0.09600000455975533, 1.008000047877431, 0.0, 0.0, 0.0, 0.0, 0.0, 1.648086083255154E9, 0.0, 2022-03-23 20:41:23.255
28.0, 5210.589433965273, 181.8058865959756, 1273.1442227158695, 4530.395129524171, -0.12800000607967377, 0.09600000455975533, 1.008000047877431, 0.0, 0.0, 0.0, 0.0, 0.0, 1.6480860832559059E9, 0.0, 2022-03-23 20:41:23.255
28.0, 5125.779722670093, 200.83823747048154, 1284.9062080765143, 4531.505879811011, -0.12800000607967377, 0.09600000455975533, 1.008000047877431, 0.0, 0.0, 0.0, 0.0, 0.0, 1.6480860832559059E9, 0.0, 2022-03-23 20:41:23.255
29.0, 5009.4875335479155, 195.16854913765565, 1270.0812446521595, 4769.090504296124, -0.12800000607967377, 0.09600000455975533, 1.008000047877431, 0.0, 0.0, 0.0, 0.0, 0.0, 1.6480860832681332E9, 0.0, 2022-03-23 20:41:23.268
29.0, 4861.151881605387, 190.8489646888338, 1268.4319487717003, 4752.436729793437, -0.12800000607967377, 0.09600000455975533, 1.008000047877431, 0.0, 0.0, 0.0, 0.0, 0.0, 1.6480860832681332E9, 0.0, 2022-03-23 20:41:23.268
30.0, 4771.981446961872, 197.73038060730323, 1274.1352962041274, 4678.820539065637, -0.12800000607967377, 0.09600000455975533, 1.008000047877431, 0.0, 0.0, 0.0, 0.0, 0.0, 1.6480860832837226E9, 0.0, 2022-03-23 20:41:23.283
30.0, 4699.4460873212665, 220.3418157394044, 1300.0864619966596, 4635.860308274627, -0.12800000607967377, 0.09600000455975533, 1.008000047877431, 0.0, 0.0, 0.0, 0.0, 0.0, 1.6480860832837226E9, 0.0, 2022-03-23 20:41:23.283
31.0, 4550.684086783789, 225.5365367778577, 1292.629101485014, 4546.708573130891, -0.12800000607967377, 0.09600000455975533, 1.008000047877431, 0.0, 0.0, 0.0, 0.0, 0.0, 1.648086083284525E9, 0.0, 2022-03-23 20:41:23.284
31.0, 4414.637746095657, 211.16784114809707, 1297.6480472255498, 4500.756422375329, -0.12800000607967377, 0.09600000455975533, 1.008000047877431, 0.0, 0.0, 0.0, 0.0, 0.0, 1.648086083284525E9, 0.0, 2022-03-23 20:41:23.284
32.0, 4316.988958252594, 215.73425899399444, 1316.6691784001887, 4438.28887341544, -0.12800000607967377, 0.09600000455975533, 1.008000047877431, 0.0, 0.0, 0.0, 0.0, 0.0, 1.6480860832981236E9, 0.0, 2022-03-23 20:41:23.298
32.0, 4195.262694494799, 244.49408965324983, 1331.0939725292847, 4362.0884118182585, -0.12800000607967377, 0.09600000455975533, 1.008000047877431, 0.0, 0.0, 0.0, 0.0, 0.0, 1.6480860832981236E9, 0.0, 2022-03-23 20:41:23.298
33.0, 4118.000101310201, 249.2063635974191, 1330.4918486364186, 4365.64505667612, -0.12800000607967377, 0.09600000455975533, 1.008000047877431, 0.0, 0.0, 0.0, 0.0, 0.0, 1.648086083313714E9, 0.0, 2022-03-23 20:41:23.313
33.0, 4029.547727458179, 254.59555943356827, 1327.3054538741708, 4310.062663534656, -0.12800000607967377, 0.09600000455975533, 1.008000047877431, 0.0, 0.0, 0.0, 0.0, 0.0, 1.648086083313714E9, 0.0, 2022-03-23 20:41:23.313
34.0, 3893.08251797501, 253.7727814433165, 1338.0651460466906, 4260.516468921676, -0.12800000607967377, 0.09600000455975533, 1.008000047877431, 0.0, 0.0, 0.0, 0.0, 0.0, 1.6480860833145132E9, 0.0, 2022-03-23 20:41:23.314
34.0, 3782.826527381316, 255.44451672350988, 1335.4995746770874, 4209.279839528725, -0.12800000607967377, 0.09600000455975533, 1.008000047877431, 0.0, 0.0, 0.0, 0.0, 0.0, 1.6480860833145132E9, 0.0, 2022-03-23 20:41:23.314
35.0, 3668.0115987416357, 261.64153095008805, 1344.6062310691923, 4159.064202823676, -0.12800000607967377, 0.09600000455975533, 1.008000047877431, 0.0, 0.0, 0.0, 0.0, 0.0, 1.6480860833280265E9, 0.0, 2022-03-23 20:41:23.328
35.0, 3558.013661244884, 261.78364714840427, 1339.314272631891, 4100.224356820807, -0.12800000607967377, 0.09600000455975533, 1.008000047877431, 0.0, 0.0, 0.0, 0.0, 0.0, 1.6480860833280265E9, 0.0, 2022-03-23 20:41:23.328
36.0, 3486.072945697233, 264.1846629199572, 1347.5570121342316, 4047.697461943142, -0.12800000607967377, 0.09600000455975533, 1.008000047877431, 0.0, 0.0, 0.0, 0.0, 0.0, 1.648086083343716E9, 0.0, 2022-03-23 20:41:23.343
36.0, 3371.789082851261, 287.14390874793753, 1377.7866234760731, 4019.378939478658, -0.12800000607967377, 0.09600000455975533, 1.008000047877431, 0.0, 0.0, 0.0, 0.0, 0.0, 1.648086083343716E9, 0.0, 2022-03-23 20:41:23.343
37.0, 3257.6398564036936, 299.451919502113, 1385.7301709819585, 3968.849151177332, -0.12800000607967377, 0.09600000455975533, 1.008000047877431, 0.0, 0.0, 0.0, 0.0, 0.0, 1.6480860833445072E9, 0.0, 2022-03-23 20:41:23.344
37.0, 3159.4562628669664, 287.57399724284187, 1389.4251921381801, 3918.4053805749863, -0.12800000607967377, 0.09600000455975533, 1.008000047877431, 0.0, 0.0, 0.0, 0.0, 0.0, 1.6480860833445072E9, 0.0, 2022-03-23 20:41:23.344
38.0, 3052.2856897367164, 291.5345512959175, 1376.7244918886572, 3912.1821870487183, -0.12800000607967377, 0.09600000455975533, 1.008000047877431, 0.0, 0.0, 0.0, 0.0, 0.0, 1.6480860833580527E9, 0.0, 2022-03-23 20:41:23.358
38.0, 2973.8076290665194, 312.5789683465846, 1384.5446226960048, 3863.9112983206287, -0.12800000607967377, 0.09600000455975533, 1.008000047877431, 0.0, 0.0, 0.0, 0.0, 0.0, 1.6480860833580527E9, 0.0, 2022-03-23 20:41:23.358
39.0, 2886.327629202977, 314.14224652806297, 1375.942852797918, 3785.986742843874, -0.12800000607967377, 0.09600000455975533, 1.008000047877431, 0.0, 0.0, 0.0, 0.0, 0.0, 1.6480860833737545E9, 0.0, 2022-03-23 20:41:23.373
39.0, 2787.3773561753333, 333.75428189570084, 1411.3933644779027, 3762.829282318242, -0.12800000607967377, 0.09600000455975533, 1.008000047877431, 0.0, 0.0, 0.0, 0.0, 0.0, 1.6480860833737545E9, 0.0, 2022-03-23 20:41:23.373
40.0, 2733.8967868089676, 348.3324119229801, 1432.4415214285254, 3717.767227752134, -0.12800000607967377, 0.09600000455975533, 1.008000047877431, 0.0, 0.0, 0.0, 0.0, 0.0, 1.648086083374472E9, 0.0, 2022-03-23 20:41:23.374
40.0, 2631.206613825634, 351.08497829036787, 1438.6422755550593, 3676.317916543223, -0.12800000607967377, 0.09600000455975533, 1.008000047877431, 0.0, 0.0, 0.0, 0.0, 0.0, 1.648086083374472E9, 0.0, 2022-03-23 20:41:23.374
41.0, 2554.8490764303133, 354.3686104514636, 1436.065484485589, 3630.694876983762, -0.12800000607967377, 0.09600000455975533, 1.008000047877431, 0.0, 0.0, 0.0, 0.0, 0.0, 1.6480860833880103E9, 0.0, 2022-03-23 20:41:23.388
41.0, 2466.665975375101, 361.8932891623117, 1432.9127488229424, 3603.9358928008005, -0.12800000607967377, 0.09600000455975533, 1.008000047877431, 0.0, 0.0, 0.0, 0.0, 0.0, 1.6480860833880103E9, 0.0, 2022-03-23 20:41:23.388
42.0, 2387.92238180805, 366.24279281077906, 1432.5013598278165, 3569.895323404111, -0.12800000607967377, 0.09600000455975533, 1.008000047877431, 0.0, 0.0, 0.0, 0.0, 0.0, 1.6480860834037292E9, 0.0, 2022-03-23 20:41:23.403
42.0, 2311.7780187102035, 369.72463966952637, 1439.2294398481026, 3501.342957216315, -0.12800000607967377, 0.09600000455975533, 1.008000047877431, 0.0, 0.0, 0.0, 0.0, 0.0, 1.6480860834037292E9, 0.0, 2022-03-23 20:41:23.403
43.0, 2242.6347483294085, 365.3452168214135, 1451.851602198556, 3464.231929956004, -0.12800000607967377, 0.09600000455975533, 1.008000047877431, 0.0, 0.0, 0.0, 0.0, 0.0, 1.6480860834044712E9, 0.0, 2022-03-23 20:41:23.404
43.0, 2152.4470608979464, 362.32337765721604, 1450.8193898107857, 3453.161826087162, -0.12800000607967377, 0.09600000455975533, 1.008000047877431, 0.0, 0.0, 0.0, 0.0, 0.0, 1.6480860834044712E9, 0.0, 2022-03-23 20:41:23.404
44.0, 2082.679227224551, 375.8356361971237, 1455.651340553537, 3415.4785941336304, -0.12800000607967377, 0.09600000455975533, 1.008000047877431, 0.0, 0.0, 0.0, 0.0, 0.0, 1.6480860834344225E9, 0.0, 2022-03-23 20:41:23.434
44.0, 2005.3343562409282, 374.73610561015084, 1451.5449304021895, 3353.8450428638607, -0.12800000607967377, 0.09600000455975533, 1.008000047877431, 0.0, 0.0, 0.0, 0.0, 0.0, 1.6480860834344225E9, 0.0, 2022-03-23 20:41:23.434
45.0, 1915.184067809023, 377.8551821731962, 1442.4868927095085, 3323.884704318829, -0.12800000607967377, 0.09600000455975533, 1.008000047877431, 0.0, 0.0, 0.0, 0.0, 0.0, 1.6480860834351554E9, 0.0, 2022-03-23 20:41:23.435
45.0, 1839.2640987085178, 389.6396069335751, 1455.3895475566387, 3318.9442964773625, -0.12800000607967377, 0.09600000455975533, 1.008000047877431, 0.0, 0.0, 0.0, 0.0, 0.0, 1.6480860834351554E9, 0.0, 2022-03-23 20:41:23.435
46.0, 1772.013217705302, 386.48313137097284, 1473.4308249428868, 3276.56749007944, -0.12800000607967377, 0.09600000455975533, 1.008000047877431, 0.0, 0.0, 0.0, 0.0, 0.0, 1.648086083436041E9, 0.0, 2022-03-23 20:41:23.436
46.0, 1698.539143175818, 392.0256631053053, 1484.4448303123936, 3261.1890214616433, -0.12800000607967377, 0.09600000455975533, 1.008000047877431, 0.0, 0.0, 0.0, 0.0, 0.0, 1.648086083436041E9, 0.0, 2022-03-23 20:41:23.436
47.0, 1628.7488701026887, 391.9359055063687, 1480.2374428622425, 3232.0103220073506, -0.12800000607967377, 0.09600000455975533, 1.008000047877431, 0.0, 0.0, 0.0, 0.0, 0.0, 1.6480860834480317E9, 0.0, 2022-03-23 20:41:23.448
47.0, 1573.8882776526734, 389.1309805396013, 1475.99639631249, 3204.1667668372393, -0.12800000607967377, 0.09600000455975533, 1.008000047877431, 0.0, 0.0, 0.0, 0.0, 0.0, 1.6480860834480317E9, 0.0, 2022-03-23 20:41:23.448
48.0, 1525.2695782287046, 411.63395857298747, 1488.7270157616585, 3181.775985802524, -0.12800000607967377, 0.09600000455975533, 1.008000047877431, 0.0, 0.0, 0.0, 0.0, 0.0, 1.6480860834637496E9, 0.0, 2022-03-23 20:41:23.463
48.0, 1443.410647998564, 407.71454341942444, 1492.44821621757, 3129.357548023574, -0.12800000607967377, 0.09600000455975533, 1.008000047877431, 0.0, 0.0, 0.0, 0.0, 0.0, 1.6480860834637496E9, 0.0, 2022-03-23 20:41:23.463
49.0, 1365.5197516214103, 400.6610921029933, 1500.8854305176064, 3092.1193641647696, -0.12800000607967377, 0.09600000455975533, 1.008000047877431, 0.0, 0.0, 0.0, 0.0, 0.0, 1.6480860834645748E9, 0.0, 2022-03-23 20:41:23.464
49.0, 1329.0594669533893, 410.86727908207104, 1501.0873851152137, 3082.5452202782035, -0.12800000607967377, 0.09600000455975533, 1.008000047877431, 0.0, 0.0, 0.0, 0.0, 0.0, 1.6480860834645748E9, 0.0, 2022-03-23 20:41:23.464
50.0, 1246.497435531579, 404.9432775522582, 1501.7194282077253, 3048.1867593852803, -0.12800000607967377, 0.09600000455975533, 1.008000047877431, 0.0, 0.0, 0.0, 0.0, 0.0, 1.648086083477981E9, 0.0, 2022-03-23 20:41:23.477
50.0, 1195.6160966344178, 407.3929120232351, 1495.1484239855781, 3034.865235743113, -0.12800000607967377, 0.09600000455975533, 1.008000047877431, 0.0, 0.0, 0.0, 0.0, 0.0, 1.648086083477981E9, 0.0, 2022-03-23 20:41:23.477
51.0, 1118.0543114533648, 416.89973771059886, 1497.7700938545167, 3022.4487678902224, -0.12800000607967377, 0.09600000455975533, 1.008000047877431, 0.0, 0.0, 0.0, 0.0, 0.0, 1.6480860834937372E9, 0.0, 2022-03-23 20:41:23.493
51.0, 1059.18454625085, 422.09445874905214, 1499.9691550284624, 3010.8662977274507, -0.12800000607967377, 0.09600000455975533, 1.008000047877431, 0.0, 0.0, 0.0, 0.0, 0.0, 1.6480860834937372E9, 0.0, 2022-03-23 20:41:23.493
52.0, 1018.6215913314372, 429.0469327666797, 1512.2958652824163, 3000.4805955505, -0.12800000607967377, 0.09600000455975533, 1.008000047877431, 0.0, 0.0, 0.0, 0.0, 0.0, 1.648086083494486E9, 0.0, 2022-03-23 20:41:23.494
52.0, 960.8214375162497, 438.0077330605127, 1518.0478314142674, 2988.7036505900323, -0.12800000607967377, 0.09600000455975533, 1.008000047877431, 0.0, 0.0, 0.0, 0.0, 0.0, 1.648086083494486E9, 0.0, 2022-03-23 20:41:23.494
53.0, 895.9640924846753, 426.1036315015517, 1512.202367783524, 2960.680580222048, -0.12800000607967377, 0.09600000455975533, 1.008000047877431, 0.0, 0.0, 0.0, 0.0, 0.0, 1.648086083508047E9, 0.0, 2022-03-23 20:41:23.508
53.0, 858.2958201309666, 416.5145280151628, 1496.1544570736587, 2953.4850127073005, -0.12800000607967377, 0.09600000455975533, 1.008000047877431, 0.0, 0.0, 0.0, 0.0, 0.0, 1.648086083508047E9, 0.0, 2022-03-23 20:41:23.508
54.0, 773.7778210323304, 423.9195299274288, 1500.6273774206638, 2942.661742235534, -0.12800000607967377, 0.09600000455975533, 1.008000047877431, 0.0, 0.0, 0.0, 0.0, 0.0, 1.648086083523752E9, 0.0, 2022-03-23 20:41:23.523
54.0, 762.8236540621147, 429.69019555905834, 1499.045399739407, 2948.1780946701765, -0.12800000607967377, 0.09600000455975533, 1.008000047877431, 0.0, 0.0, 0.0, 0.0, 0.0, 1.648086083523752E9, 0.0, 2022-03-23 20:41:23.523
55.0, 704.0511262584478, 418.7360285888426, 1500.8704709177837, 2924.497048150748, -0.12800000607967377, 0.09600000455975533, 1.008000047877431, 0.0, 0.0, 0.0, 0.0, 0.0, 1.6480860835244567E9, 0.0, 2022-03-23 20:41:23.524
55.0, 689.0990062355995, 421.79152685264125, 1526.5299245137721, 2952.66971451696, -0.12800000607967377, 0.09600000455975533, 1.008000047877431, 0.0, 0.0, 0.0, 0.0, 0.0, 1.6480860835244567E9, 0.0, 2022-03-23 20:41:23.524
56.0, 647.2495257314295, 416.27517441799864, 1512.4005824811757, 2987.226390107535, -0.12800000607967377, 0.09600000455975533, 1.008000047877431, 0.0, 0.0, 0.0, 0.0, 0.0, 1.648086083538144E9, 0.0, 2022-03-23 20:41:23.538
56.0, 580.5820691213012, 420.01881427364424, 1491.3524255305529, 3003.913823709823, -0.12800000607967377, 0.09600000455975533, 1.008000047877431, 0.0, 0.0, 0.0, 0.0, 0.0, 1.648086083538144E9, 0.0, 2022-03-23 20:41:23.538
57.0, 560.274412361905, 423.6352975307964, 1506.727154248394, 3061.3549471292645, -0.12800000607967377, 0.09600000455975533, 1.008000047877431, 0.0, 0.0, 0.0, 0.0, 0.0, 1.6480860835537806E9, 0.0, 2022-03-23 20:41:23.553
57.0, 512.646786426194, 421.76160765299574, 1519.4091549981385, 3102.17595514562, -0.12800000607967377, 0.09600000455975533, 1.008000047877431, 0.0, 0.0, 0.0, 0.0, 0.0, 1.6480860835537806E9, 0.0, 2022-03-23 20:41:23.553
58.0, 430.3989066006616, 418.4817153918557, 1511.334710993804, 3126.960272151977, -0.12800000607967377, 0.09600000455975533, 1.008000047877431, 0.0, 0.0, 0.0, 0.0, 0.0, 1.6480860835545187E9, 0.0, 2022-03-23 20:41:23.554
58.0, 360.3169213309884, 424.23742142366245, 1514.4650072567165, 3169.3669977495447, -0.12800000607967377, 0.09600000455975533, 1.008000047877431, 0.0, 0.0, 0.0, 0.0, 0.0, 1.6480860835545187E9, 0.0, 2022-03-23 20:41:23.554
59.0, 259.54905692487955, 433.9349820087664, 1529.196473182179, 3193.9942389577627, -0.12800000607967377, 0.09600000455975533, 1.008000047877431, 0.0, 0.0, 0.0, 0.0, 0.0, 1.6480860835680232E9, 0.0, 2022-03-23 20:41:23.568
59.0, 83.20155431423336, 433.8601840096526, 1519.0688241021708, 3218.427005368285, -0.12800000607967377, 0.09600000455975533, 1.008000047877431, 0.0, 0.0, 0.0, 0.0, 0.0, 1.6480860835680232E9, 0.0, 2022-03-23 20:41:23.568
60.0, -100.81648310553282, 439.84402393875644, 1512.0976505847648, 3256.4131692182273, -0.12800000607967377, 0.09600000455975533, 1.008000047877431, 0.0, 0.0, 0.0, 0.0, 0.0, 1.6480860835838237E9, 0.0, 2022-03-23 20:41:23.583
60.0, 125.62136956164613, 455.25615165615454, 1529.798597075045, 3214.6197872133926, -0.12800000607967377, 0.09600000455975533, 1.008000047877431, 0.0, 0.0, 0.0, 0.0, 0.0, 1.6480860835838237E9, 0.0, 2022-03-23 20:41:23.583
61.0, 291.214789849706, 466.4571520234458, 1553.5394819937646, 3161.861018538475, -0.12800000607967377, 0.09600000455975533, 1.008000047877431, 0.0, 0.0, 0.0, 0.0, 0.0, 1.6480860835845501E9, 0.0, 2022-03-23 20:41:23.584
61.0, 407.6846242197789, 489.068587155547, 1579.9618751807138, 3028.9374943133444, -0.12800000607967377, 0.09600000455975533, 1.008000047877431, 0.0, 0.0, 0.0, 0.0, 0.0, 1.6480860835845501E9, 0.0, 2022-03-23 20:41:23.584
62.0, 252.71812965581194, 519.1448625992052, 1621.242890891619, 2993.7936544297263, -0.12800000607967377, 0.09600000455975533, 1.008000047877431, 0.0, 0.0, 0.0, 0.0, 0.0, 1.6480860835980859E9, 0.0, 2022-03-23 20:41:23.598
62.0, 194.64496314385906, 551.9550049104728, 1653.6341644078493, 2815.8866135375574, -0.12800000607967377, 0.09600000455975533, 1.008000047877431, 0.0, 0.0, 0.0, 0.0, 0.0, 1.6480860835980859E9, 0.0, 2022-03-23 20:41:23.598
63.0, 44.17756822658703, 606.0414380696602, 1719.0038757333532, 2767.7167021082714, -0.12800000607967377, 0.09600000455975533, 1.008000047877431, 0.0, 0.0, 0.0, 0.0, 0.0, 1.6480860836137795E9, 0.0, 2022-03-23 20:41:23.613
63.0, -134.35403595818207, 686.7036003139801, 1806.6671306947246, 2591.948883990757, -0.12800000607967377, 0.09600000455975533, 1.008000047877431, 0.0, 0.0, 0.0, 0.0, 0.0, 1.6480860836137795E9, 0.0, 2022-03-23 20:41:23.613
64.0, -79.70100795570761, 729.6189523055218, 1861.3893468463793, 2456.392470196821, -0.12800000607967377, 0.09600000455975533, 1.008000047877431, 0.0, 0.0, 0.0, 0.0, 0.0, 1.6480860836145306E9, 0.0, 2022-03-23 20:41:23.614
64.0, 16.191896858159453, 766.5542042679153, 1909.1142101809382, 2575.1586031396873, -0.12800000607967377, 0.09600000455975533, 1.008000047877431, 0.0, 0.0, 0.0, 0.0, 0.0, 1.6480860836145306E9, 0.0, 2022-03-23 20:41:23.614
65.0, -180.82977270754054, 830.49153391039, 1987.7717860490084, 2501.8977029076777, -0.12800000607967377, 0.09600000455975533, 1.008000047877431, 0.0, 0.0, 0.0, 0.0, 0.0, 1.6480860836281006E9, 0.0, 2022-03-23 20:41:23.628
65.0, 8.362416300922632, 893.351772365626, 2040.8110472206026, 2581.903512709774, -0.12800000607967377, 0.09600000455975533, 1.008000047877431, 0.0, 0.0, 0.0, 0.0, 0.0, 1.6480860836281006E9, 0.0, 2022-03-23 20:41:23.628
66.0, 100.37704486073926, 940.4408527077176, 2088.7640444524586, 2367.274394152686, -0.12800000607967377, 0.09600000455975533, 1.008000047877431, 0.0, 0.0, 0.0, 0.0, 0.0, 1.6480860836437664E9, 0.0, 2022-03-23 20:41:23.643
66.0, 265.2037856578827, 961.7395829553716, 2119.659357986413, 2212.281720289029, -0.12800000607967377, 0.09600000455975533, 1.008000047877431, 0.0, 0.0, 0.0, 0.0, 0.0, 1.6480860836437664E9, 0.0, 2022-03-23 20:41:23.643
67.0, 31.37028082832694, 976.8786979760043, 2121.6639443626627, 2078.894448469393, -0.12800000607967377, 0.09600000455975533, 1.008000047877431, 0.0, 0.0, 0.0, 0.0, 0.0, 1.6480860836445427E9, 0.0, 2022-03-23 20:41:23.644
67.0, -125.21185051649809, 1015.0368972239085, 2154.1113163782284, 1991.7772189015523, -0.12800000607967377, 0.09600000455975533, 1.008000047877431, 0.0, 0.0, 0.0, 0.0, 0.0, 1.6480860836445427E9, 0.0, 2022-03-23 20:41:23.644
68.0, -284.85322002507746, 1012.0187979596667, 2155.4950793618336, 1906.3579039135948, -0.12800000607967377, 0.09600000455975533, 1.008000047877431, 0.0, 0.0, 0.0, 0.0, 0.0, 1.648086083658102E9, 0.0, 2022-03-23 20:41:23.658
68.0, -378.7060094131157, 1030.744477037806, 2161.6584344888106, 1840.4646065942943, -0.12800000607967377, 0.09600000455975533, 1.008000047877431, 0.0, 0.0, 0.0, 0.0, 0.0, 1.648086083658102E9, 0.0, 2022-03-23 20:41:23.658
69.0, -437.3513806182891, 1058.677789806854, 2172.9716318547726, 1798.3383734934032, -0.12800000607967377, 0.09600000455975533, 1.008000047877431, 0.0, 0.0, 0.0, 0.0, 0.0, 1.648086083673852E9, 0.0, 2022-03-23 20:41:23.673
69.0, -496.5240777172148, 1062.8290787576698, 2155.334263663739, 1773.883167683147, -0.12800000607967377, 0.09600000455975533, 1.008000047877431, 0.0, 0.0, 0.0, 0.0, 0.0, 1.648086083673852E9, 0.0, 2022-03-23 20:41:23.673
70.0, -524.2928348882124, 1080.1709948522039, 2174.9874379308894, 1760.9019749369472, -0.12800000607967377, 0.09600000455975533, 1.008000047877431, 0.0, 0.0, 0.0, 0.0, 0.0, 1.6480860836745195E9, 0.0, 2022-03-23 20:41:23.674
70.0, -540.2023692997172, 1071.752480051946, 2176.1692463168874, 1747.879643291235, -0.12800000607967377, 0.09600000455975533, 1.008000047877431, 0.0, 0.0, 0.0, 0.0, 0.0, 1.6480860836745195E9, 0.0, 2022-03-23 20:41:23.674
71.0, -546.7584139220417, 1072.8407909390517, 2161.8155102869496, 1752.8798895319924, -0.12800000607967377, 0.09600000455975533, 1.008000047877431, 0.0, 0.0, 0.0, 0.0, 0.0, 1.6480860836881201E9, 0.0, 2022-03-23 20:41:23.688
71.0, -542.9885947667062, 1070.7950656632893, 2151.6018435079604, 1747.240120398812, -0.12800000607967377, 0.09600000455975533, 1.008000047877431, 0.0, 0.0, 0.0, 0.0, 0.0, 1.6480860836881201E9, 0.0, 2022-03-23 20:41:23.688
72.0, -537.7302954290062, 1070.1368432710879, 2148.0077996505424, 1756.2831984916702, -0.12800000607967377, 0.09600000455975533, 1.008000047877431, 0.0, 0.0, 0.0, 0.0, 0.0, 1.6480860837037575E9, 0.0, 2022-03-23 20:41:23.703
72.0, -517.5834543677047, 1066.7185747115873, 2156.250539152883, 1781.9650914873928, -0.12800000607967377, 0.09600000455975533, 1.008000047877431, 0.0, 0.0, 0.0, 0.0, 0.0, 1.6480860837037575E9, 0.0, 2022-03-23 20:41:23.703
73.0, -476.9307418493554, 1067.1262238067575, 2161.73697238788, 1802.5345412436873, -0.12800000607967377, 0.09600000455975533, 1.008000047877431, 0.0, 0.0, 0.0, 0.0, 0.0, 1.6480860837045107E9, 0.0, 2022-03-23 20:41:23.704
73.0, -452.49049563892186, 1054.1712103602476, 2164.7214125525206, 1812.101205330342, -0.12800000607967377, 0.09600000455975533, 1.008000047877431, 0.0, 0.0, 0.0, 0.0, 0.0, 1.6480860837045107E9, 0.0, 2022-03-23 20:41:23.704
74.0, -434.4641778524965, 1040.4607371226884, 2152.1665684012696, 1834.2526327678934, -0.12800000607967377, 0.09600000455975533, 1.008000047877431, 0.0, 0.0, 0.0, 0.0, 0.0, 1.6480860837180707E9, 0.0, 2022-03-23 20:41:23.718
74.0, -389.67887588310987, 1043.4489171872847, 2142.9327554106712, 1859.5418362682685, -0.12800000607967377, 0.09600000455975533, 1.008000047877431, 0.0, 0.0, 0.0, 0.0, 0.0, 1.6480860837180707E9, 0.0, 2022-03-23 20:41:23.718
75.0, -321.0816308958456, 1054.1412911606021, 2139.955795045942, 1897.1689697224647, -0.12800000607967377, 0.09600000455975533, 1.008000047877431, 0.0, 0.0, 0.0, 0.0, 0.0, 1.648086083733728E9, 0.0, 2022-03-23 20:41:23.733
75.0, -261.4564059022814, 1053.58778596716, 2130.5948254568502, 1931.5910089146346, -0.12800000607967377, 0.09600000455975533, 1.008000047877431, 0.0, 0.0, 0.0, 0.0, 0.0, 1.648086083733728E9, 0.0, 2022-03-23 20:41:23.733
76.0, -225.91613662336022, 1040.3148810244165, 2113.1668916633353, 1953.921951550059, -0.12800000607967377, 0.09600000455975533, 1.008000047877431, 0.0, 0.0, 0.0, 0.0, 0.0, 1.6480860837344868E9, 0.0, 2022-03-23 20:41:23.734
76.0, -177.02442450262606, 1034.2151041966863, 2116.5066223237664, 1980.998827229254, -0.12800000607967377, 0.09600000455975533, 1.008000047877431, 0.0, 0.0, 0.0, 0.0, 0.0, 1.6480860837344868E9, 0.0, 2022-03-23 20:41:23.734
77.0, -107.11447463091463, 1027.176612480078, 2110.5115626947954, 2023.7346640229225, -0.12800000607967377, 0.09600000455975533, 1.008000047877431, 0.0, 0.0, 0.0, 0.0, 0.0, 1.648086083748148E9, 0.0, 2022-03-23 20:41:23.748
77.0, -51.50964208971709, 1024.1622531157918, 2096.4944176608697, 2065.4270687289536, -0.12800000607967377, 0.09600000455975533, 1.008000047877431, 0.0, 0.0, 0.0, 0.0, 0.0, 1.648086083748148E9, 0.0, 2022-03-23 20:41:23.748
78.0, 2.8385840663686395, 1017.4154735957272, 2091.9130402151495, 2097.466791649349, -0.12800000607967377, 0.09600000455975533, 1.008000047877431, 0.0, 0.0, 0.0, 0.0, 0.0, 1.6480860837637572E9, 0.0, 2022-03-23 20:41:23.763
78.0, 75.78159280214459, 1016.4917183066718, 2092.7545177051798, 2159.1040828190744, -0.12800000607967377, 0.09600000455975533, 1.008000047877431, 0.0, 0.0, 0.0, 0.0, 0.0, 1.6480860837637572E9, 0.0, 2022-03-23 20:41:23.763
79.0, 144.30403979029506, 999.3367972099222, 2088.229238758795, 2187.074794587679, -0.12800000607967377, 0.09600000455975533, 1.008000047877431, 0.0, 0.0, 0.0, 0.0, 0.0, 1.6480860837644608E9, 0.0, 2022-03-23 20:41:23.764
79.0, 201.11686001718044, 993.3118183813058, 2096.3635211624205, 2233.509392437525, -0.12800000607967377, 0.09600000455975533, 1.008000047877431, 0.0, 0.0, 0.0, 0.0, 0.0, 1.6480860837644608E9, 0.0, 2022-03-23 20:41:23.764
80.0, 287.2878948962316, 1014.5881092292257, 2098.024036742747, 2287.2442750008777, -0.12800000607967377, 0.09600000455975533, 1.008000047877431, 0.0, 0.0, 0.0, 0.0, 0.0, 1.6480860837781124E9, 0.0, 2022-03-23 20:41:23.778
80.0, 362.878752800636, 1003.9331342554651, 2087.0923091722652, 2334.7260448383167, -0.12800000607967377, 0.09600000455975533, 1.008000047877431, 0.0, 0.0, 0.0, 0.0, 0.0, 1.6480860837781124E9, 0.0, 2022-03-23 20:41:23.778
81.0, 422.3543817959726, 1001.7004139819182, 2080.6409817487, 2385.1211967412382, -0.12800000607967377, 0.09600000455975533, 1.008000047877431, 0.0, 0.0, 0.0, 0.0, 0.0, 1.6480860837937043E9, 0.0, 2022-03-23 20:41:23.793
81.0, 498.487525193952, 998.6785748177208, 2069.544698580168, 2430.0822740085423, -0.12800000607967377, 0.09600000455975533, 1.008000047877431, 0.0, 0.0, 0.0, 0.0, 0.0, 1.6480860837937043E9, 0.0, 2022-03-23 20:41:23.793
82.0, 559.9939198652282, 985.5552658732049, 2064.566891739145, 2467.5672912644222, -0.144000006839633, 0.09600000455975533, 1.008000047877431, 0.0, 0.0, 0.0, 0.0, 0.0, 1.6480860837944455E9, 0.0, 2022-03-23 20:41:23.794
82.0, 639.175081727095, 993.2631996818818, 2061.9901006696746, 2535.001427365467, -0.144000006839633, 0.09600000455975533, 1.008000047877431, 0.0, 0.0, 0.0, 0.0, 0.0, 1.6480860837944455E9, 0.0, 2022-03-23 20:41:23.794
83.0, 706.2875864319503, 981.4114567223005, 2057.790193019435, 2573.2643438121304, -0.144000006839633, 0.09600000455975533, 1.008000047877431, 0.0, 0.0, 0.0, 0.0, 0.0, 1.6480860838080351E9, 0.0, 2022-03-23 20:41:23.808
83.0, 786.6243773801252, 970.6966433492489, 2067.375556605868, 2623.442581517622, -0.144000006839633, 0.09600000455975533, 1.008000047877431, 0.0, 0.0, 0.0, 0.0, 0.0, 1.6480860838080351E9, 0.0, 2022-03-23 20:41:23.808
84.0, 872.1858085663989, 970.6854236493818, 2051.1032518986613, 2671.500295948237, -0.144000006839633, 0.09600000455975533, 1.008000047877431, 0.0, 0.0, 0.0, 0.0, 0.0, 1.6480860838236816E9, 0.0, 2022-03-23 20:41:23.823
84.0, 944.9231228046119, 991.1688557066955, 2062.7605200605467, 2729.0349168665707, -0.144000006839633, 0.09600000455975533, 1.008000047877431, 0.0, 0.0, 0.0, 0.0, 0.0, 1.6480860838236816E9, 0.0, 2022-03-23 20:41:23.823
85.0, 1025.3945501511917, 998.4018222209997, 2069.668115278706, 2787.369876375422, -0.144000006839633, 0.09600000455975533, 1.008000047877431, 0.0, 0.0, 0.0, 0.0, 0.0, 1.6480860838244588E9, 0.0, 2022-03-23 20:41:23.824
85.0, 1087.6451849136502, 981.4488557218574, 2053.48182827048, 2819.6826119925827, -0.144000006839633, 0.09600000455975533, 1.008000047877431, 0.0, 0.0, 0.0, 0.0, 0.0, 1.6480860838244588E9, 0.0, 2022-03-23 20:41:23.824
86.0, 1154.5931340204552, 968.6509180734865, 2039.4946024361998, 2867.620649624616, -0.144000006839633, 0.09600000455975533, 1.008000047877431, 0.0, 0.0, 0.0, 0.0, 0.0, 1.6480860838380368E9, 0.0, 2022-03-23 20:41:23.838
86.0, 1220.8379819355905, 964.1331189270131, 2026.5769879892468, 2900.6215268336236, -0.144000006839633, 0.09600000455975533, 1.008000047877431, 0.0, 0.0, 0.0, 0.0, 0.0, 1.6480860838380368E9, 0.0, 2022-03-23 20:41:23.838
87.0, 1293.8408290706575, 968.9201908702962, 2015.4133866215125, 2938.3982562860474, -0.144000006839633, 0.09600000455975533, 1.008000047877431, 0.0, 0.0, 0.0, 0.0, 0.0, 1.648086083853795E9, 0.0, 2022-03-23 20:41:23.853
87.0, 1339.048739735037, 953.9082324481569, 2002.3386963764206, 2968.1267210338265, -0.144000006839633, 0.09600000455975533, 1.008000047877431, 0.0, 0.0, 0.0, 0.0, 0.0, 1.648086083853795E9, 0.0, 2022-03-23 20:41:23.853
88.0, 1406.6212521344423, 926.4910258729942, 1985.3296313779429, 2991.628252355382, -0.144000006839633, 0.09600000455975533, 1.008000047877431, 0.0, 0.0, 0.0, 0.0, 0.0, 1.6480860838544717E9, 0.0, 2022-03-23 20:41:23.854
88.0, 1462.6748726703227, 910.9442617571913, 1982.1843755152076, 3033.3468363611028, -0.144000006839633, 0.09600000455975533, 1.008000047877431, 0.0, 0.0, 0.0, 0.0, 0.0, 1.6480860838544717E9, 0.0, 2022-03-23 20:41:23.854
89.0, 1530.7597513636574, 926.6855006706901, 1985.8270380720496, 3075.2823345642537, -0.144000006839633, 0.09600000455975533, 1.008000047877431, 0.0, 0.0, 0.0, 0.0, 0.0, 1.6480860838680959E9, 0.0, 2022-03-23 20:41:23.868
89.0, 1606.361828967929, 928.061783854384, 1990.2326402198523, 3139.2795026060194, -0.144000006839633, 0.09600000455975533, 1.008000047877431, 0.0, 0.0, 0.0, 0.0, 0.0, 1.6480860838680959E9, 0.0, 2022-03-23 20:41:23.868
90.0, 1680.0677772946656, 917.0552582847886, 1983.216587902978, 3185.5196256581694, -0.144000006839633, 0.09600000455975533, 1.008000047877431, 0.0, 0.0, 0.0, 0.0, 0.0, 1.648086083883711E9, 0.0, 2022-03-23 20:41:23.883
90.0, 1740.8187121748924, 905.8916569170542, 1961.00158216618, 3227.0063358666375, -0.144000006839633, 0.09600000455975533, 1.008000047877431, 0.0, 0.0, 0.0, 0.0, 0.0, 1.648086083883711E9, 0.0, 2022-03-23 20:41:23.883
91.0, 1812.7108090231195, 913.5584518262185, 1979.562705646269, 3288.8904604334384, -0.144000006839633, 0.0800000037997961, 1.008000047877431, 0.0, 0.0, 0.0, 0.0, 0.0, 1.648086083884392E9, 0.0, 2022-03-23 20:41:23.884
91.0, 1884.3672921741381, 926.9323340677656, 1995.0907702622935, 3344.7346465718, -0.144000006839633, 0.0800000037997961, 1.008000047877431, 0.0, 0.0, 0.0, 0.0, 0.0, 1.648086083884392E9, 0.0, 2022-03-23 20:41:23.884
92.0, 1967.9278768841177, 955.8567203250714, 2015.600381619297, 3407.389190529473, -0.12800000607967377, 0.0800000037997961, 1.008000047877431, 0.0, 0.0, 0.0, 0.0, 0.0, 1.6480860838980632E9, 0.0, 2022-03-23 20:41:23.898
92.0, 2035.0815204884857, 947.1577130281366, 2002.4097544755787, 3454.6652658693492, -0.12800000607967377, 0.0800000037997961, 1.008000047877431, 0.0, 0.0, 0.0, 0.0, 0.0, 1.6480860838980632E9, 0.0, 2022-03-23 20:41:23.898
93.0, 2094.2168185878545, 960.4006987712346, 2008.35245550517, 3507.0537844486535, -0.12800000607967377, 0.0800000037997961, 1.008000047877431, 0.0, 0.0, 0.0, 0.0, 0.0, 1.6480860839137151E9, 0.0, 2022-03-23 20:41:23.913
93.0, 2166.4455064320937, 963.2131035379134, 2022.0479691429064, 3558.4437497397885, -0.12800000607967377, 0.0800000037997961, 1.008000047877431, 0.0, 0.0, 0.0, 0.0, 0.0, 1.6480860839137151E9, 0.0, 2022-03-23 20:41:23.913
94.0, 2249.7891769446433, 994.0373589727096, 2050.7404816029593, 3614.5160697754472, -0.12800000607967377, 0.0800000037997961, 1.008000047877431, 0.0, 0.0, 0.0, 0.0, 0.0, 1.648086083914435E9, 0.0, 2022-03-23 20:41:23.914
94.0, 2336.9363257121295, 1004.9541269433685, 2066.5004200162366, 3674.3694286663085, -0.12800000607967377, 0.0800000037997961, 1.008000047877431, 0.0, 0.0, 0.0, 0.0, 0.0, 1.648086083914435E9, 0.0, 2022-03-23 20:41:23.914
95.0, 2386.003813130781, 1022.6251542340033, 2086.8118166755885, 3719.09863213636, -0.12800000607967377, 0.0800000037997961, 1.008000047877431, 0.0, 0.0, 0.0, 0.0, 0.0, 1.6480860839444733E9, 0.0, 2022-03-23 20:41:23.944
95.0, 2468.5621046526358, 1047.1813373430632, 2110.8967723902315, 3778.518162632361, -0.12800000607967377, 0.0800000037997961, 1.008000047877431, 0.0, 0.0, 0.0, 0.0, 0.0, 1.6480860839444733E9, 0.0, 2022-03-23 20:41:23.944
96.0, 2543.045952170156, 1047.5628071385436, 2110.975310289301, 3817.102710475214, -0.12800000607967377, 0.0800000037997961, 1.008000047877431, 0.0, 0.0, 0.0, 0.0, 0.0, 1.64808608394514E9, 0.0, 2022-03-23 20:41:23.945
96.0, 2604.7505615390837, 1050.0685401088558, 2117.968923206441, 3863.885119020939, -0.12800000607967377, 0.0800000037997961, 1.008000047877431, 0.0, 0.0, 0.0, 0.0, 0.0, 1.64808608394514E9, 0.0, 2022-03-23 20:41:23.945
97.0, 2671.6199727468193, 1043.3292403887026, 2103.9480382725596, 3900.4314213879406, -0.12800000607967377, 0.0800000037997961, 1.008000047877431, 0.0, 0.0, 0.0, 0.0, 0.0, 1.648086083945969E9, 0.0, 2022-03-23 20:41:23.945
97.0, 2727.2397648878396, 1038.3252542479895, 2089.497064843774, 3937.246996551752, -0.12800000607967377, 0.0800000037997961, 1.008000047877431, 0.0, 0.0, 0.0, 0.0, 0.0, 1.648086083945969E9, 0.0, 2022-03-23 20:41:23.945
98.0, 2793.361196104437, 1033.4072858062573, 2099.5461760247126, 3985.0653573852032, -0.12800000607967377, 0.0800000037997961, 1.008000047877431, 0.0, 0.0, 0.0, 0.0, 0.0, 1.64808608395799E9, 0.0, 2022-03-23 20:41:23.957
98.0, 2851.965428410098, 1019.3190826731734, 2095.163013276644, 4013.9336451431736, -0.12800000607967377, 0.0800000037997961, 1.008000047877431, 0.0, 0.0, 0.0, 0.0, 0.0, 1.64808608395799E9, 0.0, 2022-03-23 20:41:23.957
99.0, 2902.087567616254, 1001.3974820855074, 2073.998919427395, 4050.7193011073396, -0.12800000607967377, 0.0800000037997961, 1.008000047877431, 0.0, 0.0, 0.0, 0.0, 0.0, 1.6480860839737265E9, 0.0, 2022-03-23 20:41:23.973
99.0, 2966.410106954165, 962.1509719504975, 2041.9741561068222, 4079.7633641632274, -0.12800000607967377, 0.0800000037997961, 1.008000047877431, 0.0, 0.0, 0.0, 0.0, 0.0, 1.6480860839737265E9, 0.0, 2022-03-23 20:41:23.973
100.0, 2993.602919531986, 944.4612451600842, 2004.0740099558607, 4095.616800075397, -0.12800000607967377, 0.0800000037997961, 1.008000047877431, 0.0, 0.0, 0.0, 0.0, 0.0, 1.6480860839744496E9, 0.0, 2022-03-23 20:41:23.974
100.0, 3052.8167555304244, 942.3930804845877, 1991.792178501375, 4124.709481830709, -0.12800000607967377, 0.0800000037997961, 1.008000047877431, 0.0, 0.0, 0.0, 0.0, 0.0, 1.6480860839744496E9, 0.0, 2022-03-23 20:41:23.974
0.0, -3268.6033731237985, 918.5773975667544, 1971.8529018876143, -1718.4223212902434, -0.12800000607967377, 0.0800000037997961, 1.008000047877431, 0.0, 0.0, 0.0, 0.0, 0.0, 1.6480860839887242E9, 0.0, 2022-03-23 20:41:23.988
1.0, -3223.227166961413, 883.3138808845542, 1932.9542024484836, -1704.5173732549883, -0.12800000607967377, 0.12800000607967377, 1.008000047877431, 0.0, 0.0, 0.0, 0.0, 0.0, 1.648086083989498E9, 0.0, 2022-03-23 20:41:23.989
1.0, -3176.500856915023, 862.6434538294561, 1911.7302701999433, -1681.6329254261218, -0.12800000607967377, 0.12800000607967377, 1.008000047877431, 0.0, 0.0, 0.0, 0.0, 0.0, 1.648086083989498E9, 0.0, 2022-03-23 20:41:23.989
2.0, -3122.908090549987, 870.3663472379558, 1920.8668457916938, -1634.147415688727, -0.12800000607967377, 0.12800000607967377, 1.008000047877431, 0.0, 0.0, 0.0, 0.0, 0.0, 1.6480860840030355E9, 0.0, 2022-03-23 20:41:24.003
2.0, -3068.4476673952304, 860.0853622597642, 1914.7932482636534, -1596.6549186329357, -0.12800000607967377, 0.12800000607967377, 1.008000047877431, 0.0, 0.0, 0.0, 0.0, 0.0, 1.6480860840030355E9, 0.0, 2022-03-23 20:41:24.003
3.0, -3029.425551257562, 836.9092022343539, 1889.1599739673547, -1581.9159729075618, -0.12800000607967377, 0.12800000607967377, 1.008000047877431, 0.0, 0.0, 0.0, 0.0, 0.0, 1.6480860840187197E9, 0.0, 2022-03-23 20:41:24.018
3.0, -2982.216794116888, 817.514081064146, 1892.8213360239752, -1552.1912480597384, -0.12800000607967377, 0.12800000607967377, 1.008000047877431, 0.0, 0.0, 0.0, 0.0, 0.0, 1.6480860840187197E9, 0.0, 2022-03-23 20:41:24.018
4.0, -2926.5184640767984, 822.2562742079608, 1881.919527653139, -1514.6725717042573, -0.12800000607967377, 0.12800000607967377, 1.008000047877431, 0.0, 0.0, 0.0, 0.0, 0.0, 1.6480860840194416E9, 0.0, 2022-03-23 20:41:24.019
4.0, -2894.2206880594604, 812.4016378247179, 1869.1702087041922, -1495.9618522259407, -0.12800000607967377, 0.12800000607967377, 1.008000047877431, 0.0, 0.0, 0.0, 0.0, 0.0, 1.6480860840194416E9, 0.0, 2022-03-23 20:41:24.019
5.0, -2848.5340702007525, 808.336366572883, 1866.3727635373361, -1470.414595628623, -0.12800000607967377, 0.12800000607967377, 1.008000047877431, 0.0, 0.0, 0.0, 0.0, 0.0, 1.6480860840329993E9, 0.0, 2022-03-23 20:41:24.032
5.0, -2792.6786643625237, 801.4437309545465, 1846.0090082786046, -1436.5198823302053, -0.12800000607967377, 0.12800000607967377, 1.008000047877431, 0.0, 0.0, 0.0, 0.0, 0.0, 1.6480860840329993E9, 0.0, 2022-03-23 20:41:24.032
6.0, -2744.7518464303575, 806.8665858902968, 1848.8363726451062, -1403.6873006192036, -0.12800000607967377, 0.12800000607967377, 1.008000047877431, 0.0, 0.0, 0.0, 0.0, 0.0, 1.648086084048752E9, 0.0, 2022-03-23 20:41:24.048
6.0, -2687.3705614102073, 787.6771592176519, 1818.1243142089806, -1374.845192160923, -0.12800000607967377, 0.12800000607967377, 1.008000047877431, 0.0, 0.0, 0.0, 0.0, 0.0, 1.648086084048752E9, 0.0, 2022-03-23 20:41:24.048
7.0, -2650.925236342009, 782.5422765784897, 1817.0247836220078, -1344.1705327243544, -0.12800000607967377, 0.12800000607967377, 1.008000047877431, 0.0, 0.0, 0.0, 0.0, 0.0, 1.648086084049434E9, 0.0, 2022-03-23 20:41:24.049
7.0, -2603.529484203551, 770.6680942191742, 1823.9211591403, -1320.3398902066983, -0.12800000607967377, 0.12800000607967377, 1.008000047877431, 0.0, 0.0, 0.0, 0.0, 0.0, 1.648086084049434E9, 0.0, 2022-03-23 20:41:24.049
8.0, -2571.1643899870105, 762.0513647212647, 1831.5505550499074, -1285.8954116147943, -0.12800000607967377, 0.12800000607967377, 1.008000047877431, 0.0, 0.0, 0.0, 0.0, 0.0, 1.6480860840794125E9, 0.0, 2022-03-23 20:41:24.079
8.0, -2532.804236141499, 747.4769745939411, 1820.7908628773876, -1259.3870007288642, -0.12800000607967377, 0.12800000607967377, 1.008000047877431, 0.0, 0.0, 0.0, 0.0, 0.0, 1.6480860840794125E9, 0.0, 2022-03-23 20:41:24.079
9.0, -2461.046775691677, 768.0090253506787, 1812.0619363808073, -1233.1665621395223, -0.12800000607967377, 0.12800000607967377, 1.008000047877431, 0.0, 0.0, 0.0, 0.0, 0.0, 1.6480860840800958E9, 0.0, 2022-03-23 20:41:24.080
9.0, -2428.3824894786812, 766.0455778739415, 1806.6577809448354, -1201.0707407197915, -0.12800000607967377, 0.12800000607967377, 1.008000047877431, 0.0, 0.0, 0.0, 0.0, 0.0, 1.6480860840800958E9, 0.0, 2022-03-23 20:41:24.080
10.0, -2398.272554935422, 754.7211608081125, 1798.9573269360699, -1170.093149386812, -0.12800000607967377, 0.12800000607967377, 1.008000047877431, 0.0, 0.0, 0.0, 0.0, 0.0, 1.6480860840808616E9, 0.0, 2022-03-23 20:41:24.080
10.0, -2351.7556792865507, 743.654796839226, 1798.0709706465714, -1134.7884938050993, -0.12800000607967377, 0.12800000607967377, 1.008000047877431, 0.0, 0.0, 0.0, 0.0, 0.0, 1.6480860840808616E9, 0.0, 2022-03-23 20:41:24.080
11.0, -2339.111077536363, 732.921283966396, 1786.013533189427, -1117.315681212116, -0.12800000607967377, 0.12800000607967377, 1.008000047877431, 0.0, 0.0, 0.0, 0.0, 0.0, 1.6480860840930157E9, 0.0, 2022-03-23 20:41:24.093
11.0, -2282.0102850128897, 733.5234078592621, 1775.3922173152678, -1093.6196750928648, -0.12800000607967377, 0.12800000607967377, 1.008000047877431, 0.0, 0.0, 0.0, 0.0, 0.0, 1.6480860840930157E9, 0.0, 2022-03-23 20:41:24.093
12.0, -2215.7542173978873, 728.7812147154473, 1782.8645374267362, -1044.193157278467, -0.12800000607967377, 0.12800000607967377, 1.008000047877431, 0.0, 0.0, 0.0, 0.0, 0.0, 1.6480860841087098E9, 0.0, 2022-03-23 20:41:24.108
12.0, -2190.1097234017216, 722.3485867916606, 1763.8733254517429, -1019.9735651654191, -0.12800000607967377, 0.12800000607967377, 1.008000047877431, 0.0, 0.0, 0.0, 0.0, 0.0, 1.6480860841087098E9, 0.0, 2022-03-23 20:41:24.108
13.0, -2154.707830421161, 726.3315802444704, 1764.497888744343, -995.3650234569795, -0.12800000607967377, 0.12800000607967377, 1.008000047877431, 0.0, 0.0, 0.0, 0.0, 0.0, 1.6480860841094732E9, 0.0, 2022-03-23 20:41:24.109
13.0, -2116.112062878441, 713.9188522915356, 1764.3632523459382, -963.6731112324633, -0.12800000607967377, 0.12800000607967377, 1.008000047877431, 0.0, 0.0, 0.0, 0.0, 0.0, 1.6480860841094732E9, 0.0, 2022-03-23 20:41:24.109
14.0, -2082.2285692798905, 696.0832694028504, 1756.8460534350015, -946.6790058338083, -0.12800000607967377, 0.12800000607967377, 1.008000047877431, 0.0, 0.0, 0.0, 0.0, 0.0, 1.6480860841230633E9, 0.0, 2022-03-23 20:41:24.123
14.0, -2049.9195735626854, 696.7265321952291, 1745.372040370945, -920.9185749390163, -0.12800000607967377, 0.12800000607967377, 1.008000047877431, 0.0, 0.0, 0.0, 0.0, 0.0, 1.6480860841230633E9, 0.0, 2022-03-23 20:41:24.123
15.0, -2028.661982214544, 695.6980597074144, 1742.5708553041331, -902.9296561521478, -0.12800000607967377, 0.12800000607967377, 1.008000047877431, 0.0, 0.0, 0.0, 0.0, 0.0, 1.648086084138718E9, 0.0, 2022-03-23 20:41:24.138
15.0, -1987.5530019016005, 692.6238619438373, 1735.7866767845117, -885.5204218584113, -0.12800000607967377, 0.12800000607967377, 1.008000047877431, 0.0, 0.0, 0.0, 0.0, 0.0, 1.648086084138718E9, 0.0, 2022-03-23 20:41:24.138
16.0, -1938.436895783525, 685.6713879262097, 1730.1431677513756, -864.5096639073454, -0.12800000607967377, 0.12800000607967377, 1.008000047877431, 0.0, 0.0, 0.0, 0.0, 0.0, 1.6480860841394813E9, 0.0, 2022-03-23 20:41:24.139
16.0, -1930.7925402740948, 680.6898411852308, 1722.1248222463764, -848.4542733975686, -0.12800000607967377, 0.12800000607967377, 1.008000047877431, 0.0, 0.0, 0.0, 0.0, 0.0, 1.6480860841394813E9, 0.0, 2022-03-23 20:41:24.139
17.0, -1908.4503779388033, 647.5131886783056, 1713.2201204518788, -835.96674744552, -0.12800000607967377, 0.12800000607967377, 1.008000047877431, 0.0, 0.0, 0.0, 0.0, 0.0, 1.6480860841530423E9, 0.0, 2022-03-23 20:41:24.153
17.0, -1918.8472998156212, 578.8785446914844, 1635.2656457754783, -862.2133653345518, -0.12800000607967377, 0.12800000607967377, 1.008000047877431, 0.0, 0.0, 0.0, 0.0, 0.0, 1.6480860841530423E9, 0.0, 2022-03-23 20:41:24.153
18.0, -1901.6474999194033, 552.3289949060418, 1605.540920927655, -868.2607835629024, -0.12800000607967377, 0.12800000607967377, 1.008000047877431, 0.0, 0.0, 0.0, 0.0, 0.0, 1.6480860841687813E9, 0.0, 2022-03-23 20:41:24.168
18.0, -1890.229585354682, 532.0101184467785, 1593.4647839707322, -864.3600679091178, -0.12800000607967377, 0.12800000607967377, 1.008000047877431, 0.0, 0.0, 0.0, 0.0, 0.0, 1.6480860841687813E9, 0.0, 2022-03-23 20:41:24.168
19.0, -1870.535272188019, 520.2107340865768, 1570.6177351414226, -851.9660394559614, -0.12800000607967377, 0.12800000607967377, 1.008000047877431, 0.0, 0.0, 0.0, 0.0, 0.0, 1.6480860841694427E9, 0.0, 2022-03-23 20:41:24.169
19.0, -1835.148338807281, 500.82683261623606, 1568.2765577691607, -827.5631922450848, -0.12800000607967377, 0.12800000607967377, 1.008000047877431, 0.0, 0.0, 0.0, 0.0, 0.0, 1.6480860841694427E9, 0.0, 2022-03-23 20:41:24.169
20.0, -1794.8770960844122, 501.6009919070639, 1570.1764269466512, -807.6070860815234, -0.12800000607967377, 0.12800000607967377, 1.008000047877431, 0.0, 0.0, 0.0, 0.0, 0.0, 1.648086084183108E9, 0.0, 2022-03-23 20:41:24.183
20.0, -1774.303906428162, 507.53247323678806, 1564.835849809926, -792.5091099604033, -0.12800000607967377, 0.12800000607967377, 1.008000047877431, 0.0, 0.0, 0.0, 0.0, 0.0, 1.648086084183108E9, 0.0, 2022-03-23 20:41:24.183
21.0, -1732.4993047234602, 516.3848164319061, 1572.2932103215717, -768.2483789478429, -0.12800000607967377, 0.0800000037997961, 1.008000047877431, 0.0, 0.0, 0.0, 0.0, 0.0, 1.6480860841987631E9, 0.0, 2022-03-23 20:41:24.198
21.0, -1692.9049838925712, 514.9973135483451, 1560.542444660794, -735.8346660318784, -0.12800000607967377, 0.0800000037997961, 1.008000047877431, 0.0, 0.0, 0.0, 0.0, 0.0, 1.6480860841987631E9, 0.0, 2022-03-23 20:41:24.198
22.0, -1668.8985660769977, 509.7876329100691, 1565.5165116018616, -717.1650854530744, -0.12800000607967377, 0.0800000037997961, 1.008000047877431, 0.0, 0.0, 0.0, 0.0, 0.0, 1.6480860841994233E9, 0.0, 2022-03-23 20:41:24.199
22.0, -1630.4748339322396, 510.91334279673174, 1577.9666385543533, -688.139721896965, -0.12800000607967377, 0.0800000037997961, 1.008000047877431, 0.0, 0.0, 0.0, 0.0, 0.0, 1.6480860841994233E9, 0.0, 2022-03-23 20:41:24.199
23.0, -1603.394218353089, 499.42811003280804, 1562.3600360392593, -686.8307569124736, -0.12800000607967377, 0.0800000037997961, 1.008000047877431, 0.0, 0.0, 0.0, 0.0, 0.0, 1.6480860842131088E9, 0.0, 2022-03-23 20:41:24.213
23.0, -1557.875895992387, 517.3721500202082, 1585.0238297707401, -650.6060859416611, -0.12800000607967377, 0.0800000037997961, 1.008000047877431, 0.0, 0.0, 0.0, 0.0, 0.0, 1.6480860842131088E9, 0.0, 2022-03-23 20:41:24.213
24.0, -1531.6778968027793, 515.3675636439584, 1577.5776889589615, -638.6234464836307, -0.12800000607967377, 0.0800000037997961, 1.008000047877431, 0.0, 0.0, 0.0, 0.0, 0.0, 1.6480860842286522E9, 0.0, 2022-03-23 20:41:24.228
24.0, -1495.5579430307262, 507.2968595395796, 1582.5667154998519, -621.7078789840452, -0.12800000607967377, 0.0800000037997961, 1.008000047877431, 0.0, 0.0, 0.0, 0.0, 0.0, 1.6480860842286522E9, 0.0, 2022-03-23 20:41:24.228
25.0, -1461.3378584361635, 520.1957744867541, 1585.5212364648469, -597.8959359661676, -0.12800000607967377, 0.0800000037997961, 1.008000047877431, 0.0, 0.0, 0.0, 0.0, 0.0, 1.6480860842295E9, 0.0, 2022-03-23 20:41:24.229
25.0, -1446.714849609416, 525.6074097226374, 1583.6924253865145, -574.469202643726, -0.12800000607967377, 0.0800000037997961, 1.008000047877431, 0.0, 0.0, 0.0, 0.0, 0.0, 1.6480860842295E9, 0.0, 2022-03-23 20:41:24.229
26.0, -1424.256750375498, 523.6252627461217, 1566.5749032893218, -560.9270249041729, -0.12800000607967377, 0.0800000037997961, 1.008000047877431, 0.0, 0.0, 0.0, 0.0, 0.0, 1.6480860842429805E9, 0.0, 2022-03-23 20:41:24.242
26.0, -1379.8529182015918, 520.0424385885708, 1578.198512351606, -541.3523885360919, -0.12800000607967377, 0.0800000037997961, 1.008000047877431, 0.0, 0.0, 0.0, 0.0, 0.0, 1.6480860842429805E9, 0.0, 2022-03-23 20:41:24.242
27.0, -1349.324114863295, 524.2199068390764, 1591.284422296565, -521.740353168454, -0.12800000607967377, 0.0800000037997961, 1.008000047877431, 0.0, 0.0, 0.0, 0.0, 0.0, 1.6480860842588203E9, 0.0, 2022-03-23 20:41:24.258
27.0, -1309.9878471293487, 532.0923962458037, 1585.5212364648469, -503.57565908366814, -0.12800000607967377, 0.0800000037997961, 1.008000047877431, 0.0, 0.0, 0.0, 0.0, 0.0, 1.6480860842588203E9, 0.0, 2022-03-23 20:41:24.258
28.0, -1285.6149191181175, 544.6846393966116, 1601.4195511764847, -478.52206928050146, -0.12800000607967377, 0.0800000037997961, 1.008000047877431, 0.0, 0.0, 0.0, 0.0, 0.0, 1.6480860842594948E9, 0.0, 2022-03-23 20:41:24.259
28.0, -1258.074295844417, 541.2214920376427, 1612.1081852498464, -461.26243098499253, -0.12800000607967377, 0.0800000037997961, 1.008000047877431, 0.0, 0.0, 0.0, 0.0, 0.0, 1.6480860842594948E9, 0.0, 2022-03-23 20:41:24.259
29.0, -1237.24679299118, 541.8871942297556, 1609.2957804831676, -445.300537974108, -0.12800000607967377, 0.0800000037997961, 1.008000047877431, 0.0, 0.0, 0.0, 0.0, 0.0, 1.6480860842730267E9, 0.0, 2022-03-23 20:41:24.273
29.0, -1213.1543574766256, 535.4022077065893, 1596.8269540308975, -440.05345833627507, -0.12800000607967377, 0.0800000037997961, 1.008000047877431, 0.0, 0.0, 0.0, 0.0, 0.0, 1.6480860842730267E9, 0.0, 2022-03-23 20:41:24.273
30.0, -1189.6752655548044, 537.5601299810223, 1595.3496935484, -422.662923542317, -0.12800000607967377, 0.0800000037997961, 1.008000047877431, 0.0, 0.0, 0.0, 0.0, 0.0, 1.6480860842888408E9, 0.0, 2022-03-23 20:41:24.288
30.0, -1163.989632659126, 537.6872865795158, 1593.5545415696688, -408.78789470670745, -0.12800000607967377, 0.0800000037997961, 1.008000047877431, 0.0, 0.0, 0.0, 0.0, 0.0, 1.6480860842888408E9, 0.0, 2022-03-23 20:41:24.288
31.0, -1132.8811448276974, 540.7764439429156, 1609.7221290781163, -380.63018794031814, -0.12800000607967377, 0.09600000455975533, 1.008000047877431, 0.0, 0.0, 0.0, 0.0, 0.0, 1.6480860842895188E9, 0.0, 2022-03-23 20:41:24.289
31.0, -1109.114080609288, 543.1138814152218, 1612.5195742449723, -375.3045704034157, -0.12800000607967377, 0.09600000455975533, 1.008000047877431, 0.0, 0.0, 0.0, 0.0, 0.0, 1.6480860842895188E9, 0.0, 2022-03-23 20:41:24.289
32.0, -1084.281144903507, 546.9547586697154, 1601.210116778966, -362.9255015500821, -0.12800000607967377, 0.09600000455975533, 1.008000047877431, 0.0, 0.0, 0.0, 0.0, 0.0, 1.6480860843030856E9, 0.0, 2022-03-23 20:41:24.303
32.0, -1060.0952118900605, 536.7859706901945, 1594.8485469543375, -343.90811027539894, -0.12800000607967377, 0.09600000455975533, 1.008000047877431, 0.0, 0.0, 0.0, 0.0, 0.0, 1.6480860843030856E9, 0.0, 2022-03-23 20:41:24.303
33.0, -1025.6021145987324, 535.0356975109316, 1602.9192510587163, -327.287994872313, -0.12800000607967377, 0.09600000455975533, 1.008000047877431, 0.0, 0.0, 0.0, 0.0, 0.0, 1.648086084318956E9, 0.0, 2022-03-23 20:41:24.318
33.0, -995.5071396552958, 556.2671095593832, 1633.534072095994, -295.1285951533355, -0.12800000607967377, 0.09600000455975533, 1.008000047877431, 0.0, 0.0, 0.0, 0.0, 0.0, 1.648086084318956E9, 0.0, 2022-03-23 20:41:24.318
34.0, -970.4834690517746, 569.1809841063805, 1626.8845299747773, -271.71682143071666, -0.12800000607967377, 0.09600000455975533, 1.008000047877431, 0.0, 0.0, 0.0, 0.0, 0.0, 1.6480860843195064E9, 0.0, 2022-03-23 20:41:24.319
34.0, -943.3018761738203, 566.3910187394358, 1618.8587046698667, -267.7338279779069, -0.12800000607967377, 0.09600000455975533, 1.008000047877431, 0.0, 0.0, 0.0, 0.0, 0.0, 1.6480860843195064E9, 0.0, 2022-03-23 20:41:24.319
35.0, -911.8680170462467, 569.162284606602, 1640.5463845129125, -247.30275451997295, -0.12800000607967377, 0.09600000455975533, 1.008000047877431, 0.0, 0.0, 0.0, 0.0, 0.0, 1.6480860843330784E9, 0.0, 2022-03-23 20:41:24.333
35.0, -892.2821609782986, 565.1119729545899, 1645.5877696531825, -233.3903266848065, -0.12800000607967377, 0.09600000455975533, 1.008000047877431, 0.0, 0.0, 0.0, 0.0, 0.0, 1.6480860843330784E9, 0.0, 2022-03-23 20:41:24.333
36.0, -859.2999832690693, 566.5368748377077, 1638.9569270317443, -217.72762567037717, -0.12800000607967377, 0.09600000455975533, 1.008000047877431, 0.0, 0.0, 0.0, 0.0, 0.0, 1.6480860843488295E9, 0.0, 2022-03-23 20:41:24.348
36.0, -842.1375823724084, 569.9775827969424, 1636.9972194549628, -196.42515552276745, -0.12800000607967377, 0.09600000455975533, 1.008000047877431, 0.0, 0.0, 0.0, 0.0, 0.0, 1.6480860843488295E9, 0.0, 2022-03-23 20:41:24.348
37.0, -831.5985442972742, 574.1961899469607, 1633.1152033009566, -188.94909551134333, -0.12800000607967377, 0.09600000455975533, 1.008000047877431, 0.0, 0.0, 0.0, 0.0, 0.0, 1.6480860843494675E9, 0.0, 2022-03-23 20:41:24.349
37.0, -807.6631845808588, 556.8505339524709, 1634.5962036834098, -187.3334587304853, -0.12800000607967377, 0.09600000455975533, 1.008000047877431, 0.0, 0.0, 0.0, 0.0, 0.0, 1.6480860843494675E9, 0.0, 2022-03-23 20:41:24.349
38.0, -789.1020611007698, 568.9603300089948, 1639.248639228288, -160.95968424296007, -0.12800000607967377, 0.09600000455975533, 1.008000047877431, 0.0, 0.0, 0.0, 0.0, 0.0, 1.6480860843630793E9, 0.0, 2022-03-23 20:41:24.363
38.0, -772.4221072983928, 575.8155666277744, 1622.1198974312283, -151.830588451121, -0.12800000607967377, 0.09600000455975533, 1.008000047877431, 0.0, 0.0, 0.0, 0.0, 0.0, 1.6480860843630793E9, 0.0, 2022-03-23 20:41:24.363
39.0, -747.0020072995685, 581.9377828552388, 1633.317157898564, -139.35802209889516, -0.12800000607967377, 0.09600000455975533, 1.008000047877431, 0.0, 0.0, 0.0, 0.0, 0.0, 1.6480860843788345E9, 0.0, 2022-03-23 20:41:24.378
39.0, -727.977136224974, 582.7755204453133, 1648.82652301481, -123.1492956909351, -0.12800000607967377, 0.09600000455975533, 1.008000047877431, 0.0, 0.0, 0.0, 0.0, 0.0, 1.6480860843788345E9, 0.0, 2022-03-23 20:41:24.378
40.0, -717.5054163490422, 573.5117882550694, 1646.0178581480868, -118.51555964583531, -0.12800000607967377, 0.09600000455975533, 0.9920000471174717, 0.0, 0.0, 0.0, 0.0, 0.0, 1.6480860843795142E9, 0.0, 2022-03-23 20:41:24.379
40.0, -688.1659011966549, 580.1201914767735, 1644.1778273698874, -104.73028840916231, -0.12800000607967377, 0.09600000455975533, 0.9920000471174717, 0.0, 0.0, 0.0, 0.0, 0.0, 1.6480860843795142E9, 0.0, 2022-03-23 20:41:24.379
41.0, -674.7845391551964, 575.2433619345538, 1636.4773733611219, -87.47065011365339, -0.12800000607967377, 0.09600000455975533, 0.9920000471174717, 0.0, 0.0, 0.0, 0.0, 0.0, 1.6480860843931608E9, 0.0, 2022-03-23 20:41:24.393
41.0, -639.3153279754333, 582.5773057476617, 1652.4841451714747, -64.54880328522995, -0.12800000607967377, 0.09600000455975533, 0.9920000471174717, 0.0, 0.0, 0.0, 0.0, 0.0, 1.6480860843931608E9, 0.0, 2022-03-23 20:41:24.393
42.0, -629.3410147936083, 598.5466785584576, 1672.5150493341498, -50.54287795117125, -0.12800000607967377, 0.09600000455975533, 0.9920000471174717, 0.0, 0.0, 0.0, 0.0, 0.0, 1.6480860844089208E9, 0.0, 2022-03-23 20:41:24.408
42.0, -602.1257628160529, 594.4402684071101, 1663.0119635467418, -35.044732534792274, -0.12800000607967377, 0.09600000455975533, 0.9920000471174717, 0.0, 0.0, 0.0, 0.0, 0.0, 1.6480860844089208E9, 0.0, 2022-03-23 20:41:24.408
43.0, -603.3898490010761, 591.3623307435773, 1647.618535329122, -39.846764077898115, -0.12800000607967377, 0.09600000455975533, 0.9920000471174717, 0.0, 0.0, 0.0, 0.0, 0.0, 1.6480860844094837E9, 0.0, 2022-03-23 20:41:24.409
43.0, -579.8209994803183, 580.5876789712347, 1650.8572886907496, -40.93133506504819, -0.12800000607967377, 0.09600000455975533, 0.9920000471174717, 0.0, 0.0, 0.0, 0.0, 0.0, 1.6480860844094837E9, 0.0, 2022-03-23 20:41:24.409
44.0, -552.7665632008575, 577.6518575060181, 1652.1924329749309, -20.627418205607682, -0.12800000607967377, 0.09600000455975533, 0.9920000471174717, 0.0, 0.0, 0.0, 0.0, 0.0, 1.6480860844230356E9, 0.0, 2022-03-23 20:41:24.423
44.0, -534.18674022099, 572.045747472439, 1654.8141028438695, -4.201777600217611, -0.12800000607967377, 0.09600000455975533, 0.9920000471174717, 0.0, 0.0, 0.0, 0.0, 0.0, 1.6480860844230356E9, 0.0, 2022-03-23 20:41:24.423
45.0, -516.7064478280954, 575.5388140310533, 1664.0628754342906, 2.137352824676782, -0.12800000607967377, 0.09600000455975533, 0.9920000471174717, 0.0, 0.0, 0.0, 0.0, 0.0, 1.6480860844388463E9, 0.0, 2022-03-23 20:41:24.438
45.0, -516.0706648356281, 567.7710418230854, 1650.3299627969973, -0.37959984550252557, -0.12800000607967377, 0.09600000455975533, 0.9920000471174717, 0.0, 0.0, 0.0, 0.0, 0.0, 1.6480860844388463E9, 0.0, 2022-03-23 20:41:24.438
46.0, -492.2512420178391, 571.7577751758508, 1636.7391663580202, 9.815367433708161, -0.12800000607967377, 0.09600000455975533, 0.9920000471174717, 0.0, 0.0, 0.0, 0.0, 0.0, 1.648086084439468E9, 0.0, 2022-03-23 20:41:24.439
46.0, -484.2141970130615, 568.934150709305, 1647.2146261339076, 31.697522074449807, -0.12800000607967377, 0.09600000455975533, 0.9920000471174717, 0.0, 0.0, 0.0, 0.0, 0.0, 1.648086084439468E9, 0.0, 2022-03-23 20:41:24.439
47.0, -462.2086256737821, 565.448563950602, 1640.3294703154825, 37.28493260825053, -0.12800000607967377, 0.09600000455975533, 0.9920000471174717, 0.0, 0.0, 0.0, 0.0, 0.0, 1.6480860844531417E9, 0.0, 2022-03-23 20:41:24.453
47.0, -434.42864880291745, 573.1340583595447, 1653.7968500559218, 55.909634387586266, -0.12800000607967377, 0.09600000455975533, 0.9920000471174717, 0.0, 0.0, 0.0, 0.0, 0.0, 1.6480860844531417E9, 0.0, 2022-03-23 20:41:24.453
48.0, -421.1407842603512, 571.0471941842698, 1667.3465075953864, 66.02606376772746, -0.12800000607967377, 0.09600000455975533, 0.9920000471174717, 0.0, 0.0, 0.0, 0.0, 0.0, 1.6480860844688077E9, 0.0, 2022-03-23 20:41:24.468
48.0, -420.82663266407326, 566.4770364384167, 1666.5611286046915, 67.59308184916154, -0.12800000607967377, 0.09600000455975533, 0.9920000471174717, 0.0, 0.0, 0.0, 0.0, 0.0, 1.6480860844688077E9, 0.0, 2022-03-23 20:41:24.468
49.0, -396.45370465284213, 577.2255089110695, 1667.496103593614, 85.01727574272081, -0.12800000607967377, 0.09600000455975533, 0.9920000471174717, 0.0, 0.0, 0.0, 0.0, 0.0, 1.6480860844694328E9, 0.0, 2022-03-23 20:41:24.469
49.0, -365.87628261512145, 589.4475019662641, 1665.6111940159462, 103.25676782662049, -0.12800000607967377, 0.09600000455975533, 0.9920000471174717, 0.0, 0.0, 0.0, 0.0, 0.0, 1.6480860844694328E9, 0.0, 2022-03-23 20:41:24.469
50.0, -346.83645194070414, 583.1121114413254, 1675.0133025045507, 110.13070394517854, -0.12800000607967377, 0.09600000455975533, 0.9920000471174717, 0.0, 0.0, 0.0, 0.0, 0.0, 1.648086084483095E9, 0.0, 2022-03-23 20:41:24.483
50.0, -332.23214261373505, 604.7698720847256, 1679.243129354436, 125.05664466833696, -0.12800000607967377, 0.09600000455975533, 0.9920000471174717, 0.0, 0.0, 0.0, 0.0, 0.0, 1.648086084483095E9, 0.0, 2022-03-23 20:41:24.483
51.0, -309.0260633886792, 606.9764130585827, 1682.0667538209818, 137.36465542251244, -0.12800000607967377, 0.09600000455975533, 0.9920000471174717, 0.0, 0.0, 0.0, 0.0, 0.0, 1.6480860844986918E9, 0.0, 2022-03-23 20:41:24.498
51.0, -315.51852971175686, 600.9327347301878, 1668.1992047852837, 137.3796150223352, -0.12800000607967377, 0.09600000455975533, 0.9920000471174717, 0.0, 0.0, 0.0, 0.0, 0.0, 1.6480860844986918E9, 0.0, 2022-03-23 20:41:24.498
52.0, -302.3877409673296, 594.2981522087939, 1663.3074156432413, 142.96702555613592, -0.12800000607967377, 0.09600000455975533, 0.9920000471174717, 0.0, 0.0, 0.0, 0.0, 0.0, 1.64808608449946E9, 0.0, 2022-03-23 20:41:24.499
52.0, -286.1827544593252, 581.0289871660061, 1674.863706506323, 143.40085395099595, -0.12800000607967377, 0.09600000455975533, 0.9920000471174717, 0.0, 0.0, 0.0, 0.0, 0.0, 1.64808608449946E9, 0.0, 2022-03-23 20:41:24.499
53.0, -276.1486028782092, 579.3048932864331, 1666.048762310762, 153.1283337357454, -0.12800000607967377, 0.09600000455975533, 0.9920000471174717, 0.0, 0.0, 0.0, 0.0, 0.0, 1.6480860845130615E9, 0.0, 2022-03-23 20:41:24.513
53.0, -279.3275178405456, 579.944416178856, 1655.988431429956, 159.95365115487948, -0.12800000607967377, 0.09600000455975533, 0.9920000471174717, 0.0, 0.0, 0.0, 0.0, 0.0, 1.6480860845130615E9, 0.0, 2022-03-23 20:41:24.513
54.0, -243.08414736995474, 591.5605454412289, 1677.4292778759263, 178.24550183815882, -0.12800000607967377, 0.09600000455975533, 0.9920000471174717, 0.0, 0.0, 0.0, 0.0, 0.0, 1.6480860845290008E9, 0.0, 2022-03-23 20:41:24.529
54.0, -230.87711391458288, 586.4144431021996, 1668.460997782182, 183.09615208068863, -0.12800000607967377, 0.09600000455975533, 0.9920000471174717, 0.0, 0.0, 0.0, 0.0, 0.0, 1.6480860845290008E9, 0.0, 2022-03-23 20:41:24.529
55.0, -208.37039598124102, 601.2094873269089, 1671.9316249410622, 199.88456298178062, -0.12800000607967377, 0.09600000455975533, 0.9920000471174717, 0.0, 0.0, 0.0, 0.0, 0.0, 1.648086084529496E9, 0.0, 2022-03-23 20:41:24.529
55.0, -201.2982451650314, 593.4230156191625, 1667.122113598045, 199.47317398665473, -0.12800000607967377, 0.09600000455975533, 0.9920000471174717, 0.0, 0.0, 0.0, 0.0, 0.0, 1.648086084529496E9, 0.0, 2022-03-23 20:41:24.529
56.0, -182.52394738746807, 591.2351741450839, 1673.8202744186856, 209.4138280688785, -0.12800000607967377, 0.09600000455975533, 0.9920000471174717, 0.0, 0.0, 0.0, 0.0, 0.0, 1.6480860845430372E9, 0.0, 2022-03-23 20:41:24.543
56.0, -178.0697265402414, 593.1537428223528, 1666.1946184090339, 217.64908777130768, -0.12800000607967377, 0.09600000455975533, 0.9920000471174717, 0.0, 0.0, 0.0, 0.0, 0.0, 1.6480860845430372E9, 0.0, 2022-03-23 20:41:24.543
57.0, -180.11919171595946, 590.8686639494263, 1665.0277696228586, 215.50612509669736, -0.12800000607967377, 0.09600000455975533, 0.9920000471174717, 0.0, 0.0, 0.0, 0.0, 0.0, 1.648086084558778E9, 0.0, 2022-03-23 20:41:24.558
57.0, -145.18852612981573, 590.0870248586871, 1676.6177195855416, 234.77408966841176, -0.12800000607967377, 0.09600000455975533, 0.9920000471174717, 0.0, 0.0, 0.0, 0.0, 0.0, 1.648086084558778E9, 0.0, 2022-03-23 20:41:24.558
58.0, -149.88958037411794, 581.9901414546184, 1655.2030524392612, 228.69675224041566, -0.12800000607967377, 0.09600000455975533, 0.9920000471174717, 0.0, 0.0, 0.0, 0.0, 0.0, 1.64808608455953E9, 0.0, 2022-03-23 20:41:24.559
58.0, -152.56360884243622, 568.2796682170592, 1640.5837835124694, 216.73281228216365, -0.12800000607967377, 0.09600000455975533, 0.9920000471174717, 0.0, 0.0, 0.0, 0.0, 0.0, 1.64808608455953E9, 0.0, 2022-03-23 20:41:24.559
59.0, -141.25415137642995, 574.4804223435931, 1642.1844606935047, 231.80834900354967, -0.12800000607967377, 0.09600000455975533, 0.9920000471174717, 0.0, 0.0, 0.0, 0.0, 0.0, 1.648086084573028E9, 0.0, 2022-03-23 20:41:24.573
59.0, -125.24737956607714, 577.6406378061511, 1651.526730782818, 237.23120393930003, -0.12800000607967377, 0.09600000455975533, 0.9920000471174717, 0.0, 0.0, 0.0, 0.0, 0.0, 1.648086084573028E9, 0.0, 2022-03-23 20:41:24.573
60.0, -113.54149270476773, 570.3852318921126, 1656.568115923088, 248.37984570721164, -0.12800000607967377, 0.09600000455975533, 1.008000047877431, 0.0, 0.0, 0.0, 0.0, 0.0, 1.6480860845887144E9, 0.0, 2022-03-23 20:41:24.588
60.0, -101.82812604354694, 576.3241930217482, 1664.7510170261376, 257.78569409577176, -0.12800000607967377, 0.09600000455975533, 1.008000047877431, 0.0, 0.0, 0.0, 0.0, 0.0, 1.6480860845887144E9, 0.0, 2022-03-23 20:41:24.588
61.0, -67.0881953551434, 583.684316134546, 1667.6494394917972, 272.7041550190188, -0.12800000607967377, 0.09600000455975533, 1.008000047877431, 0.0, 0.0, 0.0, 0.0, 0.0, 1.648086084589544E9, 0.0, 2022-03-23 20:41:24.589
61.0, -73.97335117356852, 574.2261091466062, 1661.6768192625605, 264.741908013355, -0.12800000607967377, 0.09600000455975533, 1.008000047877431, 0.0, 0.0, 0.0, 0.0, 0.0, 1.648086084589544E9, 0.0, 2022-03-23 20:41:24.589
62.0, -82.0926739773713, 573.1602376592346, 1652.9665922657587, 271.8177987295203, -0.12800000607967377, 0.09600000455975533, 1.008000047877431, 0.0, 0.0, 0.0, 0.0, 0.0, 1.6480860846030588E9, 0.0, 2022-03-23 20:41:24.603
62.0, -43.870896430220455, 571.8101337752305, 1655.2479312387295, 283.39278909238055, -0.12800000607967377, 0.09600000455975533, 1.008000047877431, 0.0, 0.0, 0.0, 0.0, 0.0, 1.6480860846030588E9, 0.0, 2022-03-23 20:41:24.603
63.0, -32.10143126966432, 584.8960437201895, 1652.4280466721393, 288.5987298307009, -0.12800000607967377, 0.09600000455975533, 1.008000047877431, 0.0, 0.0, 0.0, 0.0, 0.0, 1.6480860846186116E9, 0.0, 2022-03-23 20:41:24.618
63.0, -33.64227005140856, 577.0011149137281, 1658.2510709031485, 293.5615770719014, -0.12800000607967377, 0.09600000455975533, 1.008000047877431, 0.0, 0.0, 0.0, 0.0, 0.0, 1.6480860846186116E9, 0.0, 2022-03-23 20:41:24.618
64.0, -32.961608259472996, 569.6709110005759, 1654.963698842097, 295.7905574454926, -0.12800000607967377, 0.09600000455975533, 1.008000047877431, 0.0, 0.0, 0.0, 0.0, 0.0, 1.6480860846337557E9, 0.0, 2022-03-23 20:41:24.633
64.0, -18.978122325148433, 575.2807609341107, 1665.5812748163007, 306.9354593134485, -0.12800000607967377, 0.09600000455975533, 1.008000047877431, 0.0, 0.0, 0.0, 0.0, 0.0, 1.6480860846337557E9, 0.0, 2022-03-23 20:41:24.633
65.0, -13.252335492987186, 573.7361822524108, 1671.3743798476644, 300.99275828385726, -0.12800000607967377, 0.09600000455975533, 1.008000047877431, 0.0, 0.0, 0.0, 0.0, 0.0, 1.648086084634576E9, 0.0, 2022-03-23 20:41:24.634
65.0, 1.4192920331843197, 580.4231233731844, 1676.4344644877128, 320.316821354907, -0.12800000607967377, 0.09600000455975533, 1.008000047877431, 0.0, 0.0, 0.0, 0.0, 0.0, 1.648086084634576E9, 0.0, 2022-03-23 20:41:24.634
66.0, 17.635498241055757, 578.9570825905539, 1665.4877773174085, 325.85935308923945, -0.12800000607967377, 0.09600000455975533, 1.008000047877431, 0.0, 0.0, 0.0, 0.0, 0.0, 1.6480860846489687E9, 0.0, 2022-03-23 20:41:24.648
66.0, 25.59026544680819, 578.4708955963142, 1655.7528177327476, 318.96297757094726, -0.12800000607967377, 0.09600000455975533, 1.008000047877431, 0.0, 0.0, 0.0, 0.0, 0.0, 1.6480860846489687E9, 0.0, 2022-03-23 20:41:24.648
67.0, 29.827572096604854, 566.1367055424489, 1644.2376657691784, 320.66463205078617, -0.12800000607967377, 0.09600000455975533, 1.008000047877431, 0.0, 0.0, 0.0, 0.0, 0.0, 1.648086084649457E9, 0.0, 2022-03-23 20:41:24.649
67.0, 39.33065788401291, 579.087979089003, 1666.9725175998174, 342.82353928824887, -0.12800000607967377, 0.09600000455975533, 1.008000047877431, 0.0, 0.0, 0.0, 0.0, 0.0, 1.648086084649457E9, 0.0, 2022-03-23 20:41:24.649
68.0, 69.16757973050699, 581.3468786622398, 1675.189077802468, 349.27486671181396, -0.12800000607967377, 0.09600000455975533, 1.008000047877431, 0.0, 0.0, 0.0, 0.0, 0.0, 1.6480860846630547E9, 0.0, 2022-03-23 20:41:24.663
68.0, 65.1621468779631, 577.9510495024733, 1666.3890932067297, 350.1799225010909, -0.12800000607967377, 0.09600000455975533, 1.008000047877431, 0.0, 0.0, 0.0, 0.0, 0.0, 1.6480860846630547E9, 0.0, 2022-03-23 20:41:24.663
69.0, 64.80311648221686, 580.9878482664935, 1665.9702244116925, 351.47018798580393, -0.12800000607967377, 0.09600000455975533, 1.008000047877431, 0.0, 0.0, 0.0, 0.0, 0.0, 1.6480860846786993E9, 0.0, 2022-03-23 20:41:24.678
69.0, 80.37605989770964, 587.8954434846528, 1662.0582890580408, 364.98992632562295, -0.12800000607967377, 0.09600000455975533, 1.008000047877431, 0.0, 0.0, 0.0, 0.0, 0.0, 1.6480860846786993E9, 0.0, 2022-03-23 20:41:24.678
70.0, 82.35072707431391, 584.020907130558, 1681.3823521290906, 364.02129223709926, -0.12800000607967377, 0.09600000455975533, 1.008000047877431, 0.0, 0.0, 0.0, 0.0, 0.0, 1.6480860846795619E9, 0.0, 2022-03-23 20:41:24.679
