%OpenBCI Raw EEG Data
%Number of channels = 4
%Sample Rate = 200 Hz
%Board = OpenBCI_GUI$BoardGanglionBLE
Sample Index, EXG Channel 0, EXG Channel 1, EXG Channel 2, EXG Channel 3, Accel Channel 0, Accel Channel 1, Accel Channel 2, Other, Other, Other, Other, Other, Timestamp, Other, Timestamp (Formatted)
4.0, -23.81194301787764, 8.43721430003643, -3.384609459899366, -41.12767981272191, 0.0, 0.0, 0.0, 0.0, 0.0, 0.0, 0.0, 0.0, 1.6483375956616845E9, 0.0, 2022-03-26 18:33:15.661
4.0, -21.852235441096127, 8.927141194231808, -1.5183993820101023, -3.4332281593233347, 0.0, 0.0, 0.0, 0.0, 0.0, 0.0, 0.0, 0.0, 1.6483375956616845E9, 0.0, 2022-03-26 18:33:15.661
5.0, -15.71505961380899, -0.4113889951258898, -8.983239693567157, -19.604555567726493, 0.0, 0.0, 0.0, 0.0, 0.0, 0.0, 0.0, 0.0, 1.6483375956754484E9, 0.0, 2022-03-26 18:33:15.675
5.0, -32.828841811046004, 3.751119655556977, -0.6283031925559044, -27.7163985716179, 0.0, 0.0, 0.0, 0.0, 0.0, 0.0, 0.0, 0.0, 1.6483375956754484E9, 0.0, 2022-03-26 18:33:15.675
6.0, -8.8560830950737, 4.577637545764446, -3.171435162425041, -16.5266179041937, 0.0, 0.0, 0.0, 0.0, 0.0, 0.0, 0.0, 0.0, 1.6483375957058947E9, 0.0, 2022-03-26 18:33:15.705
6.0, -10.920507870614529, -0.5796844931319356, 3.493066558614373, -14.581869927234948, 0.0, 0.0, 0.0, 0.0, 0.0, 0.0, 0.0, 0.0, 1.6483375957058947E9, 0.0, 2022-03-26 18:33:15.705
7.0, -22.761031130328774, 0.5834243930876255, 2.81240476667881, -17.76826468948275, 0.0, 0.0, 0.0, 0.0, 0.0, 0.0, 0.0, 0.0, 1.6483375957528937E9, 0.0, 2022-03-26 18:33:15.752
7.0, -8.164201603271067, 12.50622545182705, 8.291358201764524, -1.088310887105763, 0.0, 0.0, 0.0, 0.0, 0.0, 0.0, 0.0, 0.0, 1.6483375957528937E9, 0.0, 2022-03-26 18:33:15.752
8.0, -21.205232748761773, -2.9171219654381275, -4.218607150018215, -10.651235073804855, 0.0, 0.0, 0.0, 0.0, 0.0, 0.0, 0.0, 0.0, 1.6483375957537792E9, 0.0, 2022-03-26 18:33:15.753
8.0, -13.377622141502798, 3.6838014563545585, 6.7392997201532125, -2.292558672837913, 0.0, 0.0, 0.0, 0.0, 0.0, 0.0, 0.0, 0.0, 1.6483375957537792E9, 0.0, 2022-03-26 18:33:15.753
9.0, -14.383655229583383, 9.948133882135153, -0.8115582903847098, -2.9208618653938174, 0.0, 0.0, 0.0, 0.0, 0.0, 0.0, 0.0, 0.0, 1.6483375957544577E9, 0.0, 2022-03-26 18:33:15.754
9.0, -9.147795291617513, 10.613836074247956, 0.7517198910936713, -2.8722431659698486, 0.0, 0.0, 0.0, 0.0, 0.0, 0.0, 0.0, 0.0, 1.6483375957544577E9, 0.0, 2022-03-26 18:33:15.754
10.0, -13.29908424243331, 7.850050006993115, 7.980946505442262, -10.808310871943831, 0.0, 0.0, 0.9600000455975533, 0.0, 0.0, 0.0, 0.0, 0.0, 1.648337595755294E9, 0.0, 2022-03-26 18:33:15.755
10.0, -22.446879534050822, 12.139715256169438, 8.526971898972988, -30.6073412373662, 0.0, 0.0, 0.9600000455975533, 0.0, 0.0, 0.0, 0.0, 0.0, 1.648337595755294E9, 0.0, 2022-03-26 18:33:15.755
11.0, -15.804817212745547, 14.821223524399102, 20.49465175718069, 0.5273258937522769, 0.0, 0.4000000189989805, 0.9600000455975533, 0.0, 0.0, 0.0, 0.0, 0.0, 1.648337595766502E9, 0.0, 2022-03-26 18:33:15.766
11.0, -10.262285478413105, 14.379915329627693, 10.84944977145642, 2.0382454758509994, 0.0, 0.4000000189989805, 0.9600000455975533, 0.0, 0.0, 0.0, 0.0, 0.0, 1.648337595766502E9, 0.0, 2022-03-26 18:33:15.766
12.0, -10.718553273007274, 9.776098484173417, -0.45252789463847876, -8.287618301808834, 0.03200000151991844, 0.4000000189989805, 0.9600000455975533, 0.0, 0.0, 0.0, 0.0, 0.0, 1.6483375957673047E9, 0.0, 2022-03-26 18:33:15.767
12.0, -13.478599440306425, 3.3135513607412577, 11.219699867069721, -0.321631396189332, 0.03200000151991844, 0.4000000189989805, 0.9600000455975533, 0.0, 0.0, 0.0, 0.0, 0.0, 1.6483375957673047E9, 0.0, 2022-03-26 18:33:15.767
13.0, -20.606848755851388, 14.723986125551164, 13.762831836938858, -0.5198460938408971, 0.03200000151991844, 0.4000000189989805, 0.9600000455975533, 0.0, 0.0, 0.0, 0.0, 0.0, 1.6483375957824993E9, 0.0, 2022-03-26 18:33:15.782
13.0, -4.080230851657689, 3.6875413563102484, -4.517799146473408, -6.45506732352078, 0.03200000151991844, 0.4000000189989805, 0.9600000455975533, 0.0, 0.0, 0.0, 0.0, 0.0, 1.6483375957824993E9, 0.0, 2022-03-26 18:33:15.782
14.0, -17.573789891786873, 0.38894959539175034, -5.849203530699015, -15.32237011846155, 0.03200000151991844, 0.4000000189989805, 0.9600000455975533, 0.0, 0.0, 0.0, 0.0, 0.0, 1.6483375957832031E9, 0.0, 2022-03-26 18:33:15.783
14.0, -10.153828379698098, 11.380515565164387, 10.396921876817942, 0.1084570987150073, 0.03200000151991844, 0.4000000189989805, 0.9600000455975533, 0.0, 0.0, 0.0, 0.0, 0.0, 1.6483375957832031E9, 0.0, 2022-03-26 18:33:15.783
15.0, -9.716260084882379, 10.381962276995182, 18.347949182614684, 10.583916874602437, 0.03200000151991844, 0.4000000189989805, 0.9600000455975533, 0.0, 0.0, 0.0, 0.0, 0.0, 1.6483375957839007E9, 0.0, 2022-03-26 18:33:15.783
15.0, -21.29873024765402, 11.623609062284231, 16.982885698787868, -7.378822612576187, 0.03200000151991844, 0.4000000189989805, 0.9600000455975533, 0.0, 0.0, 0.0, 0.0, 0.0, 1.6483375957839007E9, 0.0, 2022-03-26 18:33:15.783
16.0, -21.870934940874577, 6.537345122545958, 9.379669088870287, -21.68020004313439, 0.03200000151991844, 0.4000000189989805, 0.9600000455975533, 0.0, 0.0, 0.0, 0.0, 0.0, 1.6483375957846816E9, 0.0, 2022-03-26 18:33:15.784
16.0, -22.622654831968248, 1.7465332793071866, 4.81325124297291, -29.82196224667132, 0.03200000151991844, 0.4000000189989805, 0.9600000455975533, 0.0, 0.0, 0.0, 0.0, 0.0, 1.6483375957846816E9, 0.0, 2022-03-26 18:33:15.784
17.0, -28.2362446654588, 0.523585993796587, 6.645802221260965, -15.240092319436371, 0.03200000151991844, 0.4000000189989805, 0.9600000455975533, 0.0, 0.0, 0.0, 0.0, 0.0, 1.648337595795395E9, 0.0, 2022-03-26 18:33:15.795
17.0, -13.235505943186581, 11.066363968886435, 10.284724878147244, 4.6075567454099655, 0.03200000151991844, 0.4000000189989805, 0.9600000455975533, 0.0, 0.0, 0.0, 0.0, 0.0, 1.648337595795395E9, 0.0, 2022-03-26 18:33:15.795
18.0, -11.724586361087859, 18.12355518527329, 13.074690245091915, 4.84317044261843, 0.03200000151991844, 0.4000000189989805, 0.9600000455975533, 0.0, 0.0, 0.0, 0.0, 0.0, 1.6483375958110704E9, 0.0, 2022-03-26 18:33:15.811
18.0, -5.983839929103851, 23.927879916504025, 18.07867638580501, 5.336837236769497, 0.03200000151991844, 0.4000000189989805, 0.9600000455975533, 0.0, 0.0, 0.0, 0.0, 0.0, 1.6483375958110704E9, 0.0, 2022-03-26 18:33:15.811
19.0, -10.759692172519863, 3.949334353208542, 4.158768750727177, -16.691173502244055, 0.03200000151991844, 0.4000000189989805, 0.9600000455975533, 0.0, 0.0, 0.0, 0.0, 0.0, 1.648337595811864E9, 0.0, 2022-03-26 18:33:15.811
19.0, -17.607448991388083, 13.28038474265486, 13.093389744870365, -3.4481877591460943, 0.03200000151991844, 0.4000000189989805, 0.9600000455975533, 0.0, 0.0, 0.0, 0.0, 0.0, 1.648337595811864E9, 0.0, 2022-03-26 18:33:15.811
20.0, -16.788410901091993, 15.543024215847254, 13.456160040572286, -11.608649462461472, 0.03200000151991844, 0.4000000189989805, 0.9600000455975533, 0.0, 0.0, 0.0, 0.0, 0.0, 1.6483375958417642E9, 0.0, 2022-03-26 18:33:15.841
20.0, -18.392827982082963, 10.617575974203646, 6.907595218159258, -13.889988435432315, 0.03200000151991844, 0.4000000189989805, 0.9600000455975533, 0.0, 0.0, 0.0, 0.0, 0.0, 1.6483375958417642E9, 0.0, 2022-03-26 18:33:15.841
21.0, -6.563524422235787, 14.237799131311476, 17.30077719502151, -17.465332793071866, 0.03200000151991844, 0.4000000189989805, 0.9600000455975533, 0.0, 0.0, 0.0, 0.0, 0.0, 1.6483375958425095E9, 0.0, 2022-03-26 18:33:15.842
21.0, -12.195813755504787, 18.635921479202807, 13.164447844028473, -0.007479799911379814, 0.03200000151991844, 0.4000000189989805, 0.9600000455975533, 0.0, 0.0, 0.0, 0.0, 0.0, 1.6483375958425095E9, 0.0, 2022-03-26 18:33:15.842
22.0, -26.859961481764913, 2.41597537137568, 2.4084955714643, -15.808557112701237, 0.03200000151991844, 0.4000000189989805, 0.9600000455975533, 0.0, 0.0, 0.0, 0.0, 0.0, 1.648337595843294E9, 0.0, 2022-03-26 18:33:15.843
22.0, -16.324663306586444, 13.923647535033524, 5.288218537345529, -15.823516712523997, 0.03200000151991844, 0.4000000189989805, 0.9600000455975533, 0.0, 0.0, 0.0, 0.0, 0.0, 1.648337595843294E9, 0.0, 2022-03-26 18:33:15.843
23.0, -14.686587125994265, 21.609141943976283, 7.5882570100948215, 3.066717963665724, 0.03200000151991844, 0.4000000189989805, 0.9600000455975533, 0.0, 0.0, 0.0, 0.0, 0.0, 1.6483375958718097E9, 0.0, 2022-03-26 18:33:15.871
23.0, -14.185440531931818, 8.530711798928678, 21.998091539368033, -6.279292025603354, 0.03200000151991844, 0.4000000189989805, 0.9600000455975533, 0.0, 0.0, 0.0, 0.0, 0.0, 1.6483375958718097E9, 0.0, 2022-03-26 18:33:15.871
24.0, -9.155275091528893, 15.374728717841208, 15.3036706186831, -6.537345122545958, 0.03200000151991844, 0.4000000189989805, 0.9600000455975533, 0.0, 0.0, 0.0, 0.0, 0.0, 1.6483375958725657E9, 0.0, 2022-03-26 18:33:15.872
24.0, -0.7031011916697025, 17.988918786868453, 20.259038059972227, 3.706240856088698, 0.03200000151991844, 0.4000000189989805, 0.9600000455975533, 0.0, 0.0, 0.0, 0.0, 0.0, 1.6483375958725657E9, 0.0, 2022-03-26 18:33:15.872
25.0, -13.875028835609555, -1.3762831836938858, -0.08601769898086786, -14.581869927234948, 0.03200000151991844, 0.4000000189989805, 0.9600000455975533, 0.0, 0.0, 0.0, 0.0, 0.0, 1.6483375958733552E9, 0.0, 2022-03-26 18:33:15.873
25.0, -13.343963041901588, 18.725679078139365, 8.186641003005207, -19.518537868745625, 0.03200000151991844, 0.4000000189989805, 0.9600000455975533, 0.0, 0.0, 0.0, 0.0, 0.0, 1.6483375958733552E9, 0.0, 2022-03-26 18:33:15.873
26.0, -13.740392437204719, 11.365555965341628, 6.406448624096811, 0.9312350889667869, 0.03200000151991844, 0.4000000189989805, 0.9600000455975533, 0.0, 0.0, 0.0, 0.0, 0.0, 1.6483375959017649E9, 0.0, 2022-03-26 18:33:15.901
26.0, -5.6547287330031395, 16.227425907738507, 8.399815300479531, 4.757152743637562, 0.03200000151991844, 0.4000000189989805, 0.9600000455975533, 0.0, 0.0, 0.0, 0.0, 0.0, 1.6483375959017649E9, 0.0, 2022-03-26 18:33:15.901
27.0, -20.038383962586522, 13.474859540350735, 6.657021921128035, -21.934513240121305, 0.03200000151991844, 0.4000000189989805, 0.9600000455975533, 0.0, 0.0, 0.0, 0.0, 0.0, 1.648337595902502E9, 0.0, 2022-03-26 18:33:15.902
27.0, -3.698761056177318, 18.0824162857607, 2.9582608649507165, -11.750765660777688, 0.03200000151991844, 0.4000000189989805, 0.9600000455975533, 0.0, 0.0, 0.0, 0.0, 0.0, 1.648337595902502E9, 0.0, 2022-03-26 18:33:15.902
28.0, -19.563416668213904, 6.45132742356509, 12.394028453156352, -7.752812608145177, 0.03200000151991844, 0.4000000189989805, 0.9600000455975533, 0.0, 0.0, 0.0, 0.0, 0.0, 1.648337595903304E9, 0.0, 2022-03-26 18:33:15.903
28.0, -18.93137357570231, 18.617221979424357, 11.496452463790774, -26.12694109044969, 0.03200000151991844, 0.4000000189989805, 0.9600000455975533, 0.0, 0.0, 0.0, 0.0, 0.0, 1.648337595903304E9, 0.0, 2022-03-26 18:33:15.903
29.0, -9.540484786964953, 18.94259327556938, 13.018591745756567, -0.8003385905176401, 0.03200000151991844, 0.4000000189989805, 0.9600000455975533, 0.0, 0.0, 0.0, 0.0, 0.0, 1.6483375959154685E9, 0.0, 2022-03-26 18:33:15.915
29.0, 3.788518655113876, 24.051296615041792, 19.118368573486805, -3.1602154625579715, 0.03200000151991844, 0.4000000189989805, 0.9600000455975533, 0.0, 0.0, 0.0, 0.0, 0.0, 1.6483375959154685E9, 0.0, 2022-03-26 18:33:15.915
30.0, -1.9148287773132324, 18.11607538536191, 14.821223524399102, -7.577037310227752, 0.03200000151991844, 0.4000000189989805, 0.944000044837594, 0.0, 0.0, 0.0, 0.0, 0.0, 1.6483375959311037E9, 0.0, 2022-03-26 18:33:15.931
30.0, -7.554597910493612, 18.650881079025567, 15.860915712080896, -6.937514417804778, 0.03200000151991844, 0.4000000189989805, 0.944000044837594, 0.0, 0.0, 0.0, 0.0, 0.0, 1.6483375959311037E9, 0.0, 2022-03-26 18:33:15.931
31.0, -2.2813389729708433, 24.51878410950303, 9.192674091085792, 13.093389744870365, 0.03200000151991844, 0.4000000189989805, 0.944000044837594, 0.0, 0.0, 0.0, 0.0, 0.0, 1.6483375959318433E9, 0.0, 2022-03-26 18:33:15.931
31.0, -13.29908424243331, 24.320569411851466, 18.792997277341783, -2.7263870676979423, 0.03200000151991844, 0.4000000189989805, 0.944000044837594, 0.0, 0.0, 0.0, 0.0, 0.0, 1.6483375959318433E9, 0.0, 2022-03-26 18:33:15.931
32.0, -10.580176974646747, 30.835475134663284, 19.941146563738585, 1.9410080770030618, 0.03200000151991844, 0.4000000189989805, 0.944000044837594, 0.0, 0.0, 0.0, 0.0, 0.0, 1.648337595945451E9, 0.0, 2022-03-26 18:33:15.945
32.0, -20.97709885146469, 22.375821434892714, 14.813743724487722, 7.876229306682944, 0.03200000151991844, 0.4000000189989805, 0.944000044837594, 0.0, 0.0, 0.0, 0.0, 0.0, 1.648337595945451E9, 0.0, 2022-03-26 18:33:15.945
33.0, -11.096283168531954, 16.582716403529048, 14.387395129539073, -8.657868397422135, 0.03200000151991844, 0.4000000189989805, 0.944000044837594, 0.0, 0.0, 0.0, 0.0, 0.0, 1.648337595960857E9, 0.0, 2022-03-26 18:33:15.960
33.0, -24.58984220866114, 15.943193511106074, 11.761985360644758, -23.441692922264338, 0.03200000151991844, 0.4000000189989805, 0.944000044837594, 0.0, 0.0, 0.0, 0.0, 0.0, 1.648337595960857E9, 0.0, 2022-03-26 18:33:15.960
34.0, -9.854636383242905, 6.888895718380809, 4.712273944169283, -23.80446321796626, 0.03200000151991844, 0.4000000189989805, 0.944000044837594, 0.0, 0.0, 0.0, 0.0, 0.0, 1.6483375959761188E9, 0.0, 2022-03-26 18:33:15.976
34.0, 0.5161061938852072, 17.73834548983723, 2.543131969869137, -16.388241605833173, 0.03200000151991844, 0.4000000189989805, 0.944000044837594, 0.0, 0.0, 0.0, 0.0, 0.0, 1.6483375959761188E9, 0.0, 2022-03-26 18:33:15.976
35.0, -13.875028835609555, 25.206925701349974, 9.439507488161325, -1.5034397821873426, 0.03200000151991844, 0.4000000189989805, 0.944000044837594, 0.0, 0.0, 0.0, 0.0, 0.0, 1.6483375959768448E9, 0.0, 2022-03-26 18:33:15.976
35.0, 3.9194151535630226, 27.00955747999251, 21.949472839944065, 5.864163130521774, 0.03200000151991844, 0.4000000189989805, 0.944000044837594, 0.0, 0.0, 0.0, 0.0, 0.0, 1.6483375959768448E9, 0.0, 2022-03-26 18:33:15.976
36.0, -1.5034397821873426, 20.352535558864474, 20.662947255186737, 13.27290494274348, 0.03200000151991844, 0.4000000189989805, 0.944000044837594, 0.0, 0.0, 0.0, 0.0, 0.0, 1.6483375959911857E9, 0.0, 2022-03-26 18:33:15.991
36.0, -6.791658319532871, 20.296437059529126, 16.234905707649887, -0.6619622921571136, 0.03200000151991844, 0.4000000189989805, 0.944000044837594, 0.0, 0.0, 0.0, 0.0, 0.0, 1.6483375959911857E9, 0.0, 2022-03-26 18:33:15.991
37.0, -18.400307781994343, 13.860069235786796, 8.336237001232803, -15.225132719613612, 0.03200000151991844, 0.4000000189989805, 0.944000044837594, 0.0, 0.0, 0.0, 0.0, 0.0, 1.648337595991959E9, 0.0, 2022-03-26 18:33:15.991
37.0, -15.804817212745547, 23.224778724834323, 11.732066160999238, 2.460854170843959, 0.03200000151991844, 0.4000000189989805, 0.944000044837594, 0.0, 0.0, 0.0, 0.0, 0.0, 1.648337595991959E9, 0.0, 2022-03-26 18:33:15.991
38.0, -8.186641003005207, 12.012558657675982, 17.027764498256147, 5.101223539561033, 0.03200000151991844, 0.4000000189989805, 0.944000044837594, 0.0, 0.0, 0.0, 0.0, 0.0, 1.648337596005432E9, 0.0, 2022-03-26 18:33:16.005
38.0, -6.6607618210837245, 20.195459760725498, 18.05249708611518, 9.921954582445323, 0.03200000151991844, 0.4000000189989805, 0.944000044837594, 0.0, 0.0, 0.0, 0.0, 0.0, 1.648337596005432E9, 0.0, 2022-03-26 18:33:16.005
39.0, 0.8265178902074695, 21.560523244552314, 9.794797983951867, 5.146102339029312, 0.03200000151991844, 0.4000000189989805, 0.944000044837594, 0.0, 0.0, 0.0, 0.0, 0.0, 1.6483375960211055E9, 0.0, 2022-03-26 18:33:16.021
39.0, 2.3636167719960213, 19.088449373841286, 3.418268559500575, -5.22838013805449, 0.03200000151991844, 0.4000000189989805, 0.944000044837594, 0.0, 0.0, 0.0, 0.0, 0.0, 1.6483375960211055E9, 0.0, 2022-03-26 18:33:16.021
40.0, -9.24503269046545, 18.811696777120233, -0.45252789463847876, -18.55738358013332, 0.03200000151991844, 0.4000000189989805, 0.944000044837594, 0.0, 0.0, 0.0, 0.0, 0.0, 1.6483375960218322E9, 0.0, 2022-03-26 18:33:16.021
40.0, -20.726525554433465, 11.844263159669936, 17.895421287976205, -10.381962276995182, 0.03200000151991844, 0.4000000189989805, 0.944000044837594, 0.0, 0.0, 0.0, 0.0, 0.0, 1.6483375960218322E9, 0.0, 2022-03-26 18:33:16.021
41.0, -0.12341669853776693, 13.407541341148317, 11.69840706139803, -2.3149980725720525, 0.03200000151991844, 0.4000000189989805, 0.944000044837594, 0.0, 0.0, 0.0, 0.0, 0.0, 1.6483375960354297E9, 0.0, 2022-03-26 18:33:16.035
41.0, -2.82362446654588, 10.08277028053999, 12.760538648813963, -10.726033072918653, 0.03200000151991844, 0.4000000189989805, 0.944000044837594, 0.0, 0.0, 0.0, 0.0, 0.0, 1.6483375960354297E9, 0.0, 2022-03-26 18:33:16.035
42.0, -5.445294335484505, -0.1533358981832862, 14.851142724044621, -4.858130042441189, 0.03200000151991844, 0.4000000189989805, 0.944000044837594, 0.0, 0.0, 0.0, 0.0, 0.0, 1.648337596051204E9, 0.0, 2022-03-26 18:33:16.051
42.0, -3.2424932615831494, 8.635428997687995, 35.85816077515483, 4.177468250505626, 0.03200000151991844, 0.4000000189989805, 0.944000044837594, 0.0, 0.0, 0.0, 0.0, 0.0, 1.648337596051204E9, 0.0, 2022-03-26 18:33:16.051
43.0, -10.206186979077756, 6.42888802383095, 37.52241625543684, 15.011958422139287, 0.03200000151991844, 0.4000000189989805, 0.944000044837594, 0.0, 0.0, 0.0, 0.0, 0.0, 1.6483375960518436E9, 0.0, 2022-03-26 18:33:16.051
43.0, -12.07239705696702, 6.492466323077679, 32.09208151977509, 8.332497101277113, 0.03200000151991844, 0.4000000189989805, 0.944000044837594, 0.0, 0.0, 0.0, 0.0, 0.0, 1.6483375960518436E9, 0.0, 2022-03-26 18:33:16.051
44.0, -14.824963424354792, -2.8011850668117404, 22.761031130328774, -0.19447479769587517, 0.03200000151991844, 0.4000000189989805, 0.944000044837594, 0.0, 0.0, 0.0, 0.0, 0.0, 1.6483375960653944E9, 0.0, 2022-03-26 18:33:16.065
44.0, -24.60854170843959, -7.995906105265021, 13.792751036584377, -0.3739899955689907, 0.03200000151991844, 0.4000000189989805, 0.944000044837594, 0.0, 0.0, 0.0, 0.0, 0.0, 1.6483375960653944E9, 0.0, 2022-03-26 18:33:16.065
45.0, -14.368695629760623, 1.7053943797945976, 23.624948020093143, 2.8311042664572597, 0.03200000151991844, 0.4000000189989805, 0.944000044837594, 0.0, 0.0, 0.0, 0.0, 0.0, 1.6483375960974705E9, 0.0, 2022-03-26 18:33:16.097
45.0, -9.589103486388922, 2.2850788729265332, 28.759830659255385, -0.46000769454985857, 0.03200000151991844, 0.4000000189989805, 0.944000044837594, 0.0, 0.0, 0.0, 0.0, 0.0, 1.6483375960974705E9, 0.0, 2022-03-26 18:33:16.097
46.0, -13.755352037027478, 1.4361215829849243, 23.74088491871953, -12.835336647927761, 0.03200000151991844, 0.4000000189989805, 0.944000044837594, 0.0, 0.0, 0.0, 0.0, 0.0, 1.6483375960982363E9, 0.0, 2022-03-26 18:33:16.098
46.0, -13.340223141945899, 2.3636167719960213, 22.211265836842358, 4.151288950815797, 0.03200000151991844, 0.4000000189989805, 0.944000044837594, 0.0, 0.0, 0.0, 0.0, 0.0, 1.6483375960982363E9, 0.0, 2022-03-26 18:33:16.098
47.0, -26.867441281676292, -0.14585609827190638, 22.028010739013553, -13.545917639508843, 0.03200000151991844, 0.4000000189989805, 0.944000044837594, 0.0, 0.0, 0.0, 0.0, 0.0, 1.648337596098934E9, 0.0, 2022-03-26 18:33:16.098
47.0, -29.885540545918047, 7.479799911379814, 22.52541743312031, -3.1115967631340027, 0.03200000151991844, 0.4000000189989805, 0.944000044837594, 0.0, 0.0, 0.0, 0.0, 0.0, 1.648337596098934E9, 0.0, 2022-03-26 18:33:16.098
48.0, -13.452420140616596, 4.633736045099795, 20.771404353901744, -11.227179666981101, 0.03200000151991844, 0.4000000189989805, 0.944000044837594, 0.0, 0.0, 0.0, 0.0, 0.0, 1.6483375960996983E9, 0.0, 2022-03-26 18:33:16.099
48.0, -0.4787071943283081, 7.378822612576187, 34.354720992967486, 2.700207768008113, 0.03200000151991844, 0.4000000189989805, 0.944000044837594, 0.0, 0.0, 0.0, 0.0, 0.0, 1.6483375960996983E9, 0.0, 2022-03-26 18:33:16.099
49.0, -6.967433617450297, 5.396675636060536, 31.149626730941236, -0.17577529791742563, 0.03200000151991844, 0.4000000189989805, 0.944000044837594, 0.0, 0.0, 0.0, 0.0, 0.0, 1.6483375961104841E9, 0.0, 2022-03-26 18:33:16.110
49.0, -11.335636765696108, 1.2753058848902583, 19.488618669100106, -0.5946440929546952, 0.03200000151991844, 0.4000000189989805, 0.944000044837594, 0.0, 0.0, 0.0, 0.0, 0.0, 1.6483375961104841E9, 0.0, 2022-03-26 18:33:16.110
50.0, -9.398368588648736, 3.743639855645597, 17.222239295952022, -4.704794144257903, 0.03200000151991844, 0.4000000189989805, 0.944000044837594, 0.0, 0.0, 0.0, 0.0, 0.0, 1.6483375961254344E9, 0.0, 2022-03-26 18:33:16.125
50.0, -17.66354749072343, -7.25540591403842, 7.012312416918576, -10.367002677172422, 0.03200000151991844, 0.4000000189989805, 0.944000044837594, 0.0, 0.0, 0.0, 0.0, 0.0, 1.6483375961254344E9, 0.0, 2022-03-26 18:33:16.125
51.0, -18.94259327556938, -4.974066941067576, 13.6730742380023, -23.00038472749293, 0.03200000151991844, 0.4000000189989805, 0.944000044837594, 0.0, 0.0, 0.0, 0.0, 0.0, 1.6483375961407812E9, 0.0, 2022-03-26 18:33:16.140
51.0, -11.492712563835084, -3.859576754271984, 15.509365116246045, -20.846202353015542, 0.03200000151991844, 0.4000000189989805, 0.944000044837594, 0.0, 0.0, 0.0, 0.0, 0.0, 1.6483375961407812E9, 0.0, 2022-03-26 18:33:16.140
52.0, -24.14853401388973, -13.358922641724348, 4.061531351879239, -12.603462850674987, 0.03200000151991844, 0.4000000189989805, 0.944000044837594, 0.0, 0.0, 0.0, 0.0, 0.0, 1.648337596170817E9, 0.0, 2022-03-26 18:33:16.170
52.0, -23.565109620802104, -8.811204295605421, 10.797091172076762, -1.9036090774461627, 0.03200000151991844, 0.4000000189989805, 0.944000044837594, 0.0, 0.0, 0.0, 0.0, 0.0, 1.648337596170817E9, 0.0, 2022-03-26 18:33:16.170
53.0, -12.240692554973066, -2.864763366058469, 14.989519022405148, -18.018837986513972, 0.03200000151991844, 0.4000000189989805, 0.944000044837594, 0.0, 0.0, 0.0, 0.0, 0.0, 1.6483375962031665E9, 0.0, 2022-03-26 18:33:16.203
53.0, -8.358676400966942, 9.091696792282164, 17.858022288419306, -4.940407841466367, 0.03200000151991844, 0.4000000189989805, 0.944000044837594, 0.0, 0.0, 0.0, 0.0, 0.0, 1.6483375962031665E9, 0.0, 2022-03-26 18:33:16.203
54.0, -10.389442076906562, 1.0658714873716235, 23.35941512323916, -1.0509118875488639, 0.03200000151991844, 0.4000000189989805, 0.944000044837594, 0.0, 0.0, 0.0, 0.0, 0.0, 1.6483375962038777E9, 0.0, 2022-03-26 18:33:16.203
54.0, -6.406448624096811, 0.886356289498508, 20.973358951509, 0.8265178902074695, 0.03200000151991844, 0.4000000189989805, 0.944000044837594, 0.0, 0.0, 0.0, 0.0, 0.0, 1.6483375962038777E9, 0.0, 2022-03-26 18:33:16.203
55.0, -5.594890333712101, 5.64350903313607, 15.995552110485733, 0.9611542886123061, 0.03200000151991844, 0.4000000189989805, 0.944000044837594, 0.0, 0.0, 0.0, 0.0, 0.0, 1.6483375962046597E9, 0.0, 2022-03-26 18:33:16.204
55.0, -16.53409770410508, -8.45217389985919, 7.962247005663812, -22.057929938659072, 0.03200000151991844, 0.4000000189989805, 0.944000044837594, 0.0, 0.0, 0.0, 0.0, 0.0, 1.6483375962046597E9, 0.0, 2022-03-26 18:33:16.204
56.0, -14.91098112333566, -8.549411298707128, 6.372789524495602, -20.636767955496907, 0.03200000151991844, 0.4000000189989805, 0.944000044837594, 0.0, 0.0, 0.0, 0.0, 0.0, 1.648337596205412E9, 0.0, 2022-03-26 18:33:16.205
56.0, -21.526864144951105, -3.8520969543606043, 3.3509503602981567, -31.875167322345078, 0.03200000151991844, 0.4000000189989805, 0.944000044837594, 0.0, 0.0, 0.0, 0.0, 0.0, 1.648337596205412E9, 0.0, 2022-03-26 18:33:16.205
57.0, -18.314290083013475, 7.835090407170355, 14.761385125108063, -22.035490538924932, 0.03200000151991844, 0.4000000189989805, 0.944000044837594, 0.0, 0.0, 0.0, 0.0, 0.0, 1.6483375962331417E9, 0.0, 2022-03-26 18:33:16.233
57.0, -3.306071560829878, 0.45626779459416866, 15.587903015315533, -1.7764524789527059, 0.03200000151991844, 0.4000000189989805, 0.944000044837594, 0.0, 0.0, 0.0, 0.0, 0.0, 1.6483375962331417E9, 0.0, 2022-03-26 18:33:16.233
58.0, -5.587410533800721, -4.989026540890336, 3.504286258481443, -6.1371758272871375, 0.03200000151991844, 0.4000000189989805, 0.944000044837594, 0.0, 0.0, 0.0, 0.0, 0.0, 1.6483375962339833E9, 0.0, 2022-03-26 18:33:16.233
58.0, -6.915075018070638, 3.4481877591460943, 16.586456303484738, -21.429626746103168, 0.03200000151991844, 0.4000000189989805, 0.944000044837594, 0.0, 0.0, 0.0, 0.0, 0.0, 1.6483375962339833E9, 0.0, 2022-03-26 18:33:16.233
59.0, -29.38065405189991, -0.605863792821765, 16.896867999807, -14.155521332286298, 0.03200000151991844, 0.4000000189989805, 0.944000044837594, 0.0, 0.0, 0.0, 0.0, 0.0, 1.6483375962347465E9, 0.0, 2022-03-26 18:33:16.234
59.0, -12.581023450940847, 5.086263939738274, 18.16843398474157, -8.900961894541979, 0.03200000151991844, 0.4000000189989805, 0.944000044837594, 0.0, 0.0, 0.0, 0.0, 0.0, 1.6483375962347465E9, 0.0, 2022-03-26 18:33:16.234
60.0, -12.50622545182705, -10.43058097641915, 3.5192458583042026, -6.989873017184436, 0.03200000151991844, 0.4000000189989805, 0.944000044837594, 0.0, 0.0, 0.0, 0.0, 0.0, 1.6483375962353945E9, 0.0, 2022-03-26 18:33:16.235
60.0, -18.198353184387088, -7.360123112797737, 4.177468250505626, -20.808803353458643, 0.03200000151991844, 0.4000000189989805, 0.944000044837594, 0.0, 0.0, 0.0, 0.0, 0.0, 1.6483375962353945E9, 0.0, 2022-03-26 18:33:16.235
61.0, -9.312350889667869, 0.7405001912266016, 19.604555567726493, -1.1556290863081813, 0.03200000151991844, 0.41600001975893974, 0.944000044837594, 0.0, 0.0, 0.0, 0.0, 0.0, 1.648337596246076E9, 0.0, 2022-03-26 18:33:16.246
61.0, -10.426841076463461, -5.946440929546952, 23.71844551898539, -2.81240476667881, 0.03200000151991844, 0.41600001975893974, 0.944000044837594, 0.0, 0.0, 0.0, 0.0, 0.0, 1.648337596246076E9, 0.0, 2022-03-26 18:33:16.246
62.0, -13.24672564305365, -6.892635618336499, 23.164940325543284, -12.319230454042554, 0.03200000151991844, 0.41600001975893974, 0.944000044837594, 0.0, 0.0, 0.0, 0.0, 0.0, 1.6483375962468169E9, 0.0, 2022-03-26 18:33:16.246
62.0, -18.97999227512628, -12.682000749744475, 27.903393569402397, -8.287618301808834, 0.03200000151991844, 0.41600001975893974, 0.944000044837594, 0.0, 0.0, 0.0, 0.0, 0.0, 1.6483375962468169E9, 0.0, 2022-03-26 18:33:16.246
63.0, -14.07698343321681, -16.025471310131252, 28.9767448566854, -5.288218537345529, 0.03200000151991844, 0.41600001975893974, 0.944000044837594, 0.0, 0.0, 0.0, 0.0, 0.0, 1.648337596260831E9, 0.0, 2022-03-26 18:33:16.260
63.0, -23.35193532332778, -12.86151594761759, 38.76780294068158, -4.323324348777533, 0.03200000151991844, 0.41600001975893974, 0.944000044837594, 0.0, 0.0, 0.0, 0.0, 0.0, 1.648337596260831E9, 0.0, 2022-03-26 18:33:16.260
64.0, -17.038984198123217, -7.883709106594324, 51.659238087944686, 7.203047314658761, 0.03200000151991844, 0.41600001975893974, 0.944000044837594, 0.0, 0.0, 0.0, 0.0, 0.0, 1.6483375962761028E9, 0.0, 2022-03-26 18:33:16.276
64.0, -23.475352021865547, -12.233212755061686, 53.327233468182385, 23.512751021422446, 0.03200000151991844, 0.41600001975893974, 0.944000044837594, 0.0, 0.0, 0.0, 0.0, 0.0, 1.6483375962761028E9, 0.0, 2022-03-26 18:33:16.276
65.0, -8.553151198662817, -12.49126585200429, 47.45185063779354, 3.2462331615388393, 0.03200000151991844, 0.41600001975893974, 0.944000044837594, 0.0, 0.0, 0.0, 0.0, 0.0, 1.6483375962768383E9, 0.0, 2022-03-26 18:33:16.276
65.0, -20.50213155709207, -11.747025760821998, 41.5764678074047, -13.153228144161403, 0.03200000151991844, 0.41600001975893974, 0.944000044837594, 0.0, 0.0, 0.0, 0.0, 0.0, 1.6483375962768383E9, 0.0, 2022-03-26 18:33:16.276
66.0, -6.7019007205963135, -6.888895718380809, 51.771435086615384, 5.467733735218644, 0.03200000151991844, 0.41600001975893974, 0.944000044837594, 0.0, 0.0, 0.0, 0.0, 0.0, 1.648337596291114E9, 0.0, 2022-03-26 18:33:16.291
66.0, -15.879615211859345, -5.2246402380988, 48.69723732303828, 11.432874164544046, 0.03200000151991844, 0.41600001975893974, 0.944000044837594, 0.0, 0.0, 0.0, 0.0, 0.0, 1.648337596291114E9, 0.0, 2022-03-26 18:33:16.291
67.0, -23.912920316681266, -18.51250478066504, 39.12683333642781, 3.9680338529869914, 0.03200000151991844, 0.41600001975893974, 0.944000044837594, 0.0, 0.0, 0.0, 0.0, 0.0, 1.6483375962918217E9, 0.0, 2022-03-26 18:33:16.291
67.0, -25.184486301615834, -28.51673716213554, 35.38319348078221, 9.996752581559122, 0.03200000151991844, 0.41600001975893974, 0.944000044837594, 0.0, 0.0, 0.0, 0.0, 0.0, 1.6483375962918217E9, 0.0, 2022-03-26 18:33:16.291
68.0, -20.386194658465683, -23.3444555234164, 35.55896877869964, 18.736898778006434, 0.03200000151991844, 0.41600001975893974, 0.944000044837594, 0.0, 0.0, 0.0, 0.0, 0.0, 1.6483375963053424E9, 0.0, 2022-03-26 18:33:16.305
68.0, -3.3135513607412577, -4.02787225227803, 44.68058477062732, 21.167833749204874, 0.03200000151991844, 0.41600001975893974, 0.944000044837594, 0.0, 0.0, 0.0, 0.0, 0.0, 1.6483375963053424E9, 0.0, 2022-03-26 18:33:16.305
69.0, -14.821223524399102, -1.7390534793958068, 49.88278560899198, 19.234305472113192, 0.03200000151991844, 0.41600001975893974, 0.944000044837594, 0.0, 0.0, 0.0, 0.0, 0.0, 1.6483375963211284E9, 0.0, 2022-03-26 18:33:16.321
69.0, -0.11967679858207703, -2.6403693687170744, 53.14771827030927, 18.17965368460864, 0.03200000151991844, 0.41600001975893974, 0.944000044837594, 0.0, 0.0, 0.0, 0.0, 0.0, 1.6483375963211284E9, 0.0, 2022-03-26 18:33:16.321
70.0, -7.999646005220711, -2.6777683682739735, 35.10644088406116, 9.428287788294256, 0.03200000151991844, 0.41600001975893974, 0.9600000455975533, 0.0, 0.0, 0.0, 0.0, 0.0, 1.64833759632181E9, 0.0, 2022-03-26 18:33:16.321
70.0, -13.803970736451447, -9.304871089756489, 28.677552860230207, 17.454113093204796, 0.03200000151991844, 0.41600001975893974, 0.9600000455975533, 0.0, 0.0, 0.0, 0.0, 0.0, 1.64833759632181E9, 0.0, 2022-03-26 18:33:16.321
71.0, -15.356029218062758, -7.285325113683939, 37.06614846084267, 12.89143514726311, 0.03200000151991844, 0.4000000189989805, 0.9600000455975533, 0.0, 0.0, 0.0, 0.0, 0.0, 1.6483375963354003E9, 0.0, 2022-03-26 18:33:16.335
71.0, -17.36061559431255, -15.157814520411193, 27.40972677525133, -9.936914182268083, 0.03200000151991844, 0.4000000189989805, 0.9600000455975533, 0.0, 0.0, 0.0, 0.0, 0.0, 1.6483375963354003E9, 0.0, 2022-03-26 18:33:16.335
72.0, -17.951519787311554, -9.66764138545841, 29.41805305145681, 9.162754891440272, 0.03200000151991844, 0.4000000189989805, 0.9600000455975533, 0.0, 0.0, 0.0, 0.0, 0.0, 1.6483375963510823E9, 0.0, 2022-03-26 18:33:16.351
72.0, -21.33612924721092, -3.751119655556977, 27.40224697533995, 12.48378605209291, 0.03200000151991844, 0.4000000189989805, 0.9600000455975533, 0.0, 0.0, 0.0, 0.0, 0.0, 1.6483375963510823E9, 0.0, 2022-03-26 18:33:16.351
73.0, -10.015452081337571, -7.9061485063284636, 32.3127356171608, 28.9767448566854, 0.03200000151991844, 0.4000000189989805, 0.9600000455975533, 0.0, 0.0, 0.0, 0.0, 0.0, 1.6483375963518348E9, 0.0, 2022-03-26 18:33:16.351
73.0, -7.322724113240838, -1.0621315874159336, 34.67635238915682, 14.450973428785801, 0.03200000151991844, 0.4000000189989805, 0.9600000455975533, 0.0, 0.0, 0.0, 0.0, 0.0, 1.6483375963518348E9, 0.0, 2022-03-26 18:33:16.351
74.0, -21.79987684171647, -14.47341282851994, 13.904948035255075, -1.2640861850231886, 0.03200000151991844, 0.4000000189989805, 0.9600000455975533, 0.0, 0.0, 0.0, 0.0, 0.0, 1.6483375963653908E9, 0.0, 2022-03-26 18:33:16.365
74.0, -17.517691392451525, -12.947533646598458, 13.433720640838146, 20.52457095682621, 0.03200000151991844, 0.4000000189989805, 0.9600000455975533, 0.0, 0.0, 0.0, 0.0, 0.0, 1.6483375963653908E9, 0.0, 2022-03-26 18:33:16.365
75.0, -21.657760643400252, -2.288818772882223, 21.867195040918887, 14.828703324310482, 0.03200000151991844, 0.4000000189989805, 0.9600000455975533, 0.0, 0.0, 0.0, 0.0, 0.0, 1.6483375963810515E9, 0.0, 2022-03-26 18:33:16.381
75.0, -24.728218507021666, -6.3391304248943925, 23.206079225055873, 27.046956479549408, 0.03200000151991844, 0.4000000189989805, 0.9600000455975533, 0.0, 0.0, 0.0, 0.0, 0.0, 1.6483375963810515E9, 0.0, 2022-03-26 18:33:16.381
76.0, -6.810357819311321, -14.765125025063753, 17.64484799094498, 17.528911092318594, 0.03200000151991844, 0.4000000189989805, 0.9600000455975533, 0.0, 0.0, 0.0, 0.0, 0.0, 1.6483375963818429E9, 0.0, 2022-03-26 18:33:16.381
76.0, -12.162154655903578, -7.524678710848093, 18.13851478509605, 6.2194536263123155, 0.03200000151991844, 0.4000000189989805, 0.9600000455975533, 0.0, 0.0, 0.0, 0.0, 0.0, 1.6483375963818429E9, 0.0, 2022-03-26 18:33:16.381
77.0, -3.021839164197445, 3.0442785639315844, 23.183639825321734, 9.147795291617513, 0.03200000151991844, 0.4000000189989805, 0.9600000455975533, 0.0, 0.0, 0.0, 0.0, 0.0, 1.6483375963954272E9, 0.0, 2022-03-26 18:33:16.395
77.0, -0.7704193908721209, 3.051758363842964, 18.269411283545196, 11.750765660777688, 0.03200000151991844, 0.4000000189989805, 0.9600000455975533, 0.0, 0.0, 0.0, 0.0, 0.0, 1.6483375963954272E9, 0.0, 2022-03-26 18:33:16.395
78.0, 7.083370516076684, 2.9246017653495073, 18.187133484520018, 15.075536721386015, 0.03200000151991844, 0.4000000189989805, 0.9600000455975533, 0.0, 0.0, 0.0, 0.0, 0.0, 1.6483375964111907E9, 0.0, 2022-03-26 18:33:16.411
78.0, -6.0399384284392, -8.972019993700087, 25.031150403432548, 5.916521729901433, 0.03200000151991844, 0.4000000189989805, 0.9600000455975533, 0.0, 0.0, 0.0, 0.0, 0.0, 1.6483375964111907E9, 0.0, 2022-03-26 18:33:16.411
79.0, -0.8639168897643685, 5.303178137168288, 36.55378216691315, 13.557137339375913, 0.03200000151991844, 0.4000000189989805, 0.9600000455975533, 0.0, 0.0, 0.0, 0.0, 0.0, 1.648337596411889E9, 0.0, 2022-03-26 18:33:16.411
79.0, -20.18424006085843, 1.0509118875488639, 26.807602882385254, 18.187133484520018, 0.03200000151991844, 0.4000000189989805, 0.9600000455975533, 0.0, 0.0, 0.0, 0.0, 0.0, 1.648337596411889E9, 0.0, 2022-03-26 18:33:16.411
80.0, -0.16829549800604582, 2.1093035750091076, 31.695652124471962, 11.889141959138215, 0.03200000151991844, 0.4000000189989805, 0.9600000455975533, 0.0, 0.0, 0.0, 0.0, 0.0, 1.6483375964254532E9, 0.0, 2022-03-26 18:33:16.425
80.0, -17.887941488064826, 12.592243150807917, 26.20173908956349, 9.65268178563565, 0.03200000151991844, 0.4000000189989805, 0.9600000455975533, 0.0, 0.0, 0.0, 0.0, 0.0, 1.6483375964254532E9, 0.0, 2022-03-26 18:33:16.425
81.0, -5.909041929990053, 9.914474782533944, 32.48851091507822, 19.918707164004445, 0.03200000151991844, 0.43200002051889896, 0.9600000455975533, 0.0, 0.0, 0.0, 0.0, 0.0, 1.648337596441136E9, 0.0, 2022-03-26 18:33:16.441
81.0, -1.8325509782880545, 10.340823377482593, 31.73305112402886, 17.846802588552237, 0.03200000151991844, 0.43200002051889896, 0.9600000455975533, 0.0, 0.0, 0.0, 0.0, 0.0, 1.648337596441136E9, 0.0, 2022-03-26 18:33:16.441
82.0, -9.544224686920643, 17.985178886912763, 43.53617538418621, 19.641954567283392, 0.03200000151991844, 0.43200002051889896, 0.9600000455975533, 0.0, 0.0, 0.0, 0.0, 0.0, 1.6483375964419043E9, 0.0, 2022-03-26 18:33:16.441
82.0, -24.058776414953172, 23.194859525188804, 37.70941125322133, -7.412481712177396, 0.03200000151991844, 0.43200002051889896, 0.9600000455975533, 0.0, 0.0, 0.0, 0.0, 0.0, 1.6483375964419043E9, 0.0, 2022-03-26 18:33:16.441
83.0, 1.043432087637484, 22.413220434449613, 37.05866866093129, 13.27664484269917, 0.03200000151991844, 0.43200002051889896, 0.9600000455975533, 0.0, 0.0, 0.0, 0.0, 0.0, 1.6483375964554768E9, 0.0, 2022-03-26 18:33:16.455
83.0, -2.4458945710211992, 9.046817992813885, 34.72871098853648, -13.213066543452442, 0.03200000151991844, 0.43200002051889896, 0.9600000455975533, 0.0, 0.0, 0.0, 0.0, 0.0, 1.6483375964554768E9, 0.0, 2022-03-26 18:33:16.455
84.0, -14.428534029051661, 6.671981520950794, 30.13985374290496, 3.418268559500575, 0.03200000151991844, 0.43200002051889896, 0.9600000455975533, 0.0, 0.0, 0.0, 0.0, 0.0, 1.6483375964711187E9, 0.0, 2022-03-26 18:33:16.471
84.0, -23.924140016548336, 11.29075796622783, 29.122600954957306, 11.028964969329536, 0.03200000151991844, 0.43200002051889896, 0.9600000455975533, 0.0, 0.0, 0.0, 0.0, 0.0, 1.6483375964711187E9, 0.0, 2022-03-26 18:33:16.471
85.0, -4.379422848112881, 12.764278548769653, 33.225271206349134, -17.77200458943844, 0.03200000151991844, 0.43200002051889896, 0.9600000455975533, 0.0, 0.0, 0.0, 0.0, 0.0, 1.648337596471808E9, 0.0, 2022-03-26 18:33:16.471
85.0, -12.423947652801871, 12.281831454485655, 26.758984182961285, -0.1533358981832862, 0.03200000151991844, 0.43200002051889896, 0.9600000455975533, 0.0, 0.0, 0.0, 0.0, 0.0, 1.648337596471808E9, 0.0, 2022-03-26 18:33:16.471
86.0, -21.186533248983324, 10.669934573583305, 23.090142326429486, -7.195567514747381, 0.03200000151991844, 0.43200002051889896, 0.9600000455975533, 0.0, 0.0, 0.0, 0.0, 0.0, 1.648337596485469E9, 0.0, 2022-03-26 18:33:16.485
86.0, -16.13766830880195, 2.221500573679805, 28.759830659255385, 8.253959202207625, 0.03200000151991844, 0.43200002051889896, 0.9600000455975533, 0.0, 0.0, 0.0, 0.0, 0.0, 1.648337596485469E9, 0.0, 2022-03-26 18:33:16.485
87.0, -15.748718713410199, 4.6486956449225545, 30.842954934574664, -11.29823776613921, 0.03200000151991844, 0.43200002051889896, 0.9600000455975533, 0.0, 0.0, 0.0, 0.0, 0.0, 1.6483375965011635E9, 0.0, 2022-03-26 18:33:16.501
87.0, -4.450480947270989, 10.827010371722281, 31.112227731384337, 7.775252007879317, 0.03200000151991844, 0.43200002051889896, 0.9600000455975533, 0.0, 0.0, 0.0, 0.0, 0.0, 1.6483375965011635E9, 0.0, 2022-03-26 18:33:16.501
88.0, -15.823516712523997, 19.623255067504942, 34.766109988093376, 6.933774517849088, 0.03200000151991844, 0.43200002051889896, 0.9600000455975533, 0.0, 0.0, 0.0, 0.0, 0.0, 1.6483375965018318E9, 0.0, 2022-03-26 18:33:16.501
88.0, -17.420453993603587, 13.976006134413183, 30.865394334308803, -0.39268949534744024, 0.03200000151991844, 0.43200002051889896, 0.9600000455975533, 0.0, 0.0, 0.0, 0.0, 0.0, 1.6483375965018318E9, 0.0, 2022-03-26 18:33:16.501
89.0, -19.66065406706184, 6.544824922457337, 26.033443591557443, -13.407541341148317, 0.03200000151991844, 0.43200002051889896, 0.9600000455975533, 0.0, 0.0, 0.0, 0.0, 0.0, 1.6483375965155528E9, 0.0, 2022-03-26 18:33:16.515
89.0, -13.875028835609555, -5.8155444310978055, 24.844155405648053, -12.121015756390989, 0.03200000151991844, 0.43200002051889896, 0.9600000455975533, 0.0, 0.0, 0.0, 0.0, 0.0, 1.6483375965155528E9, 0.0, 2022-03-26 18:33:16.515
90.0, -28.707472059875727, -7.457360511645675, 24.451465910300612, -5.7370065320283175, 0.03200000151991844, 0.43200002051889896, 0.944000044837594, 0.0, 0.0, 0.0, 0.0, 0.0, 1.6483375965312572E9, 0.0, 2022-03-26 18:33:16.531
90.0, -21.32490954734385, -10.45676027610898, 32.14444011915475, -0.8601769898086786, 0.03200000151991844, 0.43200002051889896, 0.944000044837594, 0.0, 0.0, 0.0, 0.0, 0.0, 1.6483375965312572E9, 0.0, 2022-03-26 18:33:16.531
91.0, -27.592981873080134, -13.912427835166454, 25.132127702236176, 2.8460638662800193, 0.03200000151991844, 0.4480000212788582, 0.944000044837594, 0.0, 0.0, 0.0, 0.0, 0.0, 1.6483375965319643E9, 0.0, 2022-03-26 18:33:16.531
91.0, -30.491404338739812, -11.806864160113037, 24.395367410965264, -18.5274643804878, 0.03200000151991844, 0.4480000212788582, 0.944000044837594, 0.0, 0.0, 0.0, 0.0, 0.0, 1.6483375965319643E9, 0.0, 2022-03-26 18:33:16.531
92.0, -25.281723700463772, -8.8186840955168, 24.50382450968027, -12.199553655460477, -0.03200000151991844, 0.4480000212788582, 0.944000044837594, 0.0, 0.0, 0.0, 0.0, 0.0, 1.6483375965454733E9, 0.0, 2022-03-26 18:33:16.545
92.0, -21.71011924277991, -10.688634073361754, 23.6773066194728, 4.140069250948727, -0.03200000151991844, 0.4480000212788582, 0.944000044837594, 0.0, 0.0, 0.0, 0.0, 0.0, 1.6483375965454733E9, 0.0, 2022-03-26 18:33:16.545
93.0, -25.41636009886861, -12.44638705253601, 31.463778327219188, -10.310904177837074, -0.03200000151991844, 0.4480000212788582, 0.944000044837594, 0.0, 0.0, 0.0, 0.0, 0.0, 1.6483375965611243E9, 0.0, 2022-03-26 18:33:16.561
93.0, -11.934020758606493, 13.504778739996254, 40.802308516576886, 9.162754891440272, -0.03200000151991844, 0.4480000212788582, 0.944000044837594, 0.0, 0.0, 0.0, 0.0, 0.0, 1.6483375965611243E9, 0.0, 2022-03-26 18:33:16.561
94.0, -40.454497820697725, -3.8072181548923254, 29.253497453406453, -4.2036475501954556, -0.03200000151991844, 0.4480000212788582, 0.944000044837594, 0.0, 0.0, 0.0, 0.0, 0.0, 1.6483375965618708E9, 0.0, 2022-03-26 18:33:16.561
94.0, -28.097868367098272, -3.5716044576838613, 19.862608664669096, -0.17951519787311554, -0.03200000151991844, 0.4480000212788582, 0.944000044837594, 0.0, 0.0, 0.0, 0.0, 0.0, 1.6483375965618708E9, 0.0, 2022-03-26 18:33:16.561
95.0, -19.200646372511983, 7.1843478148803115, 35.74222387652844, -4.054051551967859, -0.03200000151991844, 0.4480000212788582, 0.944000044837594, 0.0, 0.0, 0.0, 0.0, 0.0, 1.6483375965754197E9, 0.0, 2022-03-26 18:33:16.575
95.0, -24.1223547141999, 3.134036162868142, 31.624594025313854, 0.8713966896757483, -0.03200000151991844, 0.4480000212788582, 0.944000044837594, 0.0, 0.0, 0.0, 0.0, 0.0, 1.6483375965754197E9, 0.0, 2022-03-26 18:33:16.575
96.0, -12.805417448282242, 5.6135898334905505, 27.40224697533995, 10.740992672741413, -0.03200000151991844, 0.4480000212788582, 0.944000044837594, 0.0, 0.0, 0.0, 0.0, 0.0, 1.6483375965911107E9, 0.0, 2022-03-26 18:33:16.591
96.0, -14.783824524842203, 13.635675238445401, 27.944532468914986, -8.167941503226757, -0.03200000151991844, 0.4480000212788582, 0.944000044837594, 0.0, 0.0, 0.0, 0.0, 0.0, 1.6483375965911107E9, 0.0, 2022-03-26 18:33:16.591
97.0, -8.549411298707128, 1.7427933793514967, 23.209819125011563, -3.4818468587473035, -0.03200000151991844, 0.4480000212788582, 0.944000044837594, 0.0, 0.0, 0.0, 0.0, 0.0, 1.6483375965918324E9, 0.0, 2022-03-26 18:33:16.591
97.0, -43.99992297869176, -13.938607134856284, 7.539638310670853, -10.505378975532949, -0.03200000151991844, 0.4480000212788582, 0.944000044837594, 0.0, 0.0, 0.0, 0.0, 0.0, 1.6483375965918324E9, 0.0, 2022-03-26 18:33:16.591
98.0, -18.05249708611518, -3.504286258481443, 16.305963806807995, -6.930034617893398, -0.03200000151991844, 0.4480000212788582, 0.944000044837594, 0.0, 0.0, 0.0, 0.0, 0.0, 1.648337596605451E9, 0.0, 2022-03-26 18:33:16.605
98.0, -29.249757553450763, -7.816390907391906, 12.023778357543051, 8.366156200878322, -0.03200000151991844, 0.4480000212788582, 0.944000044837594, 0.0, 0.0, 0.0, 0.0, 0.0, 1.648337596605451E9, 0.0, 2022-03-26 18:33:16.605
99.0, -42.61615999508649, -2.9582608649507165, 20.86490185279399, 14.731465925462544, -0.03200000151991844, 0.4480000212788582, 0.944000044837594, 0.0, 0.0, 0.0, 0.0, 0.0, 1.6483375966211264E9, 0.0, 2022-03-26 18:33:16.621
99.0, -13.69925353769213, 5.153582138940692, 28.61397456098348, 8.755105796270072, -0.03200000151991844, 0.4480000212788582, 0.944000044837594, 0.0, 0.0, 0.0, 0.0, 0.0, 1.6483375966211264E9, 0.0, 2022-03-26 18:33:16.621
100.0, -11.791904560290277, -2.2327202735468745, 13.931127334944904, 3.7137206560000777, -0.03200000151991844, 0.4480000212788582, 0.944000044837594, 0.0, 0.0, 0.0, 0.0, 0.0, 1.648337596621827E9, 0.0, 2022-03-26 18:33:16.621
100.0, -8.48209309950471, 9.368449389003217, 30.54002303816378, 6.559784522280097, -0.03200000151991844, 0.4480000212788582, 0.944000044837594, 0.0, 0.0, 0.0, 0.0, 0.0, 1.648337596621827E9, 0.0, 2022-03-26 18:33:16.621
0.0, 522.9202916044742, 43.77178908139467, 822.1085481597111, 413.70025329850614, -0.03200000151991844, 0.4480000212788582, 0.944000044837594, 0.0, 0.0, 0.0, 0.0, 0.0, 1.6483375966361845E9, 0.0, 2022-03-26 18:33:16.636
1.0, 516.0762746855617, 37.653312753885984, 822.3853007564321, 401.32118444517255, -0.03200000151991844, 0.4000000189989805, 0.944000044837594, 0.0, 0.0, 0.0, 0.0, 0.0, 1.648337596636846E9, 0.0, 2022-03-26 18:33:16.636
1.0, 521.4430311219767, 39.33626773394644, 823.7541041402146, 396.0030467081815, -0.03200000151991844, 0.4000000189989805, 0.944000044837594, 0.0, 0.0, 0.0, 0.0, 0.0, 1.648337596636846E9, 0.0, 2022-03-26 18:33:16.636
2.0, 485.9999992419034, 42.081354301422834, 818.828655898571, 380.46376239228994, 0.03200000151991844, 0.4000000189989805, 0.944000044837594, 0.0, 0.0, 0.0, 0.0, 0.0, 1.6483375966503873E9, 0.0, 2022-03-26 18:33:16.650
2.0, 523.0511881029233, 35.35701418109238, 821.1698332708329, 400.4086488559842, 0.03200000151991844, 0.4000000189989805, 0.944000044837594, 0.0, 0.0, 0.0, 0.0, 0.0, 1.6483375966503873E9, 0.0, 2022-03-26 18:33:16.650
3.0, 519.558121544309, 37.56355515494943, 819.625254589133, 399.2343202698976, 0.03200000151991844, 0.4000000189989805, 0.944000044837594, 0.0, 0.0, 0.0, 0.0, 0.0, 1.648337596682449E9, 0.0, 2022-03-26 18:33:16.682
3.0, 514.685031902045, 45.48840316105634, 827.7969359923154, 382.2289951713756, 0.03200000151991844, 0.4000000189989805, 0.944000044837594, 0.0, 0.0, 0.0, 0.0, 0.0, 1.648337596682449E9, 0.0, 2022-03-26 18:33:16.682
4.0, 510.38040705304593, 42.77697569318116, 823.5633692424744, 394.9633545204997, 0.03200000151991844, 0.4000000189989805, 0.944000044837594, 0.0, 0.0, 0.0, 0.0, 0.0, 1.6483375966831684E9, 0.0, 2022-03-26 18:33:16.683
4.0, 502.85572834219784, 43.8353673806414, 817.9572592088953, 380.68441648967564, 0.03200000151991844, 0.4000000189989805, 0.944000044837594, 0.0, 0.0, 0.0, 0.0, 0.0, 1.6483375966831684E9, 0.0, 2022-03-26 18:33:16.683
5.0, 515.4292719932273, 44.123339677229524, 815.500144938007, 369.71155001968145, 0.03200000151991844, 0.4000000189989805, 0.944000044837594, 0.0, 0.0, 0.0, 0.0, 0.0, 1.6483375966839893E9, 0.0, 2022-03-26 18:33:16.683
5.0, 521.3644932229072, 47.62762593571097, 818.1853931061924, 390.83450496941805, 0.03200000151991844, 0.4000000189989805, 0.944000044837594, 0.0, 0.0, 0.0, 0.0, 0.0, 1.6483375966839893E9, 0.0, 2022-03-26 18:33:16.683
6.0, 530.665624412708, 57.94600991345942, 829.9137193672359, 394.2228543292731, 0.03200000151991844, 0.4000000189989805, 0.944000044837594, 0.0, 0.0, 0.0, 0.0, 0.0, 1.6483375966847227E9, 0.0, 2022-03-26 18:33:16.684
6.0, 525.250249276869, 65.91199681907892, 834.9027459081262, 400.5993837537244, 0.03200000151991844, 0.4000000189989805, 0.944000044837594, 0.0, 0.0, 0.0, 0.0, 0.0, 1.6483375966847227E9, 0.0, 2022-03-26 18:33:16.684
7.0, 527.5914266491309, 75.34028460737318, 849.1106258397922, 434.4641778524965, 0.03200000151991844, 0.4000000189989805, 0.944000044837594, 0.0, 0.0, 0.0, 0.0, 0.0, 1.64833759669541E9, 0.0, 2022-03-26 18:33:16.695
7.0, 542.7567209694535, 88.669288049452, 870.906762781553, 429.6920655090362, 0.03200000151991844, 0.4000000189989805, 0.944000044837594, 0.0, 0.0, 0.0, 0.0, 0.0, 1.64833759669541E9, 0.0, 2022-03-26 18:33:16.695
8.0, 536.7953204400837, 89.88475553505123, 869.2911260006949, 420.0917423227802, 0.03200000151991844, 0.4000000189989805, 0.944000044837594, 0.0, 0.0, 0.0, 0.0, 0.0, 1.6483375967104363E9, 0.0, 2022-03-26 18:33:16.710
8.0, 543.9160899557173, 106.13836074247956, 889.7034999588504, 417.9487796481699, 0.03200000151991844, 0.4000000189989805, 0.944000044837594, 0.0, 0.0, 0.0, 0.0, 0.0, 1.6483375967104363E9, 0.0, 2022-03-26 18:33:16.710
9.0, 548.7031618990004, 116.76341651659459, 907.5652621472254, 435.2383371433243, 0.03200000151991844, 0.4000000189989805, 0.944000044837594, 0.0, 0.0, 0.0, 0.0, 0.0, 1.6483375967261791E9, 0.0, 2022-03-26 18:33:16.726
9.0, 547.4315959140658, 130.881538849324, 924.61172614526, 438.29757530707866, 0.03200000151991844, 0.4000000189989805, 0.944000044837594, 0.0, 0.0, 0.0, 0.0, 0.0, 1.6483375967261791E9, 0.0, 2022-03-26 18:33:16.726
10.0, 537.6704570297152, 135.81072699092329, 922.4837230704725, 434.9054860472679, 0.03200000151991844, 0.4000000189989805, 0.944000044837594, 0.0, 0.0, 0.0, 0.0, 0.0, 1.648337596726846E9, 0.0, 2022-03-26 18:33:16.726
10.0, 540.1649703001603, 143.15963040385395, 927.5625072102994, 443.3277407474816, 0.03200000151991844, 0.4000000189989805, 0.944000044837594, 0.0, 0.0, 0.0, 0.0, 0.0, 1.648337596726846E9, 0.0, 2022-03-26 18:33:16.726
11.0, 547.8242854094133, 151.854897800833, 934.6608373261988, 427.6052013337612, 0.03200000151991844, 0.41600001975893974, 0.944000044837594, 0.0, 0.0, 0.0, 0.0, 0.0, 1.6483375967404072E9, 0.0, 2022-03-26 18:33:16.740
11.0, 507.0481561925262, 144.30403979029506, 938.9392828755081, 442.8378138532862, 0.03200000151991844, 0.41600001975893974, 0.944000044837594, 0.0, 0.0, 0.0, 0.0, 0.0, 1.6483375967404072E9, 0.0, 2022-03-26 18:33:16.740
12.0, 553.4790141424164, 155.38162345904857, 957.7397599527612, 479.6683486169204, 0.1600000075995922, 0.41600001975893974, 0.944000044837594, 0.0, 0.0, 0.0, 0.0, 0.0, 1.6483375967561622E9, 0.0, 2022-03-26 18:33:16.756
12.0, 562.3500568373129, 168.14216210786253, 956.1166433719918, 457.4720423799008, 0.1600000075995922, 0.41600001975893974, 0.944000044837594, 0.0, 0.0, 0.0, 0.0, 0.0, 1.6483375967561622E9, 0.0, 2022-03-26 18:33:16.756
13.0, 532.7412688881159, 144.87250458355993, 941.4861547453329, 428.60001472197473, 0.1600000075995922, 0.41600001975893974, 0.944000044837594, 0.0, 0.0, 0.0, 0.0, 0.0, 1.6483375967568636E9, 0.0, 2022-03-26 18:33:16.756
13.0, 547.562492412515, 145.2913733785972, 945.5364663973451, 435.48143064044416, 0.1600000075995922, 0.41600001975893974, 0.944000044837594, 0.0, 0.0, 0.0, 0.0, 0.0, 1.6483375967568636E9, 0.0, 2022-03-26 18:33:16.756
14.0, 550.3861168790609, 140.107872040011, 933.3967511411756, 431.62559378612787, 0.1600000075995922, 0.41600001975893974, 0.944000044837594, 0.0, 0.0, 0.0, 0.0, 0.0, 1.6483375967703977E9, 0.0, 2022-03-26 18:33:16.770
14.0, 534.5925193661824, 135.08518639951944, 919.2524495087564, 390.183762377128, 0.1600000075995922, 0.41600001975893974, 0.944000044837594, 0.0, 0.0, 0.0, 0.0, 0.0, 1.6483375967703977E9, 0.0, 2022-03-26 18:33:16.770
15.0, 523.2681023003533, 135.15250459872186, 917.1207065340132, 396.6276100007817, 0.1600000075995922, 0.41600001975893974, 0.944000044837594, 0.0, 0.0, 0.0, 0.0, 0.0, 1.6483375967861197E9, 0.0, 2022-03-26 18:33:16.786
15.0, 530.5235082143918, 139.63290474563837, 910.3664472140372, 417.24941835645586, 0.1600000075995922, 0.41600001975893974, 0.944000044837594, 0.0, 0.0, 0.0, 0.0, 0.0, 1.6483375967861197E9, 0.0, 2022-03-26 18:33:16.786
16.0, 528.7919345349073, 124.17589822877198, 907.4605449484661, 413.07195010595024, 0.1600000075995922, 0.41600001975893974, 0.944000044837594, 0.0, 0.0, 0.0, 0.0, 0.0, 1.6483375967868652E9, 0.0, 2022-03-26 18:33:16.786
16.0, 516.4203454814851, 112.48497096728534, 887.9831459792331, 401.8522502388805, 0.1600000075995922, 0.41600001975893974, 0.944000044837594, 0.0, 0.0, 0.0, 0.0, 0.0, 1.6483375967868652E9, 0.0, 2022-03-26 18:33:16.786
17.0, 516.8504339763895, 94.87378207594156, 869.4556815987453, 407.5331582715735, 0.1600000075995922, 0.41600001975893974, 0.944000044837594, 0.0, 0.0, 0.0, 0.0, 0.0, 1.6483375968003736E9, 0.0, 2022-03-26 18:33:16.800
17.0, 528.6086794370785, 99.42898022197187, 867.215481525287, 405.9624002901837, 0.1600000075995922, 0.41600001975893974, 0.944000044837594, 0.0, 0.0, 0.0, 0.0, 0.0, 1.6483375968003736E9, 0.0, 2022-03-26 18:33:16.800
18.0, 498.73809849098325, 90.63273552618921, 858.6847697263584, 379.72326220106333, 0.1600000075995922, 0.41600001975893974, 0.944000044837594, 0.0, 0.0, 0.0, 0.0, 0.0, 1.6483375968158772E9, 0.0, 2022-03-26 18:33:16.815
18.0, 512.5794682269916, 81.87388982996345, 851.4368436122313, 396.76972619909793, 0.1600000075995922, 0.41600001975893974, 0.944000044837594, 0.0, 0.0, 0.0, 0.0, 0.0, 1.6483375968158772E9, 0.0, 2022-03-26 18:33:16.815
19.0, 527.3932119514793, 73.87798372469842, 844.9967358885333, 406.3027311861515, 0.1600000075995922, 0.41600001975893974, 0.944000044837594, 0.0, 0.0, 0.0, 0.0, 0.0, 1.648337596831112E9, 0.0, 2022-03-26 18:33:16.831
19.0, 528.4142046393827, 62.531127259135246, 831.2301641516387, 401.1154899476096, 0.1600000075995922, 0.41600001975893974, 0.944000044837594, 0.0, 0.0, 0.0, 0.0, 0.0, 1.648337596831112E9, 0.0, 2022-03-26 18:33:16.831
20.0, 521.1662785252556, 57.63933811709285, 826.0092638134956, 369.2066635256633, 0.1600000075995922, 0.41600001975893974, 0.944000044837594, 0.0, 0.0, 0.0, 0.0, 0.0, 1.6483375968318422E9, 0.0, 2022-03-26 18:33:16.831
20.0, 522.0713343145326, 62.74430155660957, 824.0308567369357, 391.3431313633919, 0.1600000075995922, 0.41600001975893974, 0.944000044837594, 0.0, 0.0, 0.0, 0.0, 0.0, 1.6483375968318422E9, 0.0, 2022-03-26 18:33:16.831
21.0, 503.4241931354627, 54.516521654091775, 813.3197832638398, 381.94102287478745, 0.1600000075995922, 0.33600001595914364, 0.944000044837594, 0.0, 0.0, 0.0, 0.0, 0.0, 1.6483375968460996E9, 0.0, 2022-03-26 18:33:16.846
21.0, 503.45037243515253, 34.53797609079629, 802.0851237969473, 371.7684949953109, 0.1600000075995922, 0.33600001595914364, 0.944000044837594, 0.0, 0.0, 0.0, 0.0, 0.0, 1.6483375968460996E9, 0.0, 2022-03-26 18:33:16.846
22.0, 509.4342123642564, 52.04070788342506, 807.6837540306151, 381.8101263763383, 0.11200000531971455, 0.33600001595914364, 0.944000044837594, 0.0, 0.0, 0.0, 0.0, 0.0, 1.6483375968468459E9, 0.0, 2022-03-26 18:33:16.846
22.0, 516.2595297833905, 50.208156905137, 812.3062703758478, 378.68730991333723, 0.11200000531971455, 0.33600001595914364, 0.944000044837594, 0.0, 0.0, 0.0, 0.0, 0.0, 1.6483375968468459E9, 0.0, 2022-03-26 18:33:16.846
23.0, 504.14225392695516, 39.96083102654666, 800.79859821219, 366.3942587589845, 0.11200000531971455, 0.33600001595914364, 0.944000044837594, 0.0, 0.0, 0.0, 0.0, 0.0, 1.648337596860422E9, 0.0, 2022-03-26 18:33:16.860
23.0, 502.0516498517245, 40.29742202255875, 799.2652392303571, 367.7406227430329, 0.11200000531971455, 0.33600001595914364, 0.944000044837594, 0.0, 0.0, 0.0, 0.0, 0.0, 1.648337596860422E9, 0.0, 2022-03-26 18:33:16.860
24.0, 496.95416621211916, 37.78420925233513, 796.6847082609311, 382.19907597173005, 0.11200000531971455, 0.33600001595914364, 0.944000044837594, 0.0, 0.0, 0.0, 0.0, 0.0, 1.6483375968761797E9, 0.0, 2022-03-26 18:33:16.876
24.0, 506.0645625041798, 40.67515191808343, 804.0410914737731, 376.86971853487194, 0.11200000531971455, 0.33600001595914364, 0.944000044837594, 0.0, 0.0, 0.0, 0.0, 0.0, 1.6483375968761797E9, 0.0, 2022-03-26 18:33:16.876
25.0, 496.4866787176579, 37.593474354594946, 808.0091253267601, 369.3151206243783, 0.11200000531971455, 0.33600001595914364, 0.944000044837594, 0.0, 0.0, 0.0, 0.0, 0.0, 1.6483375968768811E9, 0.0, 2022-03-26 18:33:16.876
25.0, 506.62928739748895, 23.613728320226073, 795.5215993747115, 362.08215411007404, 0.11200000531971455, 0.33600001595914364, 0.944000044837594, 0.0, 0.0, 0.0, 0.0, 0.0, 1.6483375968768811E9, 0.0, 2022-03-26 18:33:16.876
26.0, 518.5034697568044, 35.218637882731855, 806.2850314471871, 365.37326607108116, 0.11200000531971455, 0.33600001595914364, 0.944000044837594, 0.0, 0.0, 0.0, 0.0, 0.0, 1.6483375968904252E9, 0.0, 2022-03-26 18:33:16.890
26.0, 515.0403223978356, 44.056021478027105, 812.3548890752718, 375.30270045343786, 0.11200000531971455, 0.33600001595914364, 0.944000044837594, 0.0, 0.0, 0.0, 0.0, 0.0, 1.6483375968904252E9, 0.0, 2022-03-26 18:33:16.890
27.0, 518.4810303570703, 49.22830311674625, 814.4417532505468, 395.17278891801834, 0.11200000531971455, 0.33600001595914364, 0.944000044837594, 0.0, 0.0, 0.0, 0.0, 0.0, 1.648337596906128E9, 0.0, 2022-03-26 18:33:16.906
27.0, 509.8792604589835, 36.860453963279724, 807.6426151311025, 387.98844110313803, 0.11200000531971455, 0.33600001595914364, 0.944000044837594, 0.0, 0.0, 0.0, 0.0, 0.0, 1.648337596906128E9, 0.0, 2022-03-26 18:33:16.906
28.0, 509.08266176842153, 38.99219693802297, 802.3843157934025, 380.30294669419527, 0.11200000531971455, 0.33600001595914364, 0.944000044837594, 0.0, 0.0, 0.0, 0.0, 0.0, 1.6483375969068978E9, 0.0, 2022-03-26 18:33:16.906
28.0, 509.583808362484, 37.0923277605325, 800.7761588124558, 369.2515423251316, 0.11200000531971455, 0.33600001595914364, 0.944000044837594, 0.0, 0.0, 0.0, 0.0, 0.0, 1.6483375969068978E9, 0.0, 2022-03-26 18:33:16.906
29.0, 511.41261944081634, 35.7571834763512, 798.2105874428526, 375.5944126499817, 0.11200000531971455, 0.33600001595914364, 0.944000044837594, 0.0, 0.0, 0.0, 0.0, 0.0, 1.6483375969204276E9, 0.0, 2022-03-26 18:33:16.920
29.0, 511.3266017418355, 35.596367778256536, 792.4960203105584, 367.9537970405072, 0.11200000531971455, 0.33600001595914364, 0.944000044837594, 0.0, 0.0, 0.0, 0.0, 0.0, 1.6483375969204276E9, 0.0, 2022-03-26 18:33:16.920
30.0, 499.02607078757137, 28.363401263952255, 780.2254085559398, 361.6221464155242, 0.11200000531971455, 0.33600001595914364, 0.944000044837594, 0.0, 0.0, 0.0, 0.0, 0.0, 1.6483375969361205E9, 0.0, 2022-03-26 18:33:16.936
30.0, 504.2432312257588, 35.35327428113669, 788.52050665766, 372.4379370873794, 0.11200000531971455, 0.33600001595914364, 0.944000044837594, 0.0, 0.0, 0.0, 0.0, 0.0, 1.6483375969361205E9, 0.0, 2022-03-26 18:33:16.936
31.0, 507.36604768875986, 19.858868764713407, 793.2215609019622, 370.82978010643274, 0.11200000531971455, 0.3840000182390213, 0.944000044837594, 0.0, 0.0, 0.0, 0.0, 0.0, 1.6483375969368556E9, 0.0, 2022-03-26 18:33:16.936
31.0, 517.0710880737752, 29.489111150614917, 788.7449006550014, 366.30824106000364, 0.11200000531971455, 0.3840000182390213, 0.944000044837594, 0.0, 0.0, 0.0, 0.0, 0.0, 1.6483375969368556E9, 0.0, 2022-03-26 18:33:16.936
32.0, 501.1690334621817, 24.52626390941441, 784.1897025089711, 373.53372777439654, 0.06400000303983688, 0.3840000182390213, 0.944000044837594, 0.0, 0.0, 0.0, 0.0, 0.0, 1.648337596950409E9, 0.0, 2022-03-26 18:33:16.950
32.0, 508.5815151743591, 32.720384712331, 786.4635616820306, 360.3842395301908, 0.06400000303983688, 0.3840000182390213, 0.944000044837594, 0.0, 0.0, 0.0, 0.0, 0.0, 1.648337596950409E9, 0.0, 2022-03-26 18:33:16.950
33.0, 510.08121505659074, 36.94647166226059, 797.0923573561013, 353.2073715152219, 0.06400000303983688, 0.3840000182390213, 0.944000044837594, 0.0, 0.0, 0.0, 0.0, 0.0, 1.6483375969660833E9, 0.0, 2022-03-26 18:33:16.966
33.0, 511.00497034564614, 35.06530198454857, 793.6628690967336, 366.86548615340143, 0.06400000303983688, 0.3840000182390213, 0.944000044837594, 0.0, 0.0, 0.0, 0.0, 0.0, 1.6483375969660833E9, 0.0, 2022-03-26 18:33:16.966
34.0, 518.4548510573804, 28.16892646625638, 785.2929729958996, 356.8836931716651, 0.06400000303983688, 0.3840000182390213, 0.944000044837594, 0.0, 0.0, 0.0, 0.0, 0.0, 1.6483375969668248E9, 0.0, 2022-03-26 18:33:16.966
34.0, 501.322369360365, 27.462085374630988, 779.9187367595732, 336.73311221040785, 0.06400000303983688, 0.3840000182390213, 0.944000044837594, 0.0, 0.0, 0.0, 0.0, 0.0, 1.6483375969668248E9, 0.0, 2022-03-26 18:33:16.966
35.0, 502.24986454937607, 20.300176959484816, 783.6586367152631, 326.1267559360713, 0.06400000303983688, 0.3840000182390213, 0.944000044837594, 0.0, 0.0, 0.0, 0.0, 0.0, 1.6483375969804423E9, 0.0, 2022-03-26 18:33:16.980
35.0, 517.5460553681478, 28.367141163907945, 787.7650468666106, 348.3829005723819, 0.06400000303983688, 0.3840000182390213, 0.944000044837594, 0.0, 0.0, 0.0, 0.0, 0.0, 1.6483375969804423E9, 0.0, 2022-03-26 18:33:16.980
36.0, 520.8558668289334, 31.77045012358576, 785.2929729958996, 359.5839009396732, 0.06400000303983688, 0.3840000182390213, 0.944000044837594, 0.0, 0.0, 0.0, 0.0, 0.0, 1.6483375969960933E9, 0.0, 2022-03-26 18:33:16.996
36.0, 513.817375112325, 42.22347049973905, 803.2744119828567, 365.01423567533493, 0.06400000303983688, 0.3840000182390213, 0.944000044837594, 0.0, 0.0, 0.0, 0.0, 0.0, 1.6483375969960933E9, 0.0, 2022-03-26 18:33:16.996
37.0, 500.69780606776476, 31.912566321901977, 796.879183058627, 367.14971855003387, 0.06400000303983688, 0.3840000182390213, 0.944000044837594, 0.0, 0.0, 0.0, 0.0, 0.0, 1.648337596996829E9, 0.0, 2022-03-26 18:33:16.996
37.0, 517.5759745677933, 25.670673295855522, 795.3495639767498, 360.33562083076686, 0.06400000303983688, 0.3840000182390213, 0.944000044837594, 0.0, 0.0, 0.0, 0.0, 0.0, 1.648337596996829E9, 0.0, 2022-03-26 18:33:16.996
38.0, 508.0467094806954, 26.429872986860573, 791.0486790277064, 345.1553669106215, 0.06400000303983688, 0.3840000182390213, 0.944000044837594, 0.0, 0.0, 0.0, 0.0, 0.0, 1.6483375970103776E9, 0.0, 2022-03-26 18:33:17.010
38.0, 526.8808456575498, 34.74367058835924, 791.789179218933, 361.0237624226138, 0.06400000303983688, 0.3840000182390213, 0.944000044837594, 0.0, 0.0, 0.0, 0.0, 0.0, 1.6483375970103776E9, 0.0, 2022-03-26 18:33:17.010
39.0, 525.1978906774893, 32.021023420616984, 790.667209232226, 354.26576320268214, 0.06400000303983688, 0.3840000182390213, 0.944000044837594, 0.0, 0.0, 0.0, 0.0, 0.0, 1.6483375970261028E9, 0.0, 2022-03-26 18:33:17.026
39.0, 513.5742816152051, 21.73629854246974, 781.3585982425138, 341.95401254855096, 0.06400000303983688, 0.3840000182390213, 0.944000044837594, 0.0, 0.0, 0.0, 0.0, 0.0, 1.6483375970261028E9, 0.0, 2022-03-26 18:33:17.026
40.0, 506.85368139483035, 26.59442858491093, 787.8435847656801, 338.25525149237365, 0.06400000303983688, 0.3840000182390213, 0.9600000455975533, 0.0, 0.0, 0.0, 0.0, 0.0, 1.648337597026827E9, 0.0, 2022-03-26 18:33:17.026
40.0, 503.85054173041135, 32.96347820945084, 778.6696101743728, 351.9470252301544, 0.06400000303983688, 0.3840000182390213, 0.9600000455975533, 0.0, 0.0, 0.0, 0.0, 0.0, 1.648337597026827E9, 0.0, 2022-03-26 18:33:17.026
41.0, 504.7929965192452, 37.69819155335426, 785.4612684939057, 356.23295057937503, 0.06400000303983688, 0.4640000220388174, 0.9600000455975533, 0.0, 0.0, 0.0, 0.0, 0.0, 1.6483375970404027E9, 0.0, 2022-03-26 18:33:17.040
41.0, 522.4341046102345, 33.31876870524138, 791.572265021503, 358.97429724689573, 0.06400000303983688, 0.4640000220388174, 0.9600000455975533, 0.0, 0.0, 0.0, 0.0, 0.0, 1.6483375970404027E9, 0.0, 2022-03-26 18:33:17.040
42.0, 499.3813612833619, 27.70143897179514, 790.6821688320488, 359.6549590388313, 0.03200000151991844, 0.4640000220388174, 0.9600000455975533, 0.0, 0.0, 0.0, 0.0, 0.0, 1.6483375970561051E9, 0.0, 2022-03-26 18:33:17.056
42.0, 503.92533972952515, 30.289449741132557, 783.9279095120728, 344.8337355144322, 0.03200000151991844, 0.4640000220388174, 0.9600000455975533, 0.0, 0.0, 0.0, 0.0, 0.0, 1.6483375970561051E9, 0.0, 2022-03-26 18:33:17.056
43.0, 500.44723277073354, 21.616621743887663, 781.0257471464574, 339.9494261723012, 0.03200000151991844, 0.4640000220388174, 0.9600000455975533, 0.0, 0.0, 0.0, 0.0, 0.0, 1.648337597056794E9, 0.0, 2022-03-26 18:33:17.056
43.0, 497.69466640334576, 20.11692186165601, 781.0257471464574, 354.32934150192887, 0.03200000151991844, 0.4640000220388174, 0.9600000455975533, 0.0, 0.0, 0.0, 0.0, 0.0, 1.648337597056794E9, 0.0, 2022-03-26 18:33:17.056
44.0, 495.798537125811, 14.90350132342428, 773.7853008322418, 360.48895672895014, 0.03200000151991844, 0.4640000220388174, 0.9600000455975533, 0.0, 0.0, 0.0, 0.0, 0.0, 1.6483375970868227E9, 0.0, 2022-03-26 18:33:17.086
44.0, 509.0490026688203, 24.14105421397835, 774.3874247251078, 357.7588297612965, 0.03200000151991844, 0.4640000220388174, 0.9600000455975533, 0.0, 0.0, 0.0, 0.0, 0.0, 1.6483375970868227E9, 0.0, 2022-03-26 18:33:17.086
45.0, 507.48946438729763, 33.6815390009433, 787.4882942698896, 346.3521348964423, 0.03200000151991844, 0.4640000220388174, 0.9600000455975533, 0.0, 0.0, 0.0, 0.0, 0.0, 1.6483375970875409E9, 0.0, 2022-03-26 18:33:17.087
45.0, 507.280029989779, 26.639307384379208, 777.4878017883748, 354.4639779003337, 0.03200000151991844, 0.4640000220388174, 0.9600000455975533, 0.0, 0.0, 0.0, 0.0, 0.0, 1.6483375970875409E9, 0.0, 2022-03-26 18:33:17.087
46.0, 492.7841777615249, 21.119215049780905, 776.1302181044593, 362.6094800038263, 0.03200000151991844, 0.4640000220388174, 0.9600000455975533, 0.0, 0.0, 0.0, 0.0, 0.0, 1.648337597088262E9, 0.0, 2022-03-26 18:33:17.088
46.0, 503.0202839402482, 28.883247357793152, 776.2162358034402, 352.93435881845653, 0.03200000151991844, 0.4640000220388174, 0.9600000455975533, 0.0, 0.0, 0.0, 0.0, 0.0, 1.648337597088262E9, 0.0, 2022-03-26 18:33:17.088
47.0, 500.0545432753861, 24.013897615484893, 789.4405220467597, 365.77343536634, 0.03200000151991844, 0.4640000220388174, 0.9600000455975533, 0.0, 0.0, 0.0, 0.0, 0.0, 1.6483375971003983E9, 0.0, 2022-03-26 18:33:17.100
47.0, 495.0879561342299, 28.864547858014703, 789.208648249507, 370.657744708471, 0.03200000151991844, 0.4640000220388174, 0.9600000455975533, 0.0, 0.0, 0.0, 0.0, 0.0, 1.6483375971003983E9, 0.0, 2022-03-26 18:33:17.100
48.0, 515.6162669910118, 35.94791837409139, 801.400722105056, 379.8504187995568, 0.03200000151991844, 0.4640000220388174, 0.9600000455975533, 0.0, 0.0, 0.0, 0.0, 0.0, 1.6483375971160705E9, 0.0, 2022-03-26 18:33:17.116
48.0, 513.4994836160913, 40.20018462371081, 791.2917725248262, 372.8867250820622, 0.03200000151991844, 0.4640000220388174, 0.9600000455975533, 0.0, 0.0, 0.0, 0.0, 0.0, 1.6483375971160705E9, 0.0, 2022-03-26 18:33:17.116
49.0, 520.7960284296423, 38.25169674679637, 780.6180980512872, 374.09471276775, 0.03200000151991844, 0.4640000220388174, 0.9600000455975533, 0.0, 0.0, 0.0, 0.0, 0.0, 1.6483375971168072E9, 0.0, 2022-03-26 18:33:17.116
49.0, 532.172804094851, 38.820161540061235, 794.2462934898213, 381.2603610828519, 0.03200000151991844, 0.4640000220388174, 0.9600000455975533, 0.0, 0.0, 0.0, 0.0, 0.0, 1.6483375971168072E9, 0.0, 2022-03-26 18:33:17.116
50.0, 518.6904647545889, 37.1671257596463, 796.1274631675333, 364.96561697591096, 0.03200000151991844, 0.4640000220388174, 0.944000044837594, 0.0, 0.0, 0.0, 0.0, 0.0, 1.6483375971303818E9, 0.0, 2022-03-26 18:33:17.130
50.0, 520.7960284296423, 34.08544819615781, 789.5227998457849, 366.9215846527368, 0.03200000151991844, 0.4640000220388174, 0.944000044837594, 0.0, 0.0, 0.0, 0.0, 0.0, 1.6483375971303818E9, 0.0, 2022-03-26 18:33:17.130
51.0, 520.0256090387702, 30.16603304259479, 795.0316724805161, 377.2998070297763, 0.03200000151991844, 0.3840000182390213, 0.944000044837594, 0.0, 0.0, 0.0, 0.0, 0.0, 1.6483375971460233E9, 0.0, 2022-03-26 18:33:17.146
51.0, 525.8000145703554, 36.037675973027945, 795.1102103795856, 373.52250807452947, 0.03200000151991844, 0.3840000182390213, 0.944000044837594, 0.0, 0.0, 0.0, 0.0, 0.0, 1.6483375971460233E9, 0.0, 2022-03-26 18:33:17.146
52.0, 525.1567517779768, 32.92981910984963, 794.2836924893782, 385.7781602293253, 0.0, 0.3840000182390213, 0.944000044837594, 0.0, 0.0, 0.0, 0.0, 0.0, 1.6483375971467571E9, 0.0, 2022-03-26 18:33:17.146
52.0, 532.9507032856345, 31.635813725180924, 792.428702111356, 394.8137585222721, 0.0, 0.3840000182390213, 0.944000044837594, 0.0, 0.0, 0.0, 0.0, 0.0, 1.6483375971467571E9, 0.0, 2022-03-26 18:33:17.146
53.0, 534.3344662692398, 39.80749512836337, 796.2807990657166, 375.7327889483422, 0.0, 0.3840000182390213, 0.944000044837594, 0.0, 0.0, 0.0, 0.0, 0.0, 1.6483375971603856E9, 0.0, 2022-03-26 18:33:17.160
53.0, 541.2944200867787, 46.139145753346384, 796.9240618580952, 394.01715983171016, 0.0, 0.3840000182390213, 0.944000044837594, 0.0, 0.0, 0.0, 0.0, 0.0, 1.6483375971603856E9, 0.0, 2022-03-26 18:33:17.160
54.0, 546.8668710207567, 61.98510186560452, 798.4761203397065, 389.06179239042103, 0.0, 0.3840000182390213, 0.944000044837594, 0.0, 0.0, 0.0, 0.0, 0.0, 1.648337597176036E9, 0.0, 2022-03-26 18:33:17.176
54.0, 520.5604147324339, 47.347133439034224, 790.341837936081, 384.79082664102316, 0.0, 0.3840000182390213, 0.944000044837594, 0.0, 0.0, 0.0, 0.0, 0.0, 1.648337597176036E9, 0.0, 2022-03-26 18:33:17.176
55.0, 539.5740661071613, 43.07616768963635, 790.8205451304093, 395.24758691713214, 0.0, 0.3840000182390213, 0.944000044837594, 0.0, 0.0, 0.0, 0.0, 0.0, 1.6483375971767335E9, 0.0, 2022-03-26 18:33:17.176
55.0, 535.7631080523133, 38.483570544049144, 782.5329268286005, 366.0277485633269, 0.0, 0.3840000182390213, 0.944000044837594, 0.0, 0.0, 0.0, 0.0, 0.0, 1.6483375971767335E9, 0.0, 2022-03-26 18:33:17.176
56.0, 535.6022923542187, 48.30828772764653, 783.8905105125159, 384.17748304829, 0.0, 0.3840000182390213, 0.944000044837594, 0.0, 0.0, 0.0, 0.0, 0.0, 1.648337597190402E9, 0.0, 2022-03-26 18:33:17.190
56.0, 531.7950741993263, 53.56284716539085, 788.1427767621353, 367.7294030431658, 0.0, 0.3840000182390213, 0.944000044837594, 0.0, 0.0, 0.0, 0.0, 0.0, 1.648337597190402E9, 0.0, 2022-03-26 18:33:17.190
57.0, 538.2426617229357, 56.898837925866246, 800.7537194127217, 376.67524373717606, 0.0, 0.3840000182390213, 0.944000044837594, 0.0, 0.0, 0.0, 0.0, 0.0, 1.648337597206184E9, 0.0, 2022-03-26 18:33:17.206
57.0, 528.1112727429718, 44.893759068101645, 797.1821149550378, 378.3694184171036, 0.0, 0.3840000182390213, 0.944000044837594, 0.0, 0.0, 0.0, 0.0, 0.0, 1.648337597206184E9, 0.0, 2022-03-26 18:33:17.206
58.0, 533.0591603843495, 57.4710426190868, 808.9964589150622, 376.9669559337199, 0.0, 0.3840000182390213, 0.944000044837594, 0.0, 0.0, 0.0, 0.0, 0.0, 1.648337597206904E9, 0.0, 2022-03-26 18:33:17.206
58.0, 531.316367004998, 57.69169671647251, 800.1141965202987, 378.9603226101026, 0.0, 0.3840000182390213, 0.944000044837594, 0.0, 0.0, 0.0, 0.0, 0.0, 1.648337597206904E9, 0.0, 2022-03-26 18:33:17.206
59.0, 538.3025001222268, 52.20526348147541, 795.97412726935, 380.5123810917139, 0.0, 0.3840000182390213, 0.944000044837594, 0.0, 0.0, 0.0, 0.0, 0.0, 1.6483375972368062E9, 0.0, 2022-03-26 18:33:17.236
59.0, 527.9990757443011, 57.23168902192265, 805.1256624609232, 393.72544763516635, 0.0, 0.3840000182390213, 0.944000044837594, 0.0, 0.0, 0.0, 0.0, 0.0, 1.6483375972368062E9, 0.0, 2022-03-26 18:33:17.236
60.0, 543.112011465244, 64.53945353534073, 810.1296486016363, 395.68141531199217, 0.0, 0.3840000182390213, 0.8320000395178795, 0.0, 0.0, 0.0, 0.0, 0.0, 1.6483375972375844E9, 0.0, 2022-03-26 18:33:17.237
60.0, 543.388764061965, 68.39155048970133, 816.9848852204159, 406.84875657968223, 0.0, 0.3840000182390213, 0.8320000395178795, 0.0, 0.0, 0.0, 0.0, 0.0, 1.6483375972375844E9, 0.0, 2022-03-26 18:33:17.237
61.0, 540.2547278990969, 67.4416159009561, 812.8485558694229, 414.6389681873843, 0.0, 0.43200002051889896, 0.8320000395178795, 0.0, 0.0, 0.0, 0.0, 0.0, 1.6483375972384048E9, 0.0, 2022-03-26 18:33:17.238
61.0, 542.3976905737072, 63.19308955129236, 812.3848082749173, 400.3338508568704, 0.0, 0.43200002051889896, 0.8320000395178795, 0.0, 0.0, 0.0, 0.0, 0.0, 1.6483375972384048E9, 0.0, 2022-03-26 18:33:17.238
62.0, 540.5464400956407, 65.89703721925616, 808.9291407158598, 394.53700592555106, -0.03200000151991844, 0.43200002051889896, 0.8320000395178795, 0.0, 0.0, 0.0, 0.0, 0.0, 1.6483375972504735E9, 0.0, 2022-03-26 18:33:17.250
62.0, 527.7148433476686, 51.88363208528608, 802.7583057889715, 402.28981853369623, -0.03200000151991844, 0.43200002051889896, 0.8320000395178795, 0.0, 0.0, 0.0, 0.0, 0.0, 1.6483375972504735E9, 0.0, 2022-03-26 18:33:17.250
63.0, 521.8432004172355, 53.8769987616688, 807.5603373320773, 409.5377446478233, -0.03200000151991844, 0.43200002051889896, 0.8320000395178795, 0.0, 0.0, 0.0, 0.0, 0.0, 1.6483375972661564E9, 0.0, 2022-03-26 18:33:17.266
63.0, 535.0562669606879, 45.323847563005984, 803.9550737747923, 417.0923425583169, -0.03200000151991844, 0.43200002051889896, 0.8320000395178795, 0.0, 0.0, 0.0, 0.0, 0.0, 1.6483375972661564E9, 0.0, 2022-03-26 18:33:17.266
64.0, 530.9274174096063, 34.50431699119508, 789.8182519422844, 423.70822557993233, -0.03200000151991844, 0.43200002051889896, 0.8320000395178795, 0.0, 0.0, 0.0, 0.0, 0.0, 1.6483375972668347E9, 0.0, 2022-03-26 18:33:17.266
64.0, 525.8860322693363, 32.69420541264117, 778.0450468817726, 408.28861806262285, -0.03200000151991844, 0.43200002051889896, 0.8320000395178795, 0.0, 0.0, 0.0, 0.0, 0.0, 1.6483375972668347E9, 0.0, 2022-03-26 18:33:17.266
65.0, 520.2874020356685, 36.063855272717774, 781.1940426444635, 400.2328735580668, -0.03200000151991844, 0.43200002051889896, 0.8320000395178795, 0.0, 0.0, 0.0, 0.0, 0.0, 1.6483375972804651E9, 0.0, 2022-03-26 18:33:17.280
65.0, 510.4739045519382, 21.631581343710423, 780.1543504567817, 396.5228928020224, -0.03200000151991844, 0.43200002051889896, 0.8320000395178795, 0.0, 0.0, 0.0, 0.0, 0.0, 1.6483375972804651E9, 0.0, 2022-03-26 18:33:17.280
66.0, 515.8331811884418, 19.79155056551099, 770.6624843692407, 387.19558231253177, -0.03200000151991844, 0.43200002051889896, 0.8320000395178795, 0.0, 0.0, 0.0, 0.0, 0.0, 1.648337597296224E9, 0.0, 2022-03-26 18:33:17.296
66.0, 507.1940122907981, 33.76755669992417, 773.1943966392428, 386.1484103249386, -0.03200000151991844, 0.43200002051889896, 0.8320000395178795, 0.0, 0.0, 0.0, 0.0, 0.0, 1.648337597296224E9, 0.0, 2022-03-26 18:33:17.296
67.0, 507.62784068565816, 36.71833776496351, 782.2823535315692, 391.2608535643667, -0.03200000151991844, 0.43200002051889896, 0.8320000395178795, 0.0, 0.0, 0.0, 0.0, 0.0, 1.6483375972968435E9, 0.0, 2022-03-26 18:33:17.296
67.0, 518.593227355741, 24.20463251322508, 772.9176440425217, 381.5819924790412, -0.03200000151991844, 0.43200002051889896, 0.8320000395178795, 0.0, 0.0, 0.0, 0.0, 0.0, 1.6483375972968435E9, 0.0, 2022-03-26 18:33:17.296
68.0, 528.3169672405347, 29.145040354691446, 782.4618687294424, 369.0308882277459, -0.03200000151991844, 0.43200002051889896, 0.8320000395178795, 0.0, 0.0, 0.0, 0.0, 0.0, 1.6483375973104513E9, 0.0, 2022-03-26 18:33:17.310
68.0, 514.999183498323, 30.098714843392372, 781.489494740963, 373.5748666739091, -0.03200000151991844, 0.43200002051889896, 0.8320000395178795, 0.0, 0.0, 0.0, 0.0, 0.0, 1.6483375973104513E9, 0.0, 2022-03-26 18:33:17.310
69.0, 516.8092950768769, 31.43759902752936, 776.7099025975913, 384.98156153876334, -0.03200000151991844, 0.43200002051889896, 0.8320000395178795, 0.0, 0.0, 0.0, 0.0, 0.0, 1.6483375973262084E9, 0.0, 2022-03-26 18:33:17.326
69.0, 523.2007841011509, 37.260623258538544, 784.3692177068442, 374.16203096695244, -0.03200000151991844, 0.43200002051889896, 0.8320000395178795, 0.0, 0.0, 0.0, 0.0, 0.0, 1.6483375973262084E9, 0.0, 2022-03-26 18:33:17.326
70.0, 520.739929930307, 25.981084992177784, 778.0974054811522, 375.38497825246304, -0.03200000151991844, 0.43200002051889896, 0.9280000440776348, 0.0, 0.0, 0.0, 0.0, 0.0, 1.6483375973268464E9, 0.0, 2022-03-26 18:33:17.326
70.0, 523.0137891033664, 22.057929938659072, 786.590718280524, 386.2119886241853, -0.03200000151991844, 0.43200002051889896, 0.9280000440776348, 0.0, 0.0, 0.0, 0.0, 0.0, 1.6483375973268464E9, 0.0, 2022-03-26 18:33:17.326
71.0, 520.0555282384157, 31.890126922167838, 777.364385089837, 384.98530143871903, -0.03200000151991844, 0.4000000189989805, 0.9280000440776348, 0.0, 0.0, 0.0, 0.0, 0.0, 1.6483375973404746E9, 0.0, 2022-03-26 18:33:17.340
71.0, 522.5575213087723, 38.50600994378328, 782.7760203257203, 380.90507058706135, -0.03200000151991844, 0.4000000189989805, 0.9280000440776348, 0.0, 0.0, 0.0, 0.0, 0.0, 1.6483375973404746E9, 0.0, 2022-03-26 18:33:17.340
72.0, 526.6826309598982, 38.816421640105546, 791.3441311242059, 388.037059802562, 0.0, 0.4000000189989805, 0.9280000440776348, 0.0, 0.0, 0.0, 0.0, 0.0, 1.6483375973561192E9, 0.0, 2022-03-26 18:33:17.356
72.0, 521.6898645190522, 34.60529428999871, 784.1448237095028, 381.86622487567365, 0.0, 0.4000000189989805, 0.9280000440776348, 0.0, 0.0, 0.0, 0.0, 0.0, 1.6483375973561192E9, 0.0, 2022-03-26 18:33:17.356
73.0, 519.5431619444862, 28.393320463597775, 770.3670322727412, 379.89903749898076, 0.0, 0.4000000189989805, 0.9280000440776348, 0.0, 0.0, 0.0, 0.0, 0.0, 1.6483375973568056E9, 0.0, 2022-03-26 18:33:17.356
73.0, 518.8064016532153, 25.883847593329847, 784.3430384071544, 362.5758209042251, 0.0, 0.4000000189989805, 0.9280000440776348, 0.0, 0.0, 0.0, 0.0, 0.0, 1.6483375973568056E9, 0.0, 2022-03-26 18:33:17.356
74.0, 515.6686255903915, 29.178699454292655, 784.5375132048503, 368.1108728386462, 0.0, 0.4000000189989805, 0.9280000440776348, 0.0, 0.0, 0.0, 0.0, 0.0, 1.6483375973704429E9, 0.0, 2022-03-26 18:33:17.370
74.0, 518.5109495567158, 27.495744474232197, 778.4676555767655, 374.6220386615023, 0.0, 0.4000000189989805, 0.9280000440776348, 0.0, 0.0, 0.0, 0.0, 0.0, 1.6483375973704429E9, 0.0, 2022-03-26 18:33:17.370
75.0, 528.5114420382306, 33.70771830063313, 777.0539733935148, 376.1105188438669, 0.0, 0.4000000189989805, 0.9280000440776348, 0.0, 0.0, 0.0, 0.0, 0.0, 1.648337597386119E9, 0.0, 2022-03-26 18:33:17.386
75.0, 532.6253319894895, 34.55293569061905, 783.3856240184978, 390.23612097650766, 0.0, 0.4000000189989805, 0.9280000440776348, 0.0, 0.0, 0.0, 0.0, 0.0, 1.648337597386119E9, 0.0, 2022-03-26 18:33:17.386
76.0, 516.5362823801115, 32.28281641751528, 775.9133039070293, 375.0035084569827, 0.0, 0.4000000189989805, 0.9280000440776348, 0.0, 0.0, 0.0, 0.0, 0.0, 1.6483375973868012E9, 0.0, 2022-03-26 18:33:17.386
76.0, 517.7891488652676, 19.181946872733533, 765.3929653316736, 367.30679434817284, 0.0, 0.4000000189989805, 0.9280000440776348, 0.0, 0.0, 0.0, 0.0, 0.0, 1.6483375973868012E9, 0.0, 2022-03-26 18:33:17.386
77.0, 522.5388218089938, 24.859115005470812, 763.5865936530754, 365.7397762667388, 0.0, 0.4000000189989805, 0.9280000440776348, 0.0, 0.0, 0.0, 0.0, 0.0, 1.6483375974004788E9, 0.0, 2022-03-26 18:33:17.400
77.0, 506.56196919828653, 23.864301617257297, 773.9722958300263, 373.7057631723583, 0.0, 0.4000000189989805, 0.9280000440776348, 0.0, 0.0, 0.0, 0.0, 0.0, 1.6483375974004788E9, 0.0, 2022-03-26 18:33:17.400
78.0, 513.8360746121034, 23.879261217080057, 768.4709029952064, 378.111365320161, 0.0, 0.4000000189989805, 0.9280000440776348, 0.0, 0.0, 0.0, 0.0, 0.0, 1.648337597415896E9, 0.0, 2022-03-26 18:33:17.415
78.0, 510.22707115486264, 31.235644429922104, 777.3419456901029, 374.78659425955266, 0.0, 0.4000000189989805, 0.9280000440776348, 0.0, 0.0, 0.0, 0.0, 0.0, 1.648337597415896E9, 0.0, 2022-03-26 18:33:17.415
79.0, 514.1203070087358, 30.56246243789792, 781.2651007436216, 373.07745997980237, 0.0, 0.4000000189989805, 0.9280000440776348, 0.0, 0.0, 0.0, 0.0, 0.0, 1.648337597431115E9, 0.0, 2022-03-26 18:33:17.431
79.0, 513.9220923110843, 24.89651400502771, 772.4576363479719, 377.0641933325678, 0.0, 0.4000000189989805, 0.9280000440776348, 0.0, 0.0, 0.0, 0.0, 0.0, 1.648337597431115E9, 0.0, 2022-03-26 18:33:17.431
80.0, 511.0124501455575, 25.32660249993205, 767.2516956096515, 364.86463967710733, 0.0, 0.4000000189989805, 0.9920000471174717, 0.0, 0.0, 0.0, 0.0, 0.0, 1.6483375974318547E9, 0.0, 2022-03-26 18:33:17.431
80.0, 511.5322962393984, 22.47305883374065, 768.8074939912185, 366.4017385588959, 0.0, 0.4000000189989805, 0.9920000471174717, 0.0, 0.0, 0.0, 0.0, 0.0, 1.6483375974318547E9, 0.0, 2022-03-26 18:33:17.431
81.0, 508.8657475709915, 25.666933395899832, 778.1684635803103, 366.689710855484, 0.0, 0.3840000182390213, 0.9920000471174717, 0.0, 0.0, 0.0, 0.0, 0.0, 1.648337597446088E9, 0.0, 2022-03-26 18:33:17.446
81.0, 499.5795759810135, 19.398861070163548, 774.3537656255066, 363.52575549297035, 0.0, 0.3840000182390213, 0.9920000471174717, 0.0, 0.0, 0.0, 0.0, 0.0, 1.648337597446088E9, 0.0, 2022-03-26 18:33:17.446
82.0, 506.423592899926, 20.704086154699326, 763.796028050594, 365.79213486611843, 0.01600000075995922, 0.3840000182390213, 0.9920000471174717, 0.0, 0.0, 0.0, 0.0, 0.0, 1.6483375974467974E9, 0.0, 2022-03-26 18:33:17.446
82.0, 508.18134587910026, 15.969372810795903, 764.4392908429727, 365.22367007285357, 0.01600000075995922, 0.3840000182390213, 0.9920000471174717, 0.0, 0.0, 0.0, 0.0, 0.0, 1.6483375974467974E9, 0.0, 2022-03-26 18:33:17.446
83.0, 493.14694805722684, 10.583916874602437, 777.1437309924513, 357.2726427670568, 0.01600000075995922, 0.3840000182390213, 0.9920000471174717, 0.0, 0.0, 0.0, 0.0, 0.0, 1.648337597460426E9, 0.0, 2022-03-26 18:33:17.460
83.0, 497.7993836021051, 19.918707164004445, 778.594812175259, 371.44686359912157, 0.01600000075995922, 0.3840000182390213, 0.9920000471174717, 0.0, 0.0, 0.0, 0.0, 0.0, 1.648337597460426E9, 0.0, 2022-03-26 18:33:17.460
84.0, 504.96877181716263, 31.587195025756955, 770.441830271855, 338.43102679029107, 0.01600000075995922, 0.3840000182390213, 0.9920000471174717, 0.0, 0.0, 0.0, 0.0, 0.0, 1.6483375974760704E9, 0.0, 2022-03-26 18:33:17.476
84.0, 502.19002615008503, 27.058176179416478, 759.7831153981388, 348.0911883758381, 0.01600000075995922, 0.3840000182390213, 0.9920000471174717, 0.0, 0.0, 0.0, 0.0, 0.0, 1.6483375974760704E9, 0.0, 2022-03-26 18:33:17.476
85.0, 491.2283793799579, 19.35772217065096, 755.3139349510893, 338.59184248838574, 0.01600000075995922, 0.3840000182390213, 0.9920000471174717, 0.0, 0.0, 0.0, 0.0, 0.0, 1.6483375974768765E9, 0.0, 2022-03-26 18:33:17.476
85.0, 503.92159982956946, 22.14768753759563, 772.7530884444714, 345.80610950291157, 0.01600000075995922, 0.3840000182390213, 0.9920000471174717, 0.0, 0.0, 0.0, 0.0, 0.0, 1.6483375974768765E9, 0.0, 2022-03-26 18:33:17.476
86.0, 505.74293110799044, 20.56196995638311, 765.3106875326484, 353.7982757082209, 0.01600000075995922, 0.3840000182390213, 0.9920000471174717, 0.0, 0.0, 0.0, 0.0, 0.0, 1.6483375975068376E9, 0.0, 2022-03-26 18:33:17.506
86.0, 494.55315044056624, 15.243832219392061, 767.3825921081007, 346.93181938957423, 0.01600000075995922, 0.3840000182390213, 0.9920000471174717, 0.0, 0.0, 0.0, 0.0, 0.0, 1.6483375975068376E9, 0.0, 2022-03-26 18:33:17.506
87.0, 480.3116114092991, 16.208726407960057, 772.5062550473958, 346.6401071930304, 0.01600000075995922, 0.3840000182390213, 0.9920000471174717, 0.0, 0.0, 0.0, 0.0, 0.0, 1.648337597507542E9, 0.0, 2022-03-26 18:33:17.507
87.0, 489.7249395977706, 20.14310116134584, 786.0820918865502, 366.12498596217483, 0.01600000075995922, 0.3840000182390213, 0.9920000471174717, 0.0, 0.0, 0.0, 0.0, 0.0, 1.648337597507542E9, 0.0, 2022-03-26 18:33:17.507
88.0, 499.6394143803045, 19.25674487184733, 783.5539195165038, 371.8432929944247, 0.01600000075995922, 0.3840000182390213, 0.9920000471174717, 0.0, 0.0, 0.0, 0.0, 0.0, 1.648337597508299E9, 0.0, 2022-03-26 18:33:17.508
88.0, 497.462792606093, 18.991211974993348, 790.4839541343972, 361.62962621543556, 0.01600000075995922, 0.3840000182390213, 0.9920000471174717, 0.0, 0.0, 0.0, 0.0, 0.0, 1.648337597508299E9, 0.0, 2022-03-26 18:33:17.508
89.0, 509.2434774665162, 14.181700631976128, 798.0198525451124, 376.60418563801795, 0.01600000075995922, 0.3840000182390213, 0.9920000471174717, 0.0, 0.0, 0.0, 0.0, 0.0, 1.648337597536822E9, 0.0, 2022-03-26 18:33:17.536
89.0, 502.1264478508383, 11.402954964898527, 795.5627382742241, 368.64193863235414, 0.01600000075995922, 0.3840000182390213, 0.9920000471174717, 0.0, 0.0, 0.0, 0.0, 0.0, 1.648337597536822E9, 0.0, 2022-03-26 18:33:17.536
90.0, 504.92763291765004, 34.52675639092922, 802.1300025964156, 367.1646781498566, 0.01600000075995922, 0.3840000182390213, 0.9120000433176756, 0.0, 0.0, 0.0, 0.0, 0.0, 1.6483375975375285E9, 0.0, 2022-03-26 18:33:17.537
90.0, 505.350241612643, 26.53459018561989, 789.3582442477345, 364.7935815779492, 0.01600000075995922, 0.3840000182390213, 0.9120000433176756, 0.0, 0.0, 0.0, 0.0, 0.0, 1.6483375975375285E9, 0.0, 2022-03-26 18:33:17.537
91.0, 501.54676335770637, 30.11741434317082, 797.7655393481255, 376.75378163624555, 0.01600000075995922, 0.3680000174790621, 0.9120000433176756, 0.0, 0.0, 0.0, 0.0, 0.0, 1.64833759753827E9, 0.0, 2022-03-26 18:33:17.538
91.0, 491.5948895756155, 20.232858760282397, 788.8683173535392, 366.4428774584085, 0.01600000075995922, 0.3680000174790621, 0.9120000433176756, 0.0, 0.0, 0.0, 0.0, 0.0, 1.64833759753827E9, 0.0, 2022-03-26 18:33:17.538
92.0, 505.3053628131747, 19.540977268479764, 794.840937582776, 382.1055784728378, 0.0, 0.3680000174790621, 0.9120000433176756, 0.0, 0.0, 0.0, 0.0, 0.0, 1.6483375975504196E9, 0.0, 2022-03-26 18:33:17.550
92.0, 492.3166902670637, 22.58899573236704, 797.0848775561899, 368.5783603331074, 0.0, 0.3680000174790621, 0.9120000433176756, 0.0, 0.0, 0.0, 0.0, 0.0, 1.6483375975504196E9, 0.0, 2022-03-26 18:33:17.550
93.0, 499.3813612833619, 26.257837588898838, 791.5086867222562, 356.1992914797738, 0.0, 0.3680000174790621, 0.9120000433176756, 0.0, 0.0, 0.0, 0.0, 0.0, 1.6483375975662086E9, 0.0, 2022-03-26 18:33:17.566
93.0, 510.73569754883647, 29.907979945652187, 803.9849929744378, 384.7309882417321, 0.0, 0.3680000174790621, 0.9120000433176756, 0.0, 0.0, 0.0, 0.0, 0.0, 1.6483375975662086E9, 0.0, 2022-03-26 18:33:17.566
94.0, 516.0687948856503, 37.0549287609756, 798.0048929452896, 386.4102033218369, 0.0, 0.3680000174790621, 0.9120000433176756, 0.0, 0.0, 0.0, 0.0, 0.0, 1.6483375975669465E9, 0.0, 2022-03-26 18:33:17.566
94.0, 512.6804455257952, 34.870827186852694, 808.1587213249877, 362.93485129997134, 0.0, 0.3680000174790621, 0.9120000433176756, 0.0, 0.0, 0.0, 0.0, 0.0, 1.6483375975669465E9, 0.0, 2022-03-26 18:33:17.566
95.0, 511.89880643505603, 29.930419345386326, 801.1651084078476, 369.41609792318195, 0.0, 0.3680000174790621, 0.9120000433176756, 0.0, 0.0, 0.0, 0.0, 0.0, 1.6483375975804744E9, 0.0, 2022-03-26 18:33:17.580
95.0, 509.44917196407914, 37.12598686013371, 800.8434770116583, 372.09012639150023, 0.0, 0.3680000174790621, 0.9120000433176756, 0.0, 0.0, 0.0, 0.0, 0.0, 1.6483375975804744E9, 0.0, 2022-03-26 18:33:17.580
96.0, 517.6732119666412, 40.491896820254624, 801.1576286079362, 357.0183295700699, 0.0, 0.3680000174790621, 0.9120000433176756, 0.0, 0.0, 0.0, 0.0, 0.0, 1.6483375975961676E9, 0.0, 2022-03-26 18:33:17.596
96.0, 505.9748049052432, 33.1280338075012, 800.1889945194125, 360.2159440321848, 0.0, 0.3680000174790621, 0.9120000433176756, 0.0, 0.0, 0.0, 0.0, 0.0, 1.6483375975961676E9, 0.0, 2022-03-26 18:33:17.596
97.0, 508.196305478923, 35.977837573736906, 806.7487790416926, 352.6426466219127, 0.0, 0.3680000174790621, 0.9120000433176756, 0.0, 0.0, 0.0, 0.0, 0.0, 1.648337597596856E9, 0.0, 2022-03-26 18:33:17.596
97.0, 505.6830927086994, 37.05866866093129, 800.0767975207418, 334.5976293357089, 0.0, 0.3680000174790621, 0.9120000433176756, 0.0, 0.0, 0.0, 0.0, 0.0, 1.648337597596856E9, 0.0, 2022-03-26 18:33:17.596
98.0, 493.7490719500929, 20.838722553104162, 794.0293792923912, 337.03230420686305, 0.0, 0.3680000174790621, 0.9120000433176756, 0.0, 0.0, 0.0, 0.0, 0.0, 1.6483375976104927E9, 0.0, 2022-03-26 18:33:17.610
98.0, 492.3840084662661, 21.452066145837307, 793.2066013021395, 338.419807090424, 0.0, 0.3680000174790621, 0.9120000433176756, 0.0, 0.0, 0.0, 0.0, 0.0, 1.6483375976104927E9, 0.0, 2022-03-26 18:33:17.610
99.0, 507.59418158605695, 27.252650977112353, 794.6576824849471, 353.81697520799935, 0.0, 0.3680000174790621, 0.9120000433176756, 0.0, 0.0, 0.0, 0.0, 0.0, 1.6483375976261346E9, 0.0, 2022-03-26 18:33:17.626
99.0, 503.18109963834286, 26.9384993808344, 799.0109260333702, 348.3903803722933, 0.0, 0.3680000174790621, 0.9120000433176756, 0.0, 0.0, 0.0, 0.0, 0.0, 1.6483375976261346E9, 0.0, 2022-03-26 18:33:17.626
100.0, 487.10326972883195, 18.187133484520018, 801.6699949018657, 341.9315731488168, 0.0, 0.3680000174790621, 0.9280000440776348, 0.0, 0.0, 0.0, 0.0, 0.0, 1.6483375976267998E9, 0.0, 2022-03-26 18:33:17.626
100.0, 490.2410457916558, 22.229965336620808, 799.0184058332816, 350.44358544796705, 0.0, 0.3680000174790621, 0.9280000440776348, 0.0, 0.0, 0.0, 0.0, 0.0, 1.6483375976267998E9, 0.0, 2022-03-26 18:33:17.626
0.0, 504.79486646922305, 33.37486720457673, 801.4755201041698, 344.884224163834, 0.0, 0.3680000174790621, 0.9280000440776348, 0.0, 0.0, 0.0, 0.0, 0.0, 1.6483375976411064E9, 0.0, 2022-03-26 18:33:17.641
1.0, 499.17005693586543, 27.529403573833406, 798.9473477341235, 339.6296647260897, 0.0, 0.3680000174790621, 0.9280000440776348, 0.0, 0.0, 0.0, 0.0, 0.0, 1.6483375976418362E9, 0.0, 2022-03-26 18:33:17.641
1.0, 499.5889257309027, 28.714951859787107, 807.4855393329635, 348.6241241195239, 0.0, 0.3680000174790621, 0.9280000440776348, 0.0, 0.0, 0.0, 0.0, 0.0, 1.6483375976418362E9, 0.0, 2022-03-26 18:33:17.641
2.0, 488.41036476334557, 28.98048475664109, 810.5148582970724, 342.9880948862992, -0.01600000075995922, 0.3680000174790621, 0.9280000440776348, 0.0, 0.0, 0.0, 0.0, 0.0, 1.6483375976553998E9, 0.0, 2022-03-26 18:33:17.655
2.0, 495.6283716778271, 22.862008429132402, 808.637428519316, 338.6236316380091, -0.01600000075995922, 0.3680000174790621, 0.9280000440776348, 0.0, 0.0, 0.0, 0.0, 0.0, 1.6483375976553998E9, 0.0, 2022-03-26 18:33:17.655
3.0, 492.34099961677566, 23.39307422284037, 805.6604681545869, 343.5079409801401, -0.01600000075995922, 0.3680000174790621, 0.9280000440776348, 0.0, 0.0, 0.0, 0.0, 0.0, 1.6483375976710503E9, 0.0, 2022-03-26 18:33:17.671
3.0, 497.97328895004466, 33.06071560829878, 802.0477247973904, 370.9625465548597, -0.01600000075995922, 0.3680000174790621, 0.9280000440776348, 0.0, 0.0, 0.0, 0.0, 0.0, 1.6483375976710503E9, 0.0, 2022-03-26 18:33:17.671
4.0, 477.78156908927485, 27.34240857604891, 799.7476863246411, 356.9267020211555, -0.01600000075995922, 0.3680000174790621, 0.9280000440776348, 0.0, 0.0, 0.0, 0.0, 0.0, 1.6483375976718087E9, 0.0, 2022-03-26 18:33:17.671
4.0, 494.3007071935572, 30.65222003683448, 810.1221688017249, 347.97338152723387, -0.01600000075995922, 0.3680000174790621, 0.9280000440776348, 0.0, 0.0, 0.0, 0.0, 0.0, 1.6483375976718087E9, 0.0, 2022-03-26 18:33:17.671
5.0, 495.3628387809731, 38.049742149189115, 814.3893946511671, 344.61495136702433, -0.01600000075995922, 0.3680000174790621, 0.9280000440776348, 0.0, 0.0, 0.0, 0.0, 0.0, 1.6483375976854324E9, 0.0, 2022-03-26 18:33:17.685
5.0, 499.0279407375492, 41.41939200926572, 814.0640233550221, 364.36162313306704, -0.01600000075995922, 0.3680000174790621, 0.9280000440776348, 0.0, 0.0, 0.0, 0.0, 0.0, 1.6483375976854324E9, 0.0, 2022-03-26 18:33:17.685
6.0, 501.94506270298734, 36.90159286279231, 811.1992599889636, 346.54099984420463, -0.01600000075995922, 0.3680000174790621, 0.9280000440776348, 0.0, 0.0, 0.0, 0.0, 0.0, 1.6483375977010975E9, 0.0, 2022-03-26 18:33:17.701
6.0, 503.6354974829592, 31.3478414285928, 809.3667090106755, 354.68650194769725, -0.01600000075995922, 0.3680000174790621, 0.9280000440776348, 0.0, 0.0, 0.0, 0.0, 0.0, 1.6483375977010975E9, 0.0, 2022-03-26 18:33:17.701
7.0, 498.2238622470759, 33.27762980572879, 812.3436693754047, 353.0783449667506, -0.01600000075995922, 0.3680000174790621, 0.9280000440776348, 0.0, 0.0, 0.0, 0.0, 0.0, 1.648337597701789E9, 0.0, 2022-03-26 18:33:17.701
7.0, 496.2117960709147, 37.82534815184772, 822.9762049494311, 342.9880948862992, -0.01600000075995922, 0.3680000174790621, 0.9280000440776348, 0.0, 0.0, 0.0, 0.0, 0.0, 1.648337597701789E9, 0.0, 2022-03-26 18:33:17.701
8.0, 502.3601915980689, 38.21803764719516, 813.2300256649032, 334.8874715822749, -0.01600000075995922, 0.3680000174790621, 0.9280000440776348, 0.0, 0.0, 0.0, 0.0, 0.0, 1.648337597715425E9, 0.0, 2022-03-26 18:33:17.715
8.0, 506.38806385034695, 38.30779524613172, 797.4738271515816, 366.1866943114437, -0.01600000075995922, 0.3680000174790621, 0.9280000440776348, 0.0, 0.0, 0.0, 0.0, 0.0, 1.648337597715425E9, 0.0, 2022-03-26 18:33:17.715
9.0, 505.86821775650606, 39.42976523283869, 811.2740579880774, 366.14181551197544, -0.01600000075995922, 0.3680000174790621, 0.9280000440776348, 0.0, 0.0, 0.0, 0.0, 0.0, 1.6483375977311432E9, 0.0, 2022-03-26 18:33:17.731
9.0, 504.7724270694889, 41.35581371001899, 805.0620841616765, 343.83331227628514, -0.01600000075995922, 0.3680000174790621, 0.9280000440776348, 0.0, 0.0, 0.0, 0.0, 0.0, 1.6483375977311432E9, 0.0, 2022-03-26 18:33:17.731
10.0, 489.6669711484574, 36.62110036611557, 803.2295331833884, 361.06677127210423, -0.01600000075995922, 0.3680000174790621, 0.9120000433176756, 0.0, 0.0, 0.0, 0.0, 0.0, 1.648337597731844E9, 0.0, 2022-03-26 18:33:17.731
10.0, 487.9540969687514, 32.813882211223245, 805.6305489549413, 358.02623260812834, -0.01600000075995922, 0.3680000174790621, 0.9120000433176756, 0.0, 0.0, 0.0, 0.0, 0.0, 1.648337597731844E9, 0.0, 2022-03-26 18:33:17.731
11.0, 489.7978676469065, 30.723278135992587, 802.5750506911427, 348.743800918106, -0.01600000075995922, 0.3840000182390213, 0.9120000433176756, 0.0, 0.0, 0.0, 0.0, 0.0, 1.6483375977454166E9, 0.0, 2022-03-26 18:33:17.745
11.0, 484.1057399143465, 38.62194684240967, 807.4369206335396, 361.2612460698001, -0.01600000075995922, 0.3840000182390213, 0.9120000433176756, 0.0, 0.0, 0.0, 0.0, 0.0, 1.6483375977454166E9, 0.0, 2022-03-26 18:33:17.745
12.0, 473.4283255408518, 34.10414769593626, 801.7223535012454, 350.5613922965713, 0.0, 0.3840000182390213, 0.9120000433176756, 0.0, 0.0, 0.0, 0.0, 0.0, 1.648337597761098E9, 0.0, 2022-03-26 18:33:17.761
12.0, 492.6925502126105, 39.78505572862923, 805.0471245618537, 338.9303034343757, 0.0, 0.3840000182390213, 0.9120000433176756, 0.0, 0.0, 0.0, 0.0, 0.0, 1.648337597761098E9, 0.0, 2022-03-26 18:33:17.761
13.0, 493.7696413998492, 45.35750666260719, 818.2452315054834, 353.6355900601484, 0.0, 0.3840000182390213, 0.9120000433176756, 0.0, 0.0, 0.0, 0.0, 0.0, 1.64833759776184E9, 0.0, 2022-03-26 18:33:17.761
13.0, 488.4028849634342, 49.3928587147966, 823.9074400383979, 369.3356900741346, 0.0, 0.3840000182390213, 0.9120000433176756, 0.0, 0.0, 0.0, 0.0, 0.0, 1.64833759776184E9, 0.0, 2022-03-26 18:33:17.761
14.0, 504.91080336784944, 58.615452005527914, 834.7830691095442, 375.6823002989404, 0.0, 0.3840000182390213, 0.9120000433176756, 0.0, 0.0, 0.0, 0.0, 0.0, 1.6483375977754357E9, 0.0, 2022-03-26 18:33:17.775
14.0, 498.08922584867105, 56.33785293251276, 821.555042966269, 362.4430544557981, 0.0, 0.3840000182390213, 0.9120000433176756, 0.0, 0.0, 0.0, 0.0, 0.0, 1.6483375977754357E9, 0.0, 2022-03-26 18:33:17.775
15.0, 496.2155359708704, 56.191996834240854, 817.755304611288, 388.5363364466466, 0.0, 0.3840000182390213, 0.9120000433176756, 0.0, 0.0, 0.0, 0.0, 0.0, 1.6483375977911294E9, 0.0, 2022-03-26 18:33:17.791
15.0, 496.9148972625844, 45.230350064113736, 816.5360972257331, 380.7984834383242, 0.0, 0.3840000182390213, 0.9120000433176756, 0.0, 0.0, 0.0, 0.0, 0.0, 1.6483375977911294E9, 0.0, 2022-03-26 18:33:17.791
16.0, 492.7075098124333, 41.84200070425868, 818.9483326971531, 372.0770367416553, 0.0, 0.3840000182390213, 0.9120000433176756, 0.0, 0.0, 0.0, 0.0, 0.0, 1.6483375977918005E9, 0.0, 2022-03-26 18:33:17.791
16.0, 496.6568441656418, 37.95250475034118, 820.0403834842145, 386.3223156728782, 0.0, 0.3840000182390213, 0.9120000433176756, 0.0, 0.0, 0.0, 0.0, 0.0, 1.6483375977918005E9, 0.0, 2022-03-26 18:33:17.791
17.0, 495.1721038832329, 52.82608687411994, 817.4336732150987, 391.47589781181887, 0.0, 0.3840000182390213, 0.9120000433176756, 0.0, 0.0, 0.0, 0.0, 0.0, 1.6483375978054233E9, 0.0, 2022-03-26 18:33:17.805
17.0, 489.78290804708377, 49.16472481749952, 818.9520725971088, 381.247271433007, 0.0, 0.3840000182390213, 0.9120000433176756, 0.0, 0.0, 0.0, 0.0, 0.0, 1.6483375978054233E9, 0.0, 2022-03-26 18:33:17.805
18.0, 485.15665180189535, 56.62208532914519, 824.303869433701, 377.2717577801086, 0.0, 0.3840000182390213, 0.9120000433176756, 0.0, 0.0, 0.0, 0.0, 0.0, 1.6483375978211007E9, 0.0, 2022-03-26 18:33:17.821
18.0, 485.5867402967997, 43.95878407917917, 800.2039541192353, 377.1558208814822, 0.0, 0.3840000182390213, 0.9120000433176756, 0.0, 0.0, 0.0, 0.0, 0.0, 1.6483375978211007E9, 0.0, 2022-03-26 18:33:17.821
19.0, 476.18463180819526, 35.622547077946365, 803.0574977854267, 359.3314576926641, 0.0, 0.3840000182390213, 0.9120000433176756, 0.0, 0.0, 0.0, 0.0, 0.0, 1.6483375978218472E9, 0.0, 2022-03-26 18:33:17.821
19.0, 494.59989919001237, 44.40009227395058, 815.7731576347724, 341.7053092014976, 0.0, 0.3840000182390213, 0.9120000433176756, 0.0, 0.0, 0.0, 0.0, 0.0, 1.6483375978218472E9, 0.0, 2022-03-26 18:33:17.821
20.0, 504.626570971217, 61.742008368484676, 839.9740502480417, 388.7644703439437, 0.0, 0.3840000182390213, 0.9600000455975533, 0.0, 0.0, 0.0, 0.0, 0.0, 1.6483375978354244E9, 0.0, 2022-03-26 18:33:17.835
20.0, 500.0377137255855, 61.59615227021277, 832.4381518373266, 395.18961846781895, 0.0, 0.3840000182390213, 0.9600000455975533, 0.0, 0.0, 0.0, 0.0, 0.0, 1.6483375978354244E9, 0.0, 2022-03-26 18:33:17.835
21.0, 490.4373905393295, 59.06797990016639, 832.1501795407385, 394.7221309733577, 0.0, 0.3840000182390213, 0.9600000455975533, 0.0, 0.0, 0.0, 0.0, 0.0, 1.648337597851112E9, 0.0, 2022-03-26 18:33:17.851
21.0, 513.0525655713864, 75.25052700843662, 845.8120340788737, 398.37227333011106, 0.0, 0.3840000182390213, 0.9600000455975533, 0.0, 0.0, 0.0, 0.0, 0.0, 1.648337597851112E9, 0.0, 2022-03-26 18:33:17.851
22.0, 517.0579984239303, 66.48420151229948, 847.9026381541044, 401.29687509546056, 0.0800000037997961, 0.3840000182390213, 0.9600000455975533, 0.0, 0.0, 0.0, 0.0, 0.0, 1.6483375978518624E9, 0.0, 2022-03-26 18:33:17.851
22.0, 510.9956205957569, 58.952043001540005, 843.2801218088716, 396.63695975067094, 0.0800000037997961, 0.3840000182390213, 0.9600000455975533, 0.0, 0.0, 0.0, 0.0, 0.0, 1.6483375978518624E9, 0.0, 2022-03-26 18:33:17.851
23.0, 511.1452165939845, 69.3302653785795, 840.9314646366984, 376.7593914861791, 0.0800000037997961, 0.3840000182390213, 0.9600000455975533, 0.0, 0.0, 0.0, 0.0, 0.0, 1.648337597865451E9, 0.0, 2022-03-26 18:33:17.865
23.0, 506.76579374587163, 63.92237004265189, 837.8834461728111, 396.14703285647556, 0.0800000037997961, 0.3840000182390213, 0.9600000455975533, 0.0, 0.0, 0.0, 0.0, 0.0, 1.648337597865451E9, 0.0, 2022-03-26 18:33:17.865
24.0, 501.12976451264694, 60.01791448891163, 824.2028921348974, 396.03857575776055, 0.0800000037997961, 0.3840000182390213, 0.9600000455975533, 0.0, 0.0, 0.0, 0.0, 0.0, 1.6483375978810937E9, 0.0, 2022-03-26 18:33:17.881
24.0, 481.6261862437241, 61.85420536715537, 826.1850391114131, 374.1601610169746, 0.0800000037997961, 0.3840000182390213, 0.9600000455975533, 0.0, 0.0, 0.0, 0.0, 0.0, 1.6483375978810937E9, 0.0, 2022-03-26 18:33:17.881
25.0, 490.093319743406, 60.563939882442355, 824.46094523184, 361.64645576523617, 0.0800000037997961, 0.3840000182390213, 0.9600000455975533, 0.0, 0.0, 0.0, 0.0, 0.0, 1.6483375978818324E9, 0.0, 2022-03-26 18:33:17.881
25.0, 505.0043008667417, 64.14676403999329, 828.4027997851372, 393.0616153930314, 0.0800000037997961, 0.3840000182390213, 0.9600000455975533, 0.0, 0.0, 0.0, 0.0, 0.0, 1.6483375978818324E9, 0.0, 2022-03-26 18:33:17.881
26.0, 498.82598613994196, 57.04469402413815, 834.0350891184062, 389.11228103982285, 0.0800000037997961, 0.3840000182390213, 0.9600000455975533, 0.0, 0.0, 0.0, 0.0, 0.0, 1.6483375978954115E9, 0.0, 2022-03-26 18:33:17.895
26.0, 496.6605840655975, 61.5475335707888, 828.7580902809277, 395.0886411690153, 0.0800000037997961, 0.3840000182390213, 0.9600000455975533, 0.0, 0.0, 0.0, 0.0, 0.0, 1.6483375978954115E9, 0.0, 2022-03-26 18:33:17.895
27.0, 500.4453628207557, 60.36572518479079, 829.827701668255, 403.3276407714002, 0.0800000037997961, 0.3840000182390213, 0.9600000455975533, 0.0, 0.0, 0.0, 0.0, 0.0, 1.6483375979111047E9, 0.0, 2022-03-26 18:33:17.911
27.0, 490.01852174429223, 61.16980367526412, 835.8040617974475, 396.37890665372834, 0.0800000037997961, 0.3840000182390213, 0.9600000455975533, 0.0, 0.0, 0.0, 0.0, 0.0, 1.6483375979111047E9, 0.0, 2022-03-26 18:33:17.911
28.0, 500.0414536255412, 64.03456704132259, 830.5083634601906, 402.37022638274357, 0.0800000037997961, 0.3840000182390213, 0.9600000455975533, 0.0, 0.0, 0.0, 0.0, 0.0, 1.648337597911842E9, 0.0, 2022-03-26 18:33:17.911
28.0, 484.85371990548447, 56.184517034329474, 831.0543888537213, 412.5165749625303, 0.0800000037997961, 0.3840000182390213, 0.9600000455975533, 0.0, 0.0, 0.0, 0.0, 0.0, 1.648337597911842E9, 0.0, 2022-03-26 18:33:17.911
29.0, 506.47034164937213, 64.85360513161868, 829.019883277826, 396.04231565771624, 0.0800000037997961, 0.3840000182390213, 0.9600000455975533, 0.0, 0.0, 0.0, 0.0, 0.0, 1.6483375979254344E9, 0.0, 2022-03-26 18:33:17.925
29.0, 489.9474636451341, 50.36523270327598, 812.18285367731, 373.32242342690006, 0.0800000037997961, 0.3840000182390213, 0.9600000455975533, 0.0, 0.0, 0.0, 0.0, 0.0, 1.6483375979254344E9, 0.0, 2022-03-26 18:33:17.925
30.0, 486.7236698833294, 58.45837620738894, 826.5889483066276, 397.5794145395048, 0.0800000037997961, 0.3840000182390213, 0.944000044837594, 0.0, 0.0, 0.0, 0.0, 0.0, 1.6483375979411893E9, 0.0, 2022-03-26 18:33:17.941
30.0, 492.53547441447154, 53.779761362820864, 825.8970668148249, 398.794882025104, 0.0800000037997961, 0.3840000182390213, 0.944000044837594, 0.0, 0.0, 0.0, 0.0, 0.0, 1.6483375979411893E9, 0.0, 2022-03-26 18:33:17.941
31.0, 497.04579376103356, 52.134205382317305, 820.0964819835499, 391.37866041297093, 0.0800000037997961, 0.35200001671910286, 0.944000044837594, 0.0, 0.0, 0.0, 0.0, 0.0, 1.6483375979419248E9, 0.0, 2022-03-26 18:33:17.941
31.0, 501.6608303063549, 51.16931119374931, 821.1286943713203, 400.93410479975864, 0.0800000037997961, 0.35200001671910286, 0.944000044837594, 0.0, 0.0, 0.0, 0.0, 0.0, 1.6483375979419248E9, 0.0, 2022-03-26 18:33:17.941
32.0, 496.4361900682561, 48.113812929950655, 820.96413877327, 398.44707132922485, 0.12800000607967377, 0.35200001671910286, 0.944000044837594, 0.0, 0.0, 0.0, 0.0, 0.0, 1.6483375979554224E9, 0.0, 2022-03-26 18:33:17.955
32.0, 499.9142970270477, 54.86059245001525, 815.2159125413746, 400.72467040224, 0.12800000607967377, 0.35200001671910286, 0.944000044837594, 0.0, 0.0, 0.0, 0.0, 0.0, 1.6483375979554224E9, 0.0, 2022-03-26 18:33:17.955
33.0, 496.38757136883214, 56.83899952657521, 817.3177363164723, 398.3984526298009, 0.12800000607967377, 0.35200001671910286, 0.944000044837594, 0.0, 0.0, 0.0, 0.0, 0.0, 1.6483375979711452E9, 0.0, 2022-03-26 18:33:17.971
33.0, 498.05182684911415, 58.518214606679976, 816.8689483217895, 410.4297107872553, 0.12800000607967377, 0.35200001671910286, 0.944000044837594, 0.0, 0.0, 0.0, 0.0, 0.0, 1.6483375979711452E9, 0.0, 2022-03-26 18:33:17.971
34.0, 501.9188834032975, 61.742008368484676, 820.8631614744663, 393.29722909023985, 0.12800000607967377, 0.35200001671910286, 0.944000044837594, 0.0, 0.0, 0.0, 0.0, 0.0, 1.6483375979718816E9, 0.0, 2022-03-26 18:33:17.971
34.0, 501.57107270741835, 52.75128887500614, 818.9632922969759, 387.6836392567493, 0.12800000607967377, 0.35200001671910286, 0.944000044837594, 0.0, 0.0, 0.0, 0.0, 0.0, 1.6483375979718816E9, 0.0, 2022-03-26 18:33:17.971
35.0, 492.2998607172631, 51.39744509104639, 815.331849440001, 375.7122194985859, 0.12800000607967377, 0.35200001671910286, 0.944000044837594, 0.0, 0.0, 0.0, 0.0, 0.0, 1.6483375979854393E9, 0.0, 2022-03-26 18:33:17.985
35.0, 500.3593451217748, 60.44426308386028, 823.9560587378219, 381.415566931013, 0.12800000607967377, 0.35200001671910286, 0.944000044837594, 0.0, 0.0, 0.0, 0.0, 0.0, 1.6483375979854393E9, 0.0, 2022-03-26 18:33:17.985
36.0, 508.53850632486865, 54.26594835706055, 828.4701179843396, 398.2114576320164, 0.12800000607967377, 0.35200001671910286, 0.944000044837594, 0.0, 0.0, 0.0, 0.0, 0.0, 1.648337598001176E9, 0.0, 2022-03-26 18:33:18.001
36.0, 495.8939045746811, 56.62956512905657, 818.55190330185, 402.3627465828322, 0.12800000607967377, 0.35200001671910286, 0.944000044837594, 0.0, 0.0, 0.0, 0.0, 0.0, 1.648337598001176E9, 0.0, 2022-03-26 18:33:18.001
37.0, 497.6666171536781, 59.48684869520366, 818.3499487042427, 385.73889127979055, 0.12800000607967377, 0.35200001671910286, 0.944000044837594, 0.0, 0.0, 0.0, 0.0, 0.0, 1.6483375980018976E9, 0.0, 2022-03-26 18:33:18.001
37.0, 506.6760361469351, 53.79472096264362, 819.6551737887785, 403.96716366382316, 0.12800000607967377, 0.35200001671910286, 0.944000044837594, 0.0, 0.0, 0.0, 0.0, 0.0, 1.6483375980018976E9, 0.0, 2022-03-26 18:33:18.001
38.0, 501.79920660471544, 52.145425082184374, 815.4440464386716, 387.4255861598067, 0.12800000607967377, 0.35200001671910286, 0.944000044837594, 0.0, 0.0, 0.0, 0.0, 0.0, 1.6483375980153804E9, 0.0, 2022-03-26 18:33:18.015
38.0, 497.27766755828634, 49.8005078099668, 817.0372438197955, 393.85821408359334, 0.12800000607967377, 0.35200001671910286, 0.944000044837594, 0.0, 0.0, 0.0, 0.0, 0.0, 1.6483375980153804E9, 0.0, 2022-03-26 18:33:18.015
39.0, 498.08548594871536, 55.53003454208374, 818.2040926059708, 385.4583987831138, 0.12800000607967377, 0.35200001671910286, 0.944000044837594, 0.0, 0.0, 0.0, 0.0, 0.0, 1.64833759803111E9, 0.0, 2022-03-26 18:33:18.031
39.0, 493.6574444011785, 55.05506724771112, 818.937112997286, 394.37432027747855, 0.12800000607967377, 0.35200001671910286, 0.944000044837594, 0.0, 0.0, 0.0, 0.0, 0.0, 1.64833759803111E9, 0.0, 2022-03-26 18:33:18.031
40.0, 488.9863093565218, 54.4716428546235, 814.0752430548891, 397.6841317382641, 0.12800000607967377, 0.35200001671910286, 0.944000044837594, 0.0, 0.0, 0.0, 0.0, 0.0, 1.648337598031852E9, 0.0, 2022-03-26 18:33:18.031
40.0, 488.1336121666245, 43.40527888573706, 815.5076247379184, 390.6419001217, 0.12800000607967377, 0.35200001671910286, 0.944000044837594, 0.0, 0.0, 0.0, 0.0, 0.0, 1.648337598031852E9, 0.0, 2022-03-26 18:33:18.031
41.0, 495.0337275848724, 51.64053858816624, 818.0582365076989, 387.5826619579457, 0.12800000607967377, 0.33600001595914364, 0.944000044837594, 0.0, 0.0, 0.0, 0.0, 0.0, 1.6483375980453997E9, 0.0, 2022-03-26 18:33:18.045
41.0, 490.2952743410133, 44.57960747182369, 814.643707848154, 374.3733353144489, 0.12800000607967377, 0.33600001595914364, 0.944000044837594, 0.0, 0.0, 0.0, 0.0, 0.0, 1.6483375980453997E9, 0.0, 2022-03-26 18:33:18.045
42.0, 495.40023778053, 48.30828772764653, 809.1348352134228, 392.26127680251375, 0.11200000531971455, 0.33600001595914364, 0.944000044837594, 0.0, 0.0, 0.0, 0.0, 0.0, 1.6483375980612051E9, 0.0, 2022-03-26 18:33:18.061
42.0, 489.4463170510717, 42.425425097346306, 811.74902528245, 383.3902341076173, 0.11200000531971455, 0.33600001595914364, 0.944000044837594, 0.0, 0.0, 0.0, 0.0, 0.0, 1.6483375980612051E9, 0.0, 2022-03-26 18:33:18.061
43.0, 496.1893566711806, 38.378853345289826, 807.3920418340713, 392.03314290521666, 0.11200000531971455, 0.33600001595914364, 0.944000044837594, 0.0, 0.0, 0.0, 0.0, 0.0, 1.648337598061844E9, 0.0, 2022-03-26 18:33:18.061
43.0, 495.2581215822138, 36.16857247147709, 805.5669706556946, 394.6510728741996, 0.11200000531971455, 0.33600001595914364, 0.944000044837594, 0.0, 0.0, 0.0, 0.0, 0.0, 1.648337598061844E9, 0.0, 2022-03-26 18:33:18.061
44.0, 486.01308889174834, 36.845494363456964, 796.2845389656723, 384.44862579507753, 0.11200000531971455, 0.33600001595914364, 0.944000044837594, 0.0, 0.0, 0.0, 0.0, 0.0, 1.6483375980754097E9, 0.0, 2022-03-26 18:33:18.075
44.0, 495.4451165799983, 38.69300494156778, 806.4757663449273, 380.5965288407169, 0.11200000531971455, 0.33600001595914364, 0.944000044837594, 0.0, 0.0, 0.0, 0.0, 0.0, 1.6483375980754097E9, 0.0, 2022-03-26 18:33:18.075
45.0, 511.5229464895092, 44.482370072975755, 816.4687790265307, 405.26116904849187, 0.11200000531971455, 0.33600001595914364, 0.944000044837594, 0.0, 0.0, 0.0, 0.0, 0.0, 1.6483375980912137E9, 0.0, 2022-03-26 18:33:18.091
45.0, 501.0362670137547, 44.512289272621274, 806.3897486459464, 386.1951590743847, 0.11200000531971455, 0.33600001595914364, 0.944000044837594, 0.0, 0.0, 0.0, 0.0, 0.0, 1.6483375980912137E9, 0.0, 2022-03-26 18:33:18.091
46.0, 498.2650011465885, 48.76081562228501, 812.556843672879, 388.603654645849, 0.11200000531971455, 0.33600001595914364, 0.944000044837594, 0.0, 0.0, 0.0, 0.0, 0.0, 1.6483375980919075E9, 0.0, 2022-03-26 18:33:18.091
46.0, 496.05098037282005, 48.57008072454482, 813.6077555604279, 386.6364672691561, 0.11200000531971455, 0.33600001595914364, 0.944000044837594, 0.0, 0.0, 0.0, 0.0, 0.0, 1.6483375980919075E9, 0.0, 2022-03-26 18:33:18.091
47.0, 493.04784070840105, 46.098006853833795, 808.0016455268487, 399.70741761429235, 0.11200000531971455, 0.33600001595914364, 0.944000044837594, 0.0, 0.0, 0.0, 0.0, 0.0, 1.6483375981217608E9, 0.0, 2022-03-26 18:33:18.121
47.0, 486.56659408519045, 50.507348901592195, 810.9187674922869, 384.51968389423564, 0.11200000531971455, 0.33600001595914364, 0.944000044837594, 0.0, 0.0, 0.0, 0.0, 0.0, 1.6483375981217608E9, 0.0, 2022-03-26 18:33:18.121
48.0, 501.49253480834886, 46.73752974625677, 806.9582134392112, 405.60149994445965, 0.11200000531971455, 0.33600001595914364, 0.944000044837594, 0.0, 0.0, 0.0, 0.0, 0.0, 1.6483375981225023E9, 0.0, 2022-03-26 18:33:18.122
48.0, 503.5569595838897, 37.30924195796251, 805.4996524564922, 400.94158459967, 0.11200000531971455, 0.33600001595914364, 0.944000044837594, 0.0, 0.0, 0.0, 0.0, 0.0, 1.6483375981225023E9, 0.0, 2022-03-26 18:33:18.122
49.0, 499.17005693586543, 29.575128849595785, 809.2619918119162, 381.041576935444, 0.11200000531971455, 0.33600001595914364, 0.944000044837594, 0.0, 0.0, 0.0, 0.0, 0.0, 1.6483375981233327E9, 0.0, 2022-03-26 18:33:18.123
49.0, 495.6994297769852, 50.159538205713034, 804.4412607690319, 384.37382779596373, 0.11200000531971455, 0.33600001595914364, 0.944000044837594, 0.0, 0.0, 0.0, 0.0, 0.0, 1.6483375981233327E9, 0.0, 2022-03-26 18:33:18.123
50.0, 502.53222699603066, 51.44232389051467, 802.2235000953078, 392.5679485988803, 0.11200000531971455, 0.33600001595914364, 0.9600000455975533, 0.0, 0.0, 0.0, 0.0, 0.0, 1.6483375981354551E9, 0.0, 2022-03-26 18:33:18.135
50.0, 509.45852171396837, 51.93599068466574, 812.014558179304, 391.0233699171804, 0.11200000531971455, 0.33600001595914364, 0.9600000455975533, 0.0, 0.0, 0.0, 0.0, 0.0, 1.6483375981354551E9, 0.0, 2022-03-26 18:33:18.135
51.0, 497.4123039566912, 51.281508192420006, 800.9855932099745, 378.6891798633151, 0.11200000531971455, 0.33600001595914364, 0.9600000455975533, 0.0, 0.0, 0.0, 0.0, 0.0, 1.6483375981511106E9, 0.0, 2022-03-26 18:33:18.151
51.0, 507.9999607312493, 50.39141200296581, 797.1746351551265, 383.7118655038066, 0.11200000531971455, 0.33600001595914364, 0.9600000455975533, 0.0, 0.0, 0.0, 0.0, 0.0, 1.6483375981511106E9, 0.0, 2022-03-26 18:33:18.151
52.0, 485.9869095920585, 36.91655246261507, 797.9974131453782, 369.6760209701024, 0.09600000455975533, 0.33600001595914364, 0.9600000455975533, 0.0, 0.0, 0.0, 0.0, 0.0, 1.6483375981518395E9, 0.0, 2022-03-26 18:33:18.151
52.0, 491.7762747234665, 31.299222729168832, 795.8357509709895, 364.3728428329341, 0.09600000455975533, 0.33600001595914364, 0.9600000455975533, 0.0, 0.0, 0.0, 0.0, 0.0, 1.6483375981518395E9, 0.0, 2022-03-26 18:33:18.151
53.0, 505.7410611580126, 43.240723287686706, 803.4988059801981, 373.69267352251336, 0.09600000455975533, 0.33600001595914364, 0.9600000455975533, 0.0, 0.0, 0.0, 0.0, 0.0, 1.6483375981654117E9, 0.0, 2022-03-26 18:33:18.165
53.0, 499.2635544347577, 40.34230082202703, 795.7721726717427, 382.51883741794154, 0.09600000455975533, 0.33600001595914364, 0.9600000455975533, 0.0, 0.0, 0.0, 0.0, 0.0, 1.6483375981654117E9, 0.0, 2022-03-26 18:33:18.165
54.0, 493.1862170067616, 47.48924963735044, 797.1708952551708, 370.25944536319, 0.09600000455975533, 0.33600001595914364, 0.9600000455975533, 0.0, 0.0, 0.0, 0.0, 0.0, 1.6483375981808307E9, 0.0, 2022-03-26 18:33:18.180
54.0, 496.12951827188954, 42.60494029521942, 799.2727190302685, 371.7217462458648, 0.09600000455975533, 0.33600001595914364, 0.9600000455975533, 0.0, 0.0, 0.0, 0.0, 0.0, 1.6483375981808307E9, 0.0, 2022-03-26 18:33:18.180
55.0, 502.27043399913236, 39.3886263333261, 792.4922804106027, 386.63272736920044, 0.09600000455975533, 0.33600001595914364, 0.9600000455975533, 0.0, 0.0, 0.0, 0.0, 0.0, 1.6483375981960857E9, 0.0, 2022-03-26 18:33:18.196
55.0, 493.3694721045904, 36.849234263412654, 784.0962050100788, 370.54741765977815, 0.09600000455975533, 0.33600001595914364, 0.9600000455975533, 0.0, 0.0, 0.0, 0.0, 0.0, 1.6483375981960857E9, 0.0, 2022-03-26 18:33:18.196
56.0, 490.38129203999415, 43.73065018188208, 793.8610837943852, 364.95626722602174, 0.09600000455975533, 0.33600001595914364, 0.9600000455975533, 0.0, 0.0, 0.0, 0.0, 0.0, 1.6483375981968112E9, 0.0, 2022-03-26 18:33:18.196
56.0, 492.05676722014323, 34.433258892036974, 782.3085328312591, 368.5316115836613, 0.09600000455975533, 0.33600001595914364, 0.9600000455975533, 0.0, 0.0, 0.0, 0.0, 0.0, 1.6483375981968112E9, 0.0, 2022-03-26 18:33:18.196
57.0, 499.71234242944047, 41.95045780297369, 788.8570976536721, 372.4622464370914, 0.09600000455975533, 0.33600001595914364, 0.9600000455975533, 0.0, 0.0, 0.0, 0.0, 0.0, 1.6483375982111375E9, 0.0, 2022-03-26 18:33:18.211
57.0, 499.1363978362642, 43.85780678037554, 795.8993292702362, 362.86940305074677, 0.09600000455975533, 0.33600001595914364, 0.9600000455975533, 0.0, 0.0, 0.0, 0.0, 0.0, 1.6483375982111375E9, 0.0, 2022-03-26 18:33:18.211
58.0, 490.68422393640503, 37.93754515051842, 797.0362588567659, 365.9361210144125, 0.09600000455975533, 0.33600001595914364, 0.9600000455975533, 0.0, 0.0, 0.0, 0.0, 0.0, 1.6483375982118144E9, 0.0, 2022-03-26 18:33:18.211
58.0, 501.1933428118937, 47.40323193836957, 806.2289329478517, 380.55538994120434, 0.09600000455975533, 0.33600001595914364, 0.9600000455975533, 0.0, 0.0, 0.0, 0.0, 0.0, 1.6483375982118144E9, 0.0, 2022-03-26 18:33:18.211
59.0, 499.30469333427027, 45.52206226065755, 799.2876786300912, 356.6275100247003, 0.09600000455975533, 0.33600001595914364, 0.9600000455975533, 0.0, 0.0, 0.0, 0.0, 0.0, 1.6483375982254186E9, 0.0, 2022-03-26 18:33:18.225
59.0, 497.4497029562481, 50.66068479977548, 795.2785058775917, 366.39612870896235, 0.09600000455975533, 0.33600001595914364, 0.9600000455975533, 0.0, 0.0, 0.0, 0.0, 0.0, 1.6483375982254186E9, 0.0, 2022-03-26 18:33:18.225
60.0, 484.75648250663653, 42.17485180031508, 790.0314262397587, 361.65767546510324, 0.09600000455975533, 0.33600001595914364, 0.9760000463575125, 0.0, 0.0, 0.0, 0.0, 0.0, 1.6483375982410977E9, 0.0, 2022-03-26 18:33:18.241
60.0, 501.3616383098997, 43.36413998622447, 803.7381595773622, 349.09161161398515, 0.09600000455975533, 0.33600001595914364, 0.9760000463575125, 0.0, 0.0, 0.0, 0.0, 0.0, 1.6483375982410977E9, 0.0, 2022-03-26 18:33:18.241
61.0, 500.86423161579296, 48.23722962848842, 803.8690560758114, 376.2769443918951, 0.09600000455975533, 0.3840000182390213, 0.9760000463575125, 0.0, 0.0, 0.0, 0.0, 0.0, 1.648337598241834E9, 0.0, 2022-03-26 18:33:18.241
61.0, 499.4804686321877, 48.32324732746929, 800.8472169116139, 381.0602764352225, 0.09600000455975533, 0.3840000182390213, 0.9760000463575125, 0.0, 0.0, 0.0, 0.0, 0.0, 1.648337598241834E9, 0.0, 2022-03-26 18:33:18.241
62.0, 498.5417537433095, 40.465717520564795, 800.5143658155575, 367.6751744938083, 0.06400000303983688, 0.3840000182390213, 0.9760000463575125, 0.0, 0.0, 0.0, 0.0, 0.0, 1.6483375982555633E9, 0.0, 2022-03-26 18:33:18.255
62.0, 495.991141973529, 41.72606380563229, 795.4991599749774, 365.8987220148556, 0.06400000303983688, 0.3840000182390213, 0.9760000463575125, 0.0, 0.0, 0.0, 0.0, 0.0, 1.6483375982555633E9, 0.0, 2022-03-26 18:33:18.255
63.0, 496.9485563621856, 49.748149210587144, 805.9372207513079, 369.94903366686776, 0.06400000303983688, 0.3840000182390213, 0.9760000463575125, 0.0, 0.0, 0.0, 0.0, 0.0, 1.648337598271076E9, 0.0, 2022-03-26 18:33:18.271
63.0, 496.0285409730859, 45.8736128564924, 795.9890868691728, 371.21311985189095, 0.06400000303983688, 0.3840000182390213, 0.9760000463575125, 0.0, 0.0, 0.0, 0.0, 0.0, 1.648337598271076E9, 0.0, 2022-03-26 18:33:18.271
64.0, 496.9148972625844, 38.54340894334018, 788.6102642565966, 373.22144612809643, 0.06400000303983688, 0.3840000182390213, 0.9760000463575125, 0.0, 0.0, 0.0, 0.0, 0.0, 1.6483375982718353E9, 0.0, 2022-03-26 18:33:18.271
64.0, 483.3988988227211, 45.46222386136651, 796.3256778651848, 364.80667122779414, 0.06400000303983688, 0.3840000182390213, 0.9760000463575125, 0.0, 0.0, 0.0, 0.0, 0.0, 1.6483375982718353E9, 0.0, 2022-03-26 18:33:18.271
65.0, 496.1070788721554, 39.276429334655404, 799.0632846327499, 363.6772214411758, 0.06400000303983688, 0.3840000182390213, 0.9760000463575125, 0.0, 0.0, 0.0, 0.0, 0.0, 1.6483375982854204E9, 0.0, 2022-03-26 18:33:18.285
65.0, 490.8525194344111, 48.18113112915307, 803.6970206778497, 370.98498595459387, 0.06400000303983688, 0.3840000182390213, 0.9760000463575125, 0.0, 0.0, 0.0, 0.0, 0.0, 1.6483375982854204E9, 0.0, 2022-03-26 18:33:18.285
66.0, 492.27742131752893, 56.05362053588033, 797.215774054639, 356.43677512696013, 0.06400000303983688, 0.3840000182390213, 0.9760000463575125, 0.0, 0.0, 0.0, 0.0, 0.0, 1.6483375983010976E9, 0.0, 2022-03-26 18:33:18.301
66.0, 503.5195605843328, 47.75104263424873, 799.1642619315535, 357.5213461141102, 0.06400000303983688, 0.3840000182390213, 0.9760000463575125, 0.0, 0.0, 0.0, 0.0, 0.0, 1.6483375983010976E9, 0.0, 2022-03-26 18:33:18.301
67.0, 499.6263247304596, 47.79218153376132, 783.804492813535, 374.4630929133855, 0.06400000303983688, 0.3840000182390213, 0.9760000463575125, 0.0, 0.0, 0.0, 0.0, 0.0, 1.6483375983018248E9, 0.0, 2022-03-26 18:33:18.301
67.0, 492.00814852071926, 56.79786062706262, 787.604231168516, 366.10441651241854, 0.06400000303983688, 0.3840000182390213, 0.9760000463575125, 0.0, 0.0, 0.0, 0.0, 0.0, 1.6483375983018248E9, 0.0, 2022-03-26 18:33:18.301
68.0, 487.51278877398, 54.99522884842008, 781.766247337684, 362.51037265500054, 0.06400000303983688, 0.3840000182390213, 0.9760000463575125, 0.0, 0.0, 0.0, 0.0, 0.0, 1.648337598315438E9, 0.0, 2022-03-26 18:33:18.315
68.0, 484.9135583047755, 52.34737967979163, 772.1397448517382, 374.8595223086886, 0.06400000303983688, 0.3840000182390213, 0.9760000463575125, 0.0, 0.0, 0.0, 0.0, 0.0, 1.648337598315438E9, 0.0, 2022-03-26 18:33:18.315
69.0, 494.9215305862017, 50.69808379933238, 771.8629922550172, 373.3523426265456, 0.06400000303983688, 0.3840000182390213, 0.9760000463575125, 0.0, 0.0, 0.0, 0.0, 0.0, 1.648337598330846E9, 0.0, 2022-03-26 18:33:18.330
69.0, 484.38249251106754, 51.24036929290742, 754.4238387616351, 325.5414615930058, 0.06400000303983688, 0.3840000182390213, 0.9760000463575125, 0.0, 0.0, 0.0, 0.0, 0.0, 1.648337598330846E9, 0.0, 2022-03-26 18:33:18.330
70.0, 497.064493260812, 46.31492105126381, 754.0124497665092, 336.57416646229103, 0.06400000303983688, 0.3840000182390213, 0.9920000471174717, 0.0, 0.0, 0.0, 0.0, 0.0, 1.6483375983461127E9, 0.0, 2022-03-26 18:33:18.346
70.0, 486.5067556858994, 44.29537507519126, 764.2522958451882, 351.9264557803981, 0.06400000303983688, 0.3840000182390213, 0.9920000471174717, 0.0, 0.0, 0.0, 0.0, 0.0, 1.6483375983461127E9, 0.0, 2022-03-26 18:33:18.346
71.0, 480.9530042516999, 39.994490126147866, 775.217682515271, 323.4022388183512, 0.06400000303983688, 0.4480000212788582, 0.9920000471174717, 0.0, 0.0, 0.0, 0.0, 0.0, 1.6483375983468132E9, 0.0, 2022-03-26 18:33:18.346
71.0, 495.8789449748583, 47.21623694058508, 783.7259549144655, 358.98738689674065, 0.06400000303983688, 0.4480000212788582, 0.9920000471174717, 0.0, 0.0, 0.0, 0.0, 0.0, 1.6483375983468132E9, 0.0, 2022-03-26 18:33:18.346
72.0, 500.97642861446366, 52.39973827917129, 780.6442773509771, 358.5647782017477, 0.04800000227987766, 0.4480000212788582, 0.9920000471174717, 0.0, 0.0, 0.0, 0.0, 0.0, 1.6483375983610992E9, 0.0, 2022-03-26 18:33:18.361
72.0, 496.5970057663508, 56.43135043140501, 779.9748352589086, 364.43268123222515, 0.04800000227987766, 0.4480000212788582, 0.9920000471174717, 0.0, 0.0, 0.0, 0.0, 0.0, 1.6483375983610992E9, 0.0, 2022-03-26 18:33:18.361
73.0, 495.4750357796438, 49.96132350806147, 776.1788368038833, 362.3009382574819, 0.04800000227987766, 0.4480000212788582, 0.9920000471174717, 0.0, 0.0, 0.0, 0.0, 0.0, 1.6483375983618283E9, 0.0, 2022-03-26 18:33:18.361
73.0, 486.41699808696285, 51.46102339029312, 775.3186598140746, 379.3922810549848, 0.04800000227987766, 0.4480000212788582, 0.9920000471174717, 0.0, 0.0, 0.0, 0.0, 0.0, 1.6483375983618283E9, 0.0, 2022-03-26 18:33:18.361
74.0, 483.4437776221894, 54.164971058256924, 783.0527729224414, 372.40614793775603, 0.04800000227987766, 0.4480000212788582, 0.9920000471174717, 0.0, 0.0, 0.0, 0.0, 0.0, 1.6483375983754196E9, 0.0, 2022-03-26 18:33:18.375
74.0, 501.2157822116278, 60.26848778594285, 781.4670553412288, 363.0489182486199, 0.04800000227987766, 0.4480000212788582, 0.9920000471174717, 0.0, 0.0, 0.0, 0.0, 0.0, 1.6483375983754196E9, 0.0, 2022-03-26 18:33:18.375
75.0, 508.1832158290781, 61.07630617637187, 790.4054162353277, 375.8618154968135, 0.04800000227987766, 0.4480000212788582, 0.9920000471174717, 0.0, 0.0, 0.0, 0.0, 0.0, 1.6483375983910937E9, 0.0, 2022-03-26 18:33:18.391
75.0, 505.87195765646175, 60.80329347960651, 791.5573054216802, 379.5605765529908, 0.04800000227987766, 0.4480000212788582, 0.9920000471174717, 0.0, 0.0, 0.0, 0.0, 0.0, 1.6483375983910937E9, 0.0, 2022-03-26 18:33:18.391
76.0, 502.0348203019239, 50.33905340358615, 784.8367052013054, 357.4054092154838, 0.04800000227987766, 0.4480000212788582, 0.9920000471174717, 0.0, 0.0, 0.0, 0.0, 0.0, 1.648337598391826E9, 0.0, 2022-03-26 18:33:18.391
76.0, 494.6185986897908, 52.44835697859526, 786.9273092765361, 353.0708651668392, 0.04800000227987766, 0.4480000212788582, 0.9920000471174717, 0.0, 0.0, 0.0, 0.0, 0.0, 1.648337598391826E9, 0.0, 2022-03-26 18:33:18.391
77.0, 500.4079638211988, 59.2512349979952, 784.7357279025018, 378.47974546579644, 0.04800000227987766, 0.4480000212788582, 0.9920000471174717, 0.0, 0.0, 0.0, 0.0, 0.0, 1.6483375984054596E9, 0.0, 2022-03-26 18:33:18.405
