%OpenBCI Raw EEG Data
%Number of channels = 4
%Sample Rate = 200 Hz
%Board = OpenBCI_GUI$BoardGanglionBLE
Sample Index, EXG Channel 0, EXG Channel 1, EXG Channel 2, EXG Channel 3, Accel Channel 0, Accel Channel 1, Accel Channel 2, Other, Other, Other, Other, Other, Timestamp, Other, Timestamp (Formatted)
0.0, 735.5971823846921, 1059.173326550983, 954.3345810431056, 840.4957662918605, 0.0, 0.0, 0.0, 0.0, 0.0, 0.0, 0.0, 0.0, 1.645061963190642E9, 0.0, 2022-02-16 19:39:23.190
1.0, 737.2651777649298, 1056.6825531804934, 956.380306318868, 846.2514723236673, 0.0, 0.06400000303983688, 0.0, 0.0, 0.0, 0.0, 0.0, 0.0, 1.6450619631911669E9, 0.0, 2022-02-16 19:39:23.191
1.0, 774.6791369216517, 1053.3166432203725, 946.9370589307509, 885.3970051598735, 0.0, 0.06400000303983688, 0.0, 0.0, 0.0, 0.0, 0.0, 0.0, 1.6450619631911669E9, 0.0, 2022-02-16 19:39:23.191
2.0, 804.5833769673482, 1047.4749194895849, 940.9831382012926, 1012.4339268547483, 0.09600000455975533, 0.06400000303983688, 0.0, 0.0, 0.0, 0.0, 0.0, 0.0, 1.6450619632048223E9, 0.0, 2022-02-16 19:39:23.204
2.0, 771.6498179575428, 1047.0186516949907, 953.8895329483785, 1049.0961661203764, 0.09600000455975533, 0.06400000303983688, 0.0, 0.0, 0.0, 0.0, 0.0, 0.0, 1.6450619632048223E9, 0.0, 2022-02-16 19:39:23.204
3.0, 887.3959816861898, 1055.6428609928116, 958.0782208987512, 832.5148197864182, 0.09600000455975533, 0.06400000303983688, 0.0, 0.0, 0.0, 0.0, 0.0, 0.0, 1.6450619632055254E9, 0.0, 2022-02-16 19:39:23.205
3.0, 854.238028679043, 1059.8053696434945, 947.6214606226422, 903.120391049888, 0.09600000455975533, 0.06400000303983688, 0.0, 0.0, 0.0, 0.0, 0.0, 0.0, 1.6450619632055254E9, 0.0, 2022-02-16 19:39:23.205
4.0, 765.1797910341993, 1065.624653974548, 953.5080631528981, 926.9809527671896, 0.09600000455975533, 0.06400000303983688, 0.0, 0.0, 0.0, 0.0, 0.0, 0.0, 1.6450619632195437E9, 0.0, 2022-02-16 19:39:23.219
4.0, 778.377897977829, 1067.3711872538552, 959.8584132776596, 933.3163432921283, 0.09600000455975533, 0.06400000303983688, 0.0, 0.0, 0.0, 0.0, 0.0, 0.0, 1.6450619632195437E9, 0.0, 2022-02-16 19:39:23.219
5.0, 875.899529222399, 1046.797997597605, 938.5148042305373, 1001.7340730815195, 0.09600000455975533, 0.06400000303983688, 0.0, 0.0, 0.0, 0.0, 0.0, 0.0, 1.6450619632499957E9, 0.0, 2022-02-16 19:39:23.249
5.0, 852.2222226029262, 1050.055450459011, 951.2678630794398, 937.2843771451153, 0.09600000455975533, 0.06400000303983688, 0.0, 0.0, 0.0, 0.0, 0.0, 0.0, 1.6450619632499957E9, 0.0, 2022-02-16 19:39:23.249
6.0, 776.3845313014463, 1074.2264238726348, 960.565254369285, 929.411887738388, 0.09600000455975533, 0.06400000303983688, 0.0, 0.0, 0.0, 0.0, 0.0, 0.0, 1.6450619632507863E9, 0.0, 2022-02-16 19:39:23.250
6.0, 850.6215454218909, 1060.4224531361833, 945.452318648342, 978.1502639609389, 0.09600000455975533, 0.06400000303983688, 0.0, 0.0, 0.0, 0.0, 0.0, 0.0, 1.6450619632507863E9, 0.0, 2022-02-16 19:39:23.250
7.0, 771.5451007587835, 1046.461406601593, 934.4570127786137, 979.391910746228, 0.09600000455975533, 0.06400000303983688, 0.0, 0.0, 0.0, 0.0, 0.0, 0.0, 1.6450619632515008E9, 0.0, 2022-02-16 19:39:23.251
7.0, 747.8154355399311, 1063.6649463977665, 953.5492020524107, 908.5170666859485, 0.09600000455975533, 0.06400000303983688, 0.0, 0.0, 0.0, 0.0, 0.0, 0.0, 1.6450619632515008E9, 0.0, 2022-02-16 19:39:23.251
8.0, 777.4691022885963, 1063.635027198121, 945.9759046421386, 928.7162663466297, 0.09600000455975533, 0.06400000303983688, 0.0, 0.0, 0.0, 0.0, 0.0, 0.0, 1.6450619632523265E9, 0.0, 2022-02-16 19:39:23.252
8.0, 828.4626381844282, 1057.2734573734924, 939.5694560180418, 894.7317954492755, 0.09600000455975533, 0.06400000303983688, 0.0, 0.0, 0.0, 0.0, 0.0, 0.0, 1.6450619632523265E9, 0.0, 2022-02-16 19:39:23.252
9.0, 790.1698025381193, 1059.5360968466848, 957.1058469102718, 900.0761124859564, 0.09600000455975533, 0.06400000303983688, 0.0, 0.0, 0.0, 0.0, 0.0, 0.0, 1.6450619632629776E9, 0.0, 2022-02-16 19:39:23.262
9.0, 793.9284019935876, 1054.8163431026042, 939.2964433212765, 843.5437847557478, 0.09600000455975533, 0.06400000303983688, 0.0, 0.0, 0.0, 0.0, 0.0, 0.0, 1.6450619632629776E9, 0.0, 2022-02-16 19:39:23.262
10.0, 854.3128266781569, 1044.4194212257862, 931.812903509941, 848.521591596771, 0.09600000455975533, 0.06400000303983688, 1.008000047877431, 0.0, 0.0, 0.0, 0.0, 0.0, 1.6450619632779937E9, 0.0, 2022-02-16 19:39:23.277
10.0, 759.5475017009303, 1058.2121722623706, 941.6862393929623, 822.2600141079165, 0.09600000455975533, 0.06400000303983688, 1.008000047877431, 0.0, 0.0, 0.0, 0.0, 0.0, 1.6450619632779937E9, 0.0, 2022-02-16 19:39:23.277
11.0, 765.823053826578, 1084.60838614963, 958.7663624905981, 792.5502488599159, 0.09600000455975533, 0.03200000151991844, 1.008000047877431, 0.0, 0.0, 0.0, 0.0, 0.0, 1.6450619632936263E9, 0.0, 2022-02-16 19:39:23.293
11.0, 827.415466196835, 1064.7532572848722, 950.6769588864408, 743.0713724461384, 0.09600000455975533, 0.03200000151991844, 1.008000047877431, 0.0, 0.0, 0.0, 0.0, 0.0, 1.6450619632936263E9, 0.0, 2022-02-16 19:39:23.293
12.0, 824.5282634310424, 1066.3576743658632, 952.0158430705778, 693.6448546317406, 0.04800000227987766, 0.03200000151991844, 1.008000047877431, 0.0, 0.0, 0.0, 0.0, 0.0, 1.645061963294374E9, 0.0, 2022-02-16 19:39:23.294
12.0, 785.1770360972732, 1077.3455004356802, 955.8754198248498, 738.8078864966519, 0.04800000227987766, 0.03200000151991844, 1.008000047877431, 0.0, 0.0, 0.0, 0.0, 0.0, 1.645061963294374E9, 0.0, 2022-02-16 19:39:23.294
13.0, 804.9760664626956, 1071.8777667004615, 947.2923494265415, 750.6895486558788, 0.04800000227987766, 0.03200000151991844, 1.008000047877431, 0.0, 0.0, 0.0, 0.0, 0.0, 1.645061963307938E9, 0.0, 2022-02-16 19:39:23.307
13.0, 767.3152739088982, 1049.8908948609605, 937.7518646395765, 746.4933809055947, 0.04800000227987766, 0.03200000151991844, 1.008000047877431, 0.0, 0.0, 0.0, 0.0, 0.0, 1.645061963307938E9, 0.0, 2022-02-16 19:39:23.307
14.0, 712.622976956889, 1068.4482784410939, 954.5814144401811, 652.513434919063, 0.04800000227987766, 0.03200000151991844, 1.008000047877431, 0.0, 0.0, 0.0, 0.0, 0.0, 1.64506196334003E9, 0.0, 2022-02-16 19:39:23.340
14.0, 755.6991446465254, 1072.2854157956317, 958.7027841913514, 727.5395679301582, 0.04800000227987766, 0.03200000151991844, 1.008000047877431, 0.0, 0.0, 0.0, 0.0, 0.0, 1.64506196334003E9, 0.0, 2022-02-16 19:39:23.340
15.0, 853.852818983607, 1058.990071453154, 946.6266472344287, 777.9982981323265, 0.04800000227987766, 0.03200000151991844, 1.008000047877431, 0.0, 0.0, 0.0, 0.0, 0.0, 1.6450619633407063E9, 0.0, 2022-02-16 19:39:23.340
15.0, 815.7507182350382, 1067.0271164579317, 954.9778438354842, 750.2033616616391, 0.04800000227987766, 0.03200000151991844, 1.008000047877431, 0.0, 0.0, 0.0, 0.0, 0.0, 1.6450619633407063E9, 0.0, 2022-02-16 19:39:23.340
16.0, 755.1680788528174, 1066.866300759837, 961.32445406029, 780.3993139038794, 0.04800000227987766, 0.03200000151991844, 1.008000047877431, 0.0, 0.0, 0.0, 0.0, 0.0, 1.645061963341462E9, 0.0, 2022-02-16 19:39:23.341
16.0, 777.2933269906789, 1062.4195597125217, 946.9744579303078, 738.1908030039631, 0.04800000227987766, 0.03200000151991844, 1.008000047877431, 0.0, 0.0, 0.0, 0.0, 0.0, 1.645061963341462E9, 0.0, 2022-02-16 19:39:23.341
17.0, 792.439921811223, 1058.4702253593132, 935.152634170372, 734.1255317521282, 0.04800000227987766, 0.03200000151991844, 1.008000047877431, 0.0, 0.0, 0.0, 0.0, 0.0, 1.64506196334222E9, 0.0, 2022-02-16 19:39:23.342
17.0, 837.1392060816288, 1058.3954273601994, 937.0487634479068, 695.847655705642, 0.04800000227987766, 0.03200000151991844, 1.008000047877431, 0.0, 0.0, 0.0, 0.0, 0.0, 1.64506196334222E9, 0.0, 2022-02-16 19:39:23.342
18.0, 743.2490176940337, 1053.6981130158529, 939.4310797196813, 702.4971978268586, 0.04800000227987766, 0.03200000151991844, 1.008000047877431, 0.0, 0.0, 0.0, 0.0, 0.0, 1.6450619633529732E9, 0.0, 2022-02-16 19:39:23.352
18.0, 752.411772585474, 1049.0456774709746, 930.3281632275321, 758.61065676203, 0.04800000227987766, 0.03200000151991844, 1.008000047877431, 0.0, 0.0, 0.0, 0.0, 0.0, 1.6450619633529732E9, 0.0, 2022-02-16 19:39:23.352
19.0, 782.9181365240365, 1050.668794051744, 934.8945810734294, 780.8219225988723, 0.04800000227987766, 0.03200000151991844, 1.008000047877431, 0.0, 0.0, 0.0, 0.0, 0.0, 1.6450619633679936E9, 0.0, 2022-02-16 19:39:23.367
19.0, 830.7177978577092, 1061.7800368200988, 936.6224148529582, 691.6963667548262, 0.04800000227987766, 0.03200000151991844, 1.008000047877431, 0.0, 0.0, 0.0, 0.0, 0.0, 1.6450619633679936E9, 0.0, 2022-02-16 19:39:23.367
20.0, 849.5481941346079, 1062.5953350104392, 931.5211913133971, 715.4783905730583, 0.04800000227987766, 0.03200000151991844, 0.5120000243186951, 0.0, 0.0, 0.0, 0.0, 0.0, 1.645061963383692E9, 0.0, 2022-02-16 19:39:23.383
20.0, 726.3297102944925, 1069.663745926693, 940.5530497063883, 721.1293794061057, 0.04800000227987766, 0.03200000151991844, 0.5120000243186951, 0.0, 0.0, 0.0, 0.0, 0.0, 1.645061963383692E9, 0.0, 2022-02-16 19:39:23.383
21.0, 757.5092562250793, 1060.788963331841, 942.9428457780741, 800.2394831688143, 0.04800000227987766, 0.04800000227987766, 0.5120000243186951, 0.0, 0.0, 0.0, 0.0, 0.0, 1.6450619633843105E9, 0.0, 2022-02-16 19:39:23.384
21.0, 852.5027150996029, 1053.286724020727, 938.3053698330186, 803.0855470350944, 0.04800000227987766, 0.04800000227987766, 0.5120000243186951, 0.0, 0.0, 0.0, 0.0, 0.0, 1.6450619633843105E9, 0.0, 2022-02-16 19:39:23.384
22.0, 798.7790522361174, 1053.406400819309, 935.4705256666057, 720.0709877186455, 0.0800000037997961, 0.04800000227987766, 0.5120000243186951, 0.0, 0.0, 0.0, 0.0, 0.0, 1.6450619633979692E9, 0.0, 2022-02-16 19:39:23.397
22.0, 764.6936040399596, 1073.717797478661, 954.7983286376111, 746.0146737112664, 0.0800000037997961, 0.04800000227987766, 0.5120000243186951, 0.0, 0.0, 0.0, 0.0, 0.0, 1.6450619633979692E9, 0.0, 2022-02-16 19:39:23.397
23.0, 802.2833384945989, 1071.1185670094565, 952.8311412609182, 755.6262165973894, 0.0800000037997961, 0.04800000227987766, 0.5120000243186951, 0.0, 0.0, 0.0, 0.0, 0.0, 1.645061963413696E9, 0.0, 2022-02-16 19:39:23.413
23.0, 830.5420225597918, 1052.392887931317, 936.5214375541545, 884.8995984657668, 0.0800000037997961, 0.04800000227987766, 0.5120000243186951, 0.0, 0.0, 0.0, 0.0, 0.0, 1.645061963413696E9, 0.0, 2022-02-16 19:39:23.413
24.0, 777.147470892407, 1070.2658698195592, 948.1487865163945, 800.9949429598637, 0.0800000037997961, 0.04800000227987766, 0.5120000243186951, 0.0, 0.0, 0.0, 0.0, 0.0, 1.6450619634143703E9, 0.0, 2022-02-16 19:39:23.414
24.0, 802.679767889902, 1064.3867470892146, 943.1821993752383, 746.164269709494, 0.0800000037997961, 0.04800000227987766, 0.5120000243186951, 0.0, 0.0, 0.0, 0.0, 0.0, 1.6450619634143703E9, 0.0, 2022-02-16 19:39:23.414
25.0, 831.7200910458341, 1059.4837382473052, 934.4345733788796, 857.8227227865718, 0.0800000037997961, 0.04800000227987766, 0.5120000243186951, 0.0, 0.0, 0.0, 0.0, 0.0, 1.6450619634279516E9, 0.0, 2022-02-16 19:39:23.427
25.0, 861.6579901911318, 1059.173326550983, 930.051410630811, 730.9989753891714, 0.0800000037997961, 0.04800000227987766, 0.5120000243186951, 0.0, 0.0, 0.0, 0.0, 0.0, 1.6450619634279516E9, 0.0, 2022-02-16 19:39:23.427
26.0, 748.3278018338606, 1077.203384237364, 956.2494098204188, 747.671449391637, 0.0800000037997961, 0.04800000227987766, 0.5120000243186951, 0.0, 0.0, 0.0, 0.0, 0.0, 1.6450619634436681E9, 0.0, 2022-02-16 19:39:23.443
26.0, 770.9691561656073, 1065.684492373839, 941.5291635948233, 808.6654777689837, 0.0800000037997961, 0.04800000227987766, 0.5120000243186951, 0.0, 0.0, 0.0, 0.0, 0.0, 1.6450619634436681E9, 0.0, 2022-02-16 19:39:23.443
27.0, 782.5703258281574, 1058.7955966554582, 930.6610143235885, 816.1976362797432, 0.0800000037997961, 0.04800000227987766, 0.5120000243186951, 0.0, 0.0, 0.0, 0.0, 0.0, 1.6450619634443405E9, 0.0, 2022-02-16 19:39:23.444
27.0, 703.396643766202, 1064.0464161932468, 941.2860700977035, 767.5003989567049, 0.0800000037997961, 0.04800000227987766, 0.5120000243186951, 0.0, 0.0, 0.0, 0.0, 0.0, 1.6450619634443405E9, 0.0, 2022-02-16 19:39:23.444
28.0, 813.0430306671187, 1057.1836997745559, 941.7572974921204, 757.9337348700501, 0.0800000037997961, 0.04800000227987766, 0.5120000243186951, 0.0, 0.0, 0.0, 0.0, 0.0, 1.6450619634579985E9, 0.0, 2022-02-16 19:39:23.457
28.0, 838.1527189696208, 1063.1862392034382, 928.338536451105, 823.68865589099, 0.0800000037997961, 0.04800000227987766, 0.5120000243186951, 0.0, 0.0, 0.0, 0.0, 0.0, 1.6450619634579985E9, 0.0, 2022-02-16 19:39:23.457
29.0, 816.7006528237835, 1080.2327032014728, 938.6307411291637, 778.8061165227555, 0.0800000037997961, 0.04800000227987766, 0.5120000243186951, 0.0, 0.0, 0.0, 0.0, 0.0, 1.6450619634736395E9, 0.0, 2022-02-16 19:39:23.473
29.0, 748.238044234924, 1078.325354224071, 944.7866164562292, 796.5519418125041, 0.0800000037997961, 0.04800000227987766, 0.5120000243186951, 0.0, 0.0, 0.0, 0.0, 0.0, 1.6450619634736395E9, 0.0, 2022-02-16 19:39:23.473
30.0, 738.8060165466741, 1055.9457928892225, 927.0333113665693, 758.659275461454, 0.0800000037997961, 0.04800000227987766, 0.7520000357180834, 0.0, 0.0, 0.0, 0.0, 0.0, 1.6450619634743967E9, 0.0, 2022-02-16 19:39:23.474
30.0, 760.7704489864409, 1055.796196890995, 923.2485326114111, 794.8428075327538, 0.0800000037997961, 0.04800000227987766, 0.7520000357180834, 0.0, 0.0, 0.0, 0.0, 0.0, 1.6450619634743967E9, 0.0, 2022-02-16 19:39:23.474
31.0, 771.9677094537765, 1048.88486177288, 930.219706128817, 816.5192676759325, 0.0800000037997961, 0.06400000303983688, 0.7520000357180834, 0.0, 0.0, 0.0, 0.0, 0.0, 1.6450619634879303E9, 0.0, 2022-02-16 19:39:23.487
31.0, 812.171633977443, 1071.918905599974, 919.4151351568289, 821.6952892146073, 0.0800000037997961, 0.06400000303983688, 0.7520000357180834, 0.0, 0.0, 0.0, 0.0, 0.0, 1.6450619634879303E9, 0.0, 2022-02-16 19:39:23.487
32.0, 858.3107797307894, 1073.6729186791927, 925.8028842811473, 771.7938041058369, 0.0800000037997961, 0.06400000303983688, 0.7520000357180834, 0.0, 0.0, 0.0, 0.0, 0.0, 1.6450619635036204E9, 0.0, 2022-02-16 19:39:23.503
32.0, 754.1433462649584, 1073.5195827810094, 940.8260624031536, 791.8583673681132, 0.0800000037997961, 0.06400000303983688, 0.7520000357180834, 0.0, 0.0, 0.0, 0.0, 0.0, 1.6450619635036204E9, 0.0, 2022-02-16 19:39:23.503
33.0, 816.6557740243152, 1078.071041027084, 933.9409065847285, 820.8799910242669, 0.0800000037997961, 0.06400000303983688, 0.7520000357180834, 0.0, 0.0, 0.0, 0.0, 0.0, 1.6450619635043454E9, 0.0, 2022-02-16 19:39:23.504
33.0, 775.5841927109286, 1068.7586901374161, 926.2666318756528, 854.6512876241468, 0.0800000037997961, 0.06400000303983688, 0.7520000357180834, 0.0, 0.0, 0.0, 0.0, 0.0, 1.6450619635043454E9, 0.0, 2022-02-16 19:39:23.504
34.0, 789.9154893411323, 1067.4796443525702, 931.9998985077254, 873.6088404995389, 0.0800000037997961, 0.06400000303983688, 0.7520000357180834, 0.0, 0.0, 0.0, 0.0, 0.0, 1.6450619635178916E9, 0.0, 2022-02-16 19:39:23.517
34.0, 689.1551047349349, 1068.8596674362198, 935.5341039658524, 829.1002911268733, 0.0800000037997961, 0.06400000303983688, 0.7520000357180834, 0.0, 0.0, 0.0, 0.0, 0.0, 1.6450619635178916E9, 0.0, 2022-02-16 19:39:23.517
35.0, 811.7864242820069, 1055.3212295966223, 916.4867934915237, 739.0435001938604, 0.0800000037997961, 0.06400000303983688, 0.7520000357180834, 0.0, 0.0, 0.0, 0.0, 0.0, 1.6450619635333545E9, 0.0, 2022-02-16 19:39:23.533
35.0, 738.9556125449017, 1061.981991417706, 923.7384595056064, 737.1473709163256, 0.0800000037997961, 0.06400000303983688, 0.7520000357180834, 0.0, 0.0, 0.0, 0.0, 0.0, 1.6450619635333545E9, 0.0, 2022-02-16 19:39:23.533
36.0, 748.4923574319109, 1075.4269317584112, 935.9454929609783, 781.5025843908079, 0.0800000037997961, 0.06400000303983688, 0.7520000357180834, 0.0, 0.0, 0.0, 0.0, 0.0, 1.6450619635650496E9, 0.0, 2022-02-16 19:39:23.565
36.0, 803.5698640793562, 1064.2109717912972, 926.8388365688734, 842.4592137685977, 0.0800000037997961, 0.06400000303983688, 0.7520000357180834, 0.0, 0.0, 0.0, 0.0, 0.0, 1.6450619635650496E9, 0.0, 2022-02-16 19:39:23.565
37.0, 836.3762664906681, 1058.0775358639657, 915.5443387026899, 876.8513337611221, 0.0800000037997961, 0.06400000303983688, 0.7520000357180834, 0.0, 0.0, 0.0, 0.0, 0.0, 1.6450619635657663E9, 0.0, 2022-02-16 19:39:23.565
37.0, 761.0285020833835, 1076.9565508402884, 923.9815530027263, 840.4097485928796, 0.0800000037997961, 0.06400000303983688, 0.7520000357180834, 0.0, 0.0, 0.0, 0.0, 0.0, 1.6450619635657663E9, 0.0, 2022-02-16 19:39:23.565
38.0, 754.9661242552102, 1071.256943307817, 924.7744117933325, 883.4185980833136, 0.0800000037997961, 0.06400000303983688, 0.7520000357180834, 0.0, 0.0, 0.0, 0.0, 0.0, 1.6450619635665555E9, 0.0, 2022-02-16 19:39:23.566
38.0, 831.7350506456569, 1052.8828148255125, 910.574011661578, 898.6175515032373, 0.0800000037997961, 0.06400000303983688, 0.7520000357180834, 0.0, 0.0, 0.0, 0.0, 0.0, 1.6450619635665555E9, 0.0, 2022-02-16 19:39:23.566
39.0, 774.9858087180182, 1053.5559968175367, 913.7417069240473, 816.8708182717673, 0.0800000037997961, 0.06400000303983688, 0.7520000357180834, 0.0, 0.0, 0.0, 0.0, 0.0, 1.6450619635671947E9, 0.0, 2022-02-16 19:39:23.567
39.0, 737.7850238587707, 1075.9804369518533, 935.8819146617316, 869.6071475469507, 0.0800000037997961, 0.06400000303983688, 0.7520000357180834, 0.0, 0.0, 0.0, 0.0, 0.0, 1.6450619635671947E9, 0.0, 2022-02-16 19:39:23.567
40.0, 862.065639286302, 1077.7980283303186, 924.2396060996689, 850.1521879774518, 0.0800000037997961, 0.06400000303983688, 0.8800000417977571, 0.0, 0.0, 0.0, 0.0, 0.0, 1.6450619635779765E9, 0.0, 2022-02-16 19:39:23.577
40.0, 747.3741273451596, 1089.0401675971225, 933.6791135878302, 813.6657240097411, 0.0800000037997961, 0.06400000303983688, 0.8800000417977571, 0.0, 0.0, 0.0, 0.0, 0.0, 1.6450619635779765E9, 0.0, 2022-02-16 19:39:23.577
41.0, 744.9244928741828, 1106.004353796132, 943.1747195753269, 804.4506105189212, 0.0800000037997961, 0.06400000303983688, 0.8800000417977571, 0.0, 0.0, 0.0, 0.0, 0.0, 1.6450619635936592E9, 0.0, 2022-02-16 19:39:23.593
41.0, 791.5498256217688, 1082.2709486773238, 935.4705256666057, 876.3614068669267, 0.0800000037997961, 0.06400000303983688, 0.8800000417977571, 0.0, 0.0, 0.0, 0.0, 0.0, 1.6450619635936592E9, 0.0, 2022-02-16 19:39:23.593
42.0, 748.4325190326199, 1091.8226531641558, 931.1696407175623, 869.06112215342, 0.09600000455975533, 0.06400000303983688, 0.8800000417977571, 0.0, 0.0, 0.0, 0.0, 0.0, 1.6450619635943809E9, 0.0, 2022-02-16 19:39:23.594
42.0, 849.7052699327469, 1103.2704869285226, 945.2466241507791, 807.4574900832959, 0.09600000455975533, 0.06400000303983688, 0.8800000417977571, 0.0, 0.0, 0.0, 0.0, 0.0, 1.6450619635943809E9, 0.0, 2022-02-16 19:39:23.594
43.0, 785.7118417909369, 1109.7255542520434, 956.0736345225014, 877.9807835477404, 0.09600000455975533, 0.06400000303983688, 0.8800000417977571, 0.0, 0.0, 0.0, 0.0, 0.0, 1.6450619636079583E9, 0.0, 2022-02-16 19:39:23.607
43.0, 799.4933731276542, 1098.6442306833342, 939.9920647130348, 892.6337115741335, 0.09600000455975533, 0.06400000303983688, 0.8800000417977571, 0.0, 0.0, 0.0, 0.0, 0.0, 1.6450619636079583E9, 0.0, 2022-02-16 19:39:23.607
44.0, 761.3912723790854, 1100.540359960869, 936.5812759534456, 957.8052082019858, 0.09600000455975533, 0.06400000303983688, 0.8800000417977571, 0.0, 0.0, 0.0, 0.0, 0.0, 1.645061963623685E9, 0.0, 2022-02-16 19:39:23.623
44.0, 803.2744119828567, 1095.7944269170985, 937.5723494417034, 892.2372821788304, 0.09600000455975533, 0.06400000303983688, 0.8800000417977571, 0.0, 0.0, 0.0, 0.0, 0.0, 1.645061963623685E9, 0.0, 2022-02-16 19:39:23.623
45.0, 824.3487482331693, 1077.0126493396237, 935.9342732611112, 899.9975745868869, 0.09600000455975533, 0.06400000303983688, 0.8800000417977571, 0.0, 0.0, 0.0, 0.0, 0.0, 1.64506196362441E9, 0.0, 2022-02-16 19:39:23.624
45.0, 767.764061903581, 1089.2047231951728, 942.9540654779412, 890.831079795491, 0.09600000455975533, 0.06400000303983688, 0.8800000417977571, 0.0, 0.0, 0.0, 0.0, 0.0, 1.64506196362441E9, 0.0, 2022-02-16 19:39:23.624
46.0, 766.4850161187351, 1094.9043307276443, 953.1639923569746, 877.4871167535894, 0.09600000455975533, 0.06400000303983688, 0.8800000417977571, 0.0, 0.0, 0.0, 0.0, 0.0, 1.645061963637925E9, 0.0, 2022-02-16 19:39:23.637
46.0, 845.1500717867166, 1095.1923030242324, 936.6560739525594, 891.650117885787, 0.09600000455975533, 0.06400000303983688, 0.8800000417977571, 0.0, 0.0, 0.0, 0.0, 0.0, 1.645061963637925E9, 0.0, 2022-02-16 19:39:23.637
47.0, 883.4391675330698, 1070.3107486190274, 925.1297022891231, 854.0529036312364, 0.09600000455975533, 0.06400000303983688, 0.8800000417977571, 0.0, 0.0, 0.0, 0.0, 0.0, 1.64506196365359E9, 0.0, 2022-02-16 19:39:23.653
47.0, 726.7523189894855, 1085.090833243914, 939.5133575187065, 838.8202911117114, 0.09600000455975533, 0.06400000303983688, 0.8800000417977571, 0.0, 0.0, 0.0, 0.0, 0.0, 1.64506196365359E9, 0.0, 2022-02-16 19:39:23.653
48.0, 758.1412993175909, 1092.9633226506412, 941.9405525899492, 950.9350119833834, 0.09600000455975533, 0.06400000303983688, 0.8800000417977571, 0.0, 0.0, 0.0, 0.0, 0.0, 1.645061963668635E9, 0.0, 2022-02-16 19:39:23.668
48.0, 851.3283865135163, 1068.9868240347132, 932.0485172071494, 980.5101408329792, 0.09600000455975533, 0.06400000303983688, 0.8800000417977571, 0.0, 0.0, 0.0, 0.0, 0.0, 1.645061963668635E9, 0.0, 2022-02-16 19:39:23.668
49.0, 746.9851777497679, 1083.3816989641637, 945.0110104535706, 840.7052006893791, 0.09600000455975533, 0.06400000303983688, 0.8800000417977571, 0.0, 0.0, 0.0, 0.0, 0.0, 1.6450619636692984E9, 0.0, 2022-02-16 19:39:23.669
49.0, 790.3156586363912, 1087.9892557095736, 949.1361201046966, 894.6794368498959, 0.09600000455975533, 0.06400000303983688, 0.8800000417977571, 0.0, 0.0, 0.0, 0.0, 0.0, 1.6450619636692984E9, 0.0, 2022-02-16 19:39:23.669
50.0, 882.7996446406469, 1087.4581899158657, 929.3782286387868, 924.2695252993144, 0.09600000455975533, 0.06400000303983688, 0.944000044837594, 0.0, 0.0, 0.0, 0.0, 0.0, 1.6450619636836252E9, 0.0, 2022-02-16 19:39:23.683
50.0, 839.3644465552643, 1077.9887632280588, 933.8548888857476, 956.6832382152788, 0.09600000455975533, 0.06400000303983688, 0.944000044837594, 0.0, 0.0, 0.0, 0.0, 0.0, 1.6450619636836252E9, 0.0, 2022-02-16 19:39:23.683
51.0, 742.5309569025412, 1099.6801829710603, 953.4070858540945, 975.3827379937284, 0.09600000455975533, 0.0800000037997961, 0.944000044837594, 0.0, 0.0, 0.0, 0.0, 0.0, 1.64506196368429E9, 0.0, 2022-02-16 19:39:23.684
51.0, 766.4064782196656, 1095.0090479264036, 946.2863163384609, 928.3721955507062, 0.09600000455975533, 0.0800000037997961, 0.944000044837594, 0.0, 0.0, 0.0, 0.0, 0.0, 1.64506196368429E9, 0.0, 2022-02-16 19:39:23.684
52.0, 826.6525266058743, 1091.0821529729292, 935.7958969627507, 907.8775437935255, 0.09600000455975533, 0.0800000037997961, 0.944000044837594, 0.0, 0.0, 0.0, 0.0, 0.0, 1.645061963697882E9, 0.0, 2022-02-16 19:39:23.697
52.0, 847.6184057574719, 1093.965615838766, 948.5003371122293, 1010.6499945758842, 0.09600000455975533, 0.0800000037997961, 0.944000044837594, 0.0, 0.0, 0.0, 0.0, 0.0, 1.645061963697882E9, 0.0, 2022-02-16 19:39:23.697
53.0, 800.9033154109493, 1074.6752118673176, 945.8337884438224, 980.8766510286368, 0.09600000455975533, 0.0800000037997961, 0.944000044837594, 0.0, 0.0, 0.0, 0.0, 0.0, 1.6450619637136023E9, 0.0, 2022-02-16 19:39:23.713
53.0, 812.3960279747844, 1059.5435766465962, 934.9731189724989, 1026.6492865863256, 0.09600000455975533, 0.0800000037997961, 0.944000044837594, 0.0, 0.0, 0.0, 0.0, 0.0, 1.6450619637136023E9, 0.0, 2022-02-16 19:39:23.713
54.0, 782.2038156324998, 1064.1623530918732, 939.326362520922, 981.9462624159642, 0.09600000455975533, 0.0800000037997961, 0.944000044837594, 0.0, 0.0, 0.0, 0.0, 0.0, 1.6450619637143295E9, 0.0, 2022-02-16 19:39:23.714
54.0, 835.5983672998846, 1095.330679322593, 944.378967361059, 861.1923726466484, 0.09600000455975533, 0.0800000037997961, 0.944000044837594, 0.0, 0.0, 0.0, 0.0, 0.0, 1.6450619637143295E9, 0.0, 2022-02-16 19:39:23.714
55.0, 827.9914107900113, 1082.8992518698797, 947.9430920188315, 1032.169378920924, 0.09600000455975533, 0.0800000037997961, 0.944000044837594, 0.0, 0.0, 0.0, 0.0, 0.0, 1.6450619637278385E9, 0.0, 2022-02-16 19:39:23.727
55.0, 861.3737577944994, 1084.2306562541053, 948.9790443065576, 1059.642683995422, 0.09600000455975533, 0.0800000037997961, 0.944000044837594, 0.0, 0.0, 0.0, 0.0, 0.0, 1.6450619637278385E9, 0.0, 2022-02-16 19:39:23.727
56.0, 763.2425228571519, 1098.5582129843533, 961.4029919593595, 948.7845695088618, 0.09600000455975533, 0.0800000037997961, 0.944000044837594, 0.0, 0.0, 0.0, 0.0, 0.0, 1.6450619637435925E9, 0.0, 2022-02-16 19:39:23.743
56.0, 799.0483250329271, 1084.3615527525544, 947.2661701268516, 1006.4351273258217, 0.09600000455975533, 0.0800000037997961, 0.944000044837594, 0.0, 0.0, 0.0, 0.0, 0.0, 1.6450619637435925E9, 0.0, 2022-02-16 19:39:23.743
57.0, 811.954719780013, 1087.5217682151124, 942.7521108803339, 974.8666317998432, 0.09600000455975533, 0.0800000037997961, 0.944000044837594, 0.0, 0.0, 0.0, 0.0, 0.0, 1.6450619637443497E9, 0.0, 2022-02-16 19:39:23.744
57.0, 714.4704875349998, 1112.0742114242166, 951.8400677726604, 987.2195213534869, 0.09600000455975533, 0.0800000037997961, 0.944000044837594, 0.0, 0.0, 0.0, 0.0, 0.0, 1.6450619637443497E9, 0.0, 2022-02-16 19:39:23.744
58.0, 849.1405450394377, 1098.7227685824037, 944.1583132636733, 994.7554197642021, 0.09600000455975533, 0.0800000037997961, 0.944000044837594, 0.0, 0.0, 0.0, 0.0, 0.0, 1.6450619637579029E9, 0.0, 2022-02-16 19:39:23.757
58.0, 848.9834692412987, 1082.701037172228, 939.3824610202573, 1005.1598214409314, 0.09600000455975533, 0.0800000037997961, 0.944000044837594, 0.0, 0.0, 0.0, 0.0, 0.0, 1.6450619637579029E9, 0.0, 2022-02-16 19:39:23.757
59.0, 783.4005836183205, 1097.656897095032, 944.7753967563622, 952.8124417611398, 0.09600000455975533, 0.0800000037997961, 0.944000044837594, 0.0, 0.0, 0.0, 0.0, 0.0, 1.6450619637736268E9, 0.0, 2022-02-16 19:39:23.773
59.0, 810.2044466007501, 1101.9727416438982, 961.0215221638791, 1019.4724185713567, 0.09600000455975533, 0.0800000037997961, 0.944000044837594, 0.0, 0.0, 0.0, 0.0, 0.0, 1.6450619637736268E9, 0.0, 2022-02-16 19:39:23.773
60.0, 845.7821148792282, 1089.5263545913622, 956.6533190156333, 994.6245232657529, 0.09600000455975533, 0.0800000037997961, 0.9760000463575125, 0.0, 0.0, 0.0, 0.0, 0.0, 1.645061963774385E9, 0.0, 2022-02-16 19:39:23.774
60.0, 809.699560106732, 1092.4172972571105, 951.5333959762938, 1017.4753119950183, 0.09600000455975533, 0.0800000037997961, 0.9760000463575125, 0.0, 0.0, 0.0, 0.0, 0.0, 1.645061963774385E9, 0.0, 2022-02-16 19:39:23.774
61.0, 769.8359664790332, 1098.8349655810744, 960.3894790713675, 920.4323879447766, 0.09600000455975533, 0.06400000303983688, 0.9760000463575125, 0.0, 0.0, 0.0, 0.0, 0.0, 1.6450619637878678E9, 0.0, 2022-02-16 19:39:23.787
61.0, 841.3727728314698, 1095.944022915326, 950.1496329926886, 974.3168665063567, 0.09600000455975533, 0.06400000303983688, 0.9760000463575125, 0.0, 0.0, 0.0, 0.0, 0.0, 1.6450619637878678E9, 0.0, 2022-02-16 19:39:23.787
62.0, 842.0309952236712, 1097.4960813969374, 944.1844925633632, 956.8066549138166, 0.09600000455975533, 0.06400000303983688, 0.9760000463575125, 0.0, 0.0, 0.0, 0.0, 0.0, 1.645061963803666E9, 0.0, 2022-02-16 19:39:23.803
62.0, 809.9015147043392, 1101.7782668462023, 959.3797060833313, 1043.2020837902091, 0.09600000455975533, 0.06400000303983688, 0.9760000463575125, 0.0, 0.0, 0.0, 0.0, 0.0, 1.645061963803666E9, 0.0, 2022-02-16 19:39:23.803
63.0, 881.6552352542058, 1096.7256620060652, 950.6133805871941, 1016.2785440091975, 0.09600000455975533, 0.06400000303983688, 0.9760000463575125, 0.0, 0.0, 0.0, 0.0, 0.0, 1.6450619638043609E9, 0.0, 2022-02-16 19:39:23.804
63.0, 793.1243235031143, 1091.2616681708023, 950.5759815876372, 980.0164740388282, 0.09600000455975533, 0.06400000303983688, 0.9760000463575125, 0.0, 0.0, 0.0, 0.0, 0.0, 1.6450619638043609E9, 0.0, 2022-02-16 19:39:23.804
64.0, 781.9158433359116, 1098.18796288874, 959.3647464835085, 1006.334150027018, 0.09600000455975533, 0.06400000303983688, 0.9760000463575125, 0.0, 0.0, 0.0, 0.0, 0.0, 1.6450619638179169E9, 0.0, 2022-02-16 19:39:23.817
64.0, 801.281045306474, 1089.4964353917167, 958.538228593301, 977.6341577670537, 0.09600000455975533, 0.06400000303983688, 0.9760000463575125, 0.0, 0.0, 0.0, 0.0, 0.0, 1.6450619638179169E9, 0.0, 2022-02-16 19:39:23.817
65.0, 818.0731961075217, 1086.3960583284497, 951.1145271812566, 1087.0037920712493, 0.09600000455975533, 0.06400000303983688, 0.9760000463575125, 0.0, 0.0, 0.0, 0.0, 0.0, 1.6450619638336585E9, 0.0, 2022-02-16 19:39:23.833
65.0, 822.6059548538178, 1093.3298328462988, 952.640406363178, 1055.5100945443846, 0.09600000455975533, 0.06400000303983688, 0.9760000463575125, 0.0, 0.0, 0.0, 0.0, 0.0, 1.6450619638336585E9, 0.0, 2022-02-16 19:39:23.833
66.0, 765.72581642773, 1096.8827378042042, 960.8158276663162, 1004.8568895445205, 0.09600000455975533, 0.06400000303983688, 0.9760000463575125, 0.0, 0.0, 0.0, 0.0, 0.0, 1.6450619638343215E9, 0.0, 2022-02-16 19:39:23.834
66.0, 901.0017377249897, 1089.6497712899, 952.2364971679635, 1078.0803907769732, 0.09600000455975533, 0.06400000303983688, 0.9760000463575125, 0.0, 0.0, 0.0, 0.0, 0.0, 1.6450619638343215E9, 0.0, 2022-02-16 19:39:23.834
67.0, 847.0424611642957, 1082.2522491775453, 945.4971974478103, 1199.6009600372054, 0.09600000455975533, 0.06400000303983688, 0.9760000463575125, 0.0, 0.0, 0.0, 0.0, 0.0, 1.6450619638479767E9, 0.0, 2022-02-16 19:39:23.847
67.0, 848.4150044480339, 1090.2743345825002, 954.4430381418206, 1250.164407438133, 0.09600000455975533, 0.06400000303983688, 0.9760000463575125, 0.0, 0.0, 0.0, 0.0, 0.0, 1.6450619638479767E9, 0.0, 2022-02-16 19:39:23.847
68.0, 882.2685788469389, 1083.0376281682402, 942.2173051866703, 1335.5351037266664, 0.09600000455975533, 0.06400000303983688, 0.9760000463575125, 0.0, 0.0, 0.0, 0.0, 0.0, 1.6450619638636415E9, 0.0, 2022-02-16 19:39:23.863
68.0, 932.4916953518987, 1071.3878398062661, 927.3399831629358, 1397.374349493999, 0.09600000455975533, 0.06400000303983688, 0.9760000463575125, 0.0, 0.0, 0.0, 0.0, 0.0, 1.6450619638636415E9, 0.0, 2022-02-16 19:39:23.863
69.0, 930.5245079752058, 1070.942791711539, 938.264230933506, 1494.2003593468107, 0.09600000455975533, 0.06400000303983688, 0.9760000463575125, 0.0, 0.0, 0.0, 0.0, 0.0, 1.645061963864358E9, 0.0, 2022-02-16 19:39:23.864
69.0, 996.6683785915375, 1089.1261852961034, 941.8807141906582, 1410.8791282339953, 0.09600000455975533, 0.06400000303983688, 0.9760000463575125, 0.0, 0.0, 0.0, 0.0, 0.0, 1.645061963864358E9, 0.0, 2022-02-16 19:39:23.864
70.0, 968.3087172275409, 1083.0675473678857, 931.0350043191575, 1236.5399518995546, 0.09600000455975533, 0.06400000303983688, 0.9920000471174717, 0.0, 0.0, 0.0, 0.0, 0.0, 1.645061963894249E9, 0.0, 2022-02-16 19:39:23.894
70.0, 965.6197291593999, 1067.6404600506648, 936.8430689503439, 1077.8821760793217, 0.09600000455975533, 0.06400000303983688, 0.9920000471174717, 0.0, 0.0, 0.0, 0.0, 0.0, 1.645061963894249E9, 0.0, 2022-02-16 19:39:23.894
71.0, 930.5843463744968, 1079.6791980080307, 949.2670166031457, 1255.4283166257665, 0.09600000455975533, 0.0800000037997961, 0.9920000471174717, 0.0, 0.0, 0.0, 0.0, 0.0, 1.6450619638950024E9, 0.0, 2022-02-16 19:39:23.895
71.0, 949.2464471533895, 1073.0857543861493, 949.4614914008416, 1278.2304866556078, 0.09600000455975533, 0.0800000037997961, 0.9920000471174717, 0.0, 0.0, 0.0, 0.0, 0.0, 1.6450619638950024E9, 0.0, 2022-02-16 19:39:23.895
72.0, 914.0278092706576, 1085.3339267410338, 944.7080785571598, 1348.1815754268318, 0.09600000455975533, 0.0800000037997961, 0.9920000471174717, 0.0, 0.0, 0.0, 0.0, 0.0, 1.6450619638957732E9, 0.0, 2022-02-16 19:39:23.895
72.0, 802.2870783945546, 1083.4602368632331, 959.2301100851037, 1376.6160347899422, 0.09600000455975533, 0.0800000037997961, 0.9920000471174717, 0.0, 0.0, 0.0, 0.0, 0.0, 1.6450619638957732E9, 0.0, 2022-02-16 19:39:23.895
73.0, 773.7740811323747, 1087.0767201203853, 956.1970512210391, 1427.6993282847106, 0.09600000455975533, 0.0800000037997961, 0.9920000471174717, 0.0, 0.0, 0.0, 0.0, 0.0, 1.6450619639079876E9, 0.0, 2022-02-16 19:39:23.907
73.0, 779.8663781601936, 1075.8196212537587, 941.6937191928737, 1387.2635299637914, 0.09600000455975533, 0.0800000037997961, 0.9920000471174717, 0.0, 0.0, 0.0, 0.0, 0.0, 1.6450619639079876E9, 0.0, 2022-02-16 19:39:23.907
74.0, 795.1999679785222, 1082.4093249756843, 951.772749573458, 1393.310948192142, 0.09600000455975533, 0.0800000037997961, 0.9920000471174717, 0.0, 0.0, 0.0, 0.0, 0.0, 1.6450619639236827E9, 0.0, 2022-02-16 19:39:23.923
74.0, 843.7812684029341, 1093.6701637422666, 956.0698946225457, 1472.7464232509956, 0.09600000455975533, 0.0800000037997961, 0.9920000471174717, 0.0, 0.0, 0.0, 0.0, 0.0, 1.6450619639236827E9, 0.0, 2022-02-16 19:39:23.923
75.0, 808.0839233258739, 1064.7756966846064, 936.9216068494134, 1517.4943262208253, 0.09600000455975533, 0.0800000037997961, 0.9920000471174717, 0.0, 0.0, 0.0, 0.0, 0.0, 1.64506196392432E9, 0.0, 2022-02-16 19:39:23.924
75.0, 783.9578287117183, 1071.2980822073296, 942.8007295797579, 1559.4260845240206, 0.09600000455975533, 0.0800000037997961, 0.9920000471174717, 0.0, 0.0, 0.0, 0.0, 0.0, 1.64506196392432E9, 0.0, 2022-02-16 19:39:23.924
76.0, 792.0734116155654, 1066.8737805597484, 948.9528650068678, 1556.6622984567657, 0.09600000455975533, 0.0800000037997961, 0.9920000471174717, 0.0, 0.0, 0.0, 0.0, 0.0, 1.6450619639379444E9, 0.0, 2022-02-16 19:39:23.937
76.0, 798.2143273428082, 1056.0916489874944, 933.2901639924385, 1526.3578891158104, 0.09600000455975533, 0.0800000037997961, 0.9920000471174717, 0.0, 0.0, 0.0, 0.0, 0.0, 1.6450619639379444E9, 0.0, 2022-02-16 19:39:23.937
77.0, 799.0146659333259, 1072.7304638903588, 939.4273398197256, 1587.4566346919164, 0.09600000455975533, 0.0800000037997961, 0.9920000471174717, 0.0, 0.0, 0.0, 0.0, 0.0, 1.6450619639536698E9, 0.0, 2022-02-16 19:39:23.953
77.0, 828.1335269883275, 1077.4277782347053, 957.7977284020744, 1573.7274619545788, 0.09600000455975533, 0.0800000037997961, 0.9920000471174717, 0.0, 0.0, 0.0, 0.0, 0.0, 1.6450619639536698E9, 0.0, 2022-02-16 19:39:23.953
78.0, 844.8060009907931, 1080.8049078946933, 944.4388057603501, 1635.6751648206264, 0.09600000455975533, 0.0800000037997961, 0.9920000471174717, 0.0, 0.0, 0.0, 0.0, 0.0, 1.645061963954454E9, 0.0, 2022-02-16 19:39:23.954
78.0, 817.5346505139023, 1073.0109563870355, 941.4805448953994, 1572.9196435641497, 0.09600000455975533, 0.0800000037997961, 0.9920000471174717, 0.0, 0.0, 0.0, 0.0, 0.0, 1.645061963954454E9, 0.0, 2022-02-16 19:39:23.954
79.0, 800.1067167203873, 1070.1761122206226, 946.6042078346945, 1622.0843683816493, 0.09600000455975533, 0.0800000037997961, 0.9920000471174717, 0.0, 0.0, 0.0, 0.0, 0.0, 1.6450619639681396E9, 0.0, 2022-02-16 19:39:23.968
79.0, 760.8452469855547, 1069.7535035256296, 945.6542732459493, 1633.8762729419395, 0.09600000455975533, 0.0800000037997961, 0.9920000471174717, 0.0, 0.0, 0.0, 0.0, 0.0, 1.6450619639681396E9, 0.0, 2022-02-16 19:39:23.968
80.0, 783.5202604169026, 1064.0538959931582, 932.1607142058201, 1620.4163730014116, 0.09600000455975533, 0.0800000037997961, 1.008000047877431, 0.0, 0.0, 0.0, 0.0, 0.0, 1.6450619639836085E9, 0.0, 2022-02-16 19:39:23.983
80.0, 790.6859087320045, 1066.6344269625843, 935.5640231654979, 1561.8383199954405, 0.09600000455975533, 0.0800000037997961, 1.008000047877431, 0.0, 0.0, 0.0, 0.0, 0.0, 1.6450619639836085E9, 0.0, 2022-02-16 19:39:23.983
81.0, 812.1379748778418, 1074.970663963817, 944.801576056052, 1522.8723023571074, 0.09600000455975533, 0.0800000037997961, 1.008000047877431, 0.0, 0.0, 0.0, 0.0, 0.0, 1.6450619639843705E9, 0.0, 2022-02-16 19:39:23.984
81.0, 809.2395524121821, 1066.2940960666165, 935.1077553709038, 1606.7769578630105, 0.09600000455975533, 0.0800000037997961, 1.008000047877431, 0.0, 0.0, 0.0, 0.0, 0.0, 1.6450619639843705E9, 0.0, 2022-02-16 19:39:23.984
82.0, 827.1200141003355, 1055.2539113974199, 931.330456415657, 1567.4257305292413, 0.09600000455975533, 0.0800000037997961, 1.008000047877431, 0.0, 0.0, 0.0, 0.0, 0.0, 1.6450619639979372E9, 0.0, 2022-02-16 19:39:23.997
82.0, 769.1590445870534, 1063.4068933008239, 946.7687634327449, 1675.0301320543513, 0.09600000455975533, 0.0800000037997961, 1.008000047877431, 0.0, 0.0, 0.0, 0.0, 0.0, 1.6450619639979372E9, 0.0, 2022-02-16 19:39:23.997
83.0, 778.5910722753033, 1050.64635465201, 939.9023071140982, 1633.0048762522638, 0.09600000455975533, 0.0800000037997961, 1.008000047877431, 0.0, 0.0, 0.0, 0.0, 0.0, 1.6450619640135767E9, 0.0, 2022-02-16 19:39:24.013
83.0, 846.9826227650046, 1058.6235612574965, 934.3111566803418, 1581.3643376640975, 0.09600000455975533, 0.0800000037997961, 1.008000047877431, 0.0, 0.0, 0.0, 0.0, 0.0, 1.6450619640135767E9, 0.0, 2022-02-16 19:39:24.013
84.0, 838.5042695654556, 1066.324015266262, 934.1017222828232, 1588.0550186848268, 0.09600000455975533, 0.0800000037997961, 1.008000047877431, 0.0, 0.0, 0.0, 0.0, 0.0, 1.645061964014278E9, 0.0, 2022-02-16 19:39:24.014
84.0, 843.0669475113973, 1071.256943307817, 936.4466395550407, 1627.6979582151398, 0.09600000455975533, 0.0800000037997961, 1.008000047877431, 0.0, 0.0, 0.0, 0.0, 0.0, 1.645061964014278E9, 0.0, 2022-02-16 19:39:24.014
85.0, 795.274765977636, 1066.0323030697182, 931.3977746148594, 1617.9929178301245, 0.09600000455975533, 0.0800000037997961, 1.008000047877431, 0.0, 0.0, 0.0, 0.0, 0.0, 1.6450619640279255E9, 0.0, 2022-02-16 19:39:24.027
85.0, 807.564077232033, 1060.94603912998, 921.0494714374654, 1681.3617826793343, 0.09600000455975533, 0.0800000037997961, 1.008000047877431, 0.0, 0.0, 0.0, 0.0, 0.0, 1.6450619640279255E9, 0.0, 2022-02-16 19:39:24.027
86.0, 830.3400679621845, 1062.187685915269, 942.9503255779855, 1673.900682267733, 0.09600000455975533, 0.0800000037997961, 1.008000047877431, 0.0, 0.0, 0.0, 0.0, 0.0, 1.6450619640437515E9, 0.0, 2022-02-16 19:39:24.043
86.0, 805.3126574587077, 1038.1663084998727, 923.3420301103033, 1724.5838064672425, 0.09600000455975533, 0.0800000037997961, 1.008000047877431, 0.0, 0.0, 0.0, 0.0, 0.0, 1.6450619640437515E9, 0.0, 2022-02-16 19:39:24.043
87.0, 772.1285251518711, 1055.975712088868, 930.6647542235442, 1698.6176810748875, 0.09600000455975533, 0.0800000037997961, 1.008000047877431, 0.0, 0.0, 0.0, 0.0, 0.0, 1.645061964044311E9, 0.0, 2022-02-16 19:39:24.044
87.0, 770.2510953741148, 1078.8115412183106, 957.7827688022517, 1645.3203668063506, 0.09600000455975533, 0.0800000037997961, 1.008000047877431, 0.0, 0.0, 0.0, 0.0, 0.0, 1.645061964044311E9, 0.0, 2022-02-16 19:39:24.044
88.0, 846.2944811731577, 1074.6116335680708, 946.5668088351376, 1738.279320104979, 0.09600000455975533, 0.0800000037997961, 1.008000047877431, 0.0, 0.0, 0.0, 0.0, 0.0, 1.6450619640579271E9, 0.0, 2022-02-16 19:39:24.057
88.0, 877.9115953985602, 1066.4848309643567, 934.3896945794113, 1736.3457918278873, 0.09600000455975533, 0.0800000037997961, 1.008000047877431, 0.0, 0.0, 0.0, 0.0, 0.0, 1.6450619640579271E9, 0.0, 2022-02-16 19:39:24.057
89.0, 780.947209247388, 1060.2915566377342, 925.60092968354, 1685.1129023348913, 0.09600000455975533, 0.0800000037997961, 1.008000047877431, 0.0, 0.0, 0.0, 0.0, 0.0, 1.6450619640735996E9, 0.0, 2022-02-16 19:39:24.073
89.0, 816.6931730238721, 1077.15476553794, 932.7441385989077, 1658.522213649936, 0.09600000455975533, 0.0800000037997961, 1.008000047877431, 0.0, 0.0, 0.0, 0.0, 0.0, 1.6450619640735996E9, 0.0, 2022-02-16 19:39:24.073
90.0, 847.7605219557881, 1072.715504290536, 951.6044540754519, 1730.3956109983847, 0.09600000455975533, 0.0800000037997961, 1.008000047877431, 0.0, 0.0, 0.0, 0.0, 0.0, 1.6450619640743155E9, 0.0, 2022-02-16 19:39:24.074
90.0, 865.4876477457583, 1072.6145269917324, 956.5299023170955, 1726.1358649488539, 0.09600000455975533, 0.0800000037997961, 1.008000047877431, 0.0, 0.0, 0.0, 0.0, 0.0, 1.6450619640743155E9, 0.0, 2022-02-16 19:39:24.074
91.0, 822.4900179551914, 1079.6829379079863, 966.631372097414, 1759.1255224579945, 0.09600000455975533, 0.06400000303983688, 1.008000047877431, 0.0, 0.0, 0.0, 0.0, 0.0, 1.6450619640878692E9, 0.0, 2022-02-16 19:39:24.087
91.0, 872.137189866975, 1067.7489171493798, 959.5367818814702, 1728.0581735260785, 0.09600000455975533, 0.06400000303983688, 1.008000047877431, 0.0, 0.0, 0.0, 0.0, 0.0, 1.6450619640878692E9, 0.0, 2022-02-16 19:39:24.087
92.0, 933.0377207454294, 1056.5479167820886, 952.9620377593674, 1749.5251992717385, 0.09600000455975533, 0.06400000303983688, 1.008000047877431, 0.0, 0.0, 0.0, 0.0, 0.0, 1.6450619641195052E9, 0.0, 2022-02-16 19:39:24.119
92.0, 760.4862165898085, 1077.0650079390034, 982.1220377138816, 1694.0063844295219, 0.09600000455975533, 0.06400000303983688, 1.008000047877431, 0.0, 0.0, 0.0, 0.0, 0.0, 1.6450619641195052E9, 0.0, 2022-02-16 19:39:24.119
93.0, 819.961845585145, 1059.8390287430957, 966.691210496705, 1712.8592201061547, 0.09600000455975533, 0.06400000303983688, 1.008000047877431, 0.0, 0.0, 0.0, 0.0, 0.0, 1.6450619641201668E9, 0.0, 2022-02-16 19:39:24.120
93.0, 855.0682864692062, 1033.218420858495, 946.525669935625, 1753.7662458214909, 0.09600000455975533, 0.06400000303983688, 1.008000047877431, 0.0, 0.0, 0.0, 0.0, 0.0, 1.6450619641201668E9, 0.0, 2022-02-16 19:39:24.120
94.0, 739.3221227405593, 1032.6649156650528, 946.8360816319473, 1817.7073153639212, 0.09600000455975533, 0.06400000303983688, 1.008000047877431, 0.0, 0.0, 0.0, 0.0, 0.0, 1.6450619641208556E9, 0.0, 2022-02-16 19:39:24.120
94.0, 803.5810837792233, 1044.797151121311, 950.9237922835164, 1781.1123942974955, 0.09600000455975533, 0.06400000303983688, 1.008000047877431, 0.0, 0.0, 0.0, 0.0, 0.0, 1.6450619641208556E9, 0.0, 2022-02-16 19:39:24.120
95.0, 872.4027227638289, 1047.7778513859957, 948.118867316749, 1691.5006514592096, 0.09600000455975533, 0.06400000303983688, 1.008000047877431, 0.0, 0.0, 0.0, 0.0, 0.0, 1.6450619641336613E9, 0.0, 2022-02-16 19:39:24.133
95.0, 771.8068937556818, 1050.9754658481106, 945.452318648342, 1649.2996203592047, 0.09600000455975533, 0.06400000303983688, 1.008000047877431, 0.0, 0.0, 0.0, 0.0, 0.0, 1.6450619641336613E9, 0.0, 2022-02-16 19:39:24.133
96.0, 790.1324035385624, 1048.8138036737218, 952.9769973591901, 1678.3324637152255, 0.09600000455975533, 0.06400000303983688, 1.008000047877431, 0.0, 0.0, 0.0, 0.0, 0.0, 1.645061964134588E9, 0.0, 2022-02-16 19:39:24.134
96.0, 802.5937501909211, 1039.5687709832564, 942.5389365828596, 1687.0127715123817, 0.09600000455975533, 0.06400000303983688, 1.008000047877431, 0.0, 0.0, 0.0, 0.0, 0.0, 1.645061964134588E9, 0.0, 2022-02-16 19:39:24.134
97.0, 826.9666782021523, 1026.5015605380759, 944.2667703623883, 1671.2490931991488, 0.09600000455975533, 0.06400000303983688, 1.008000047877431, 0.0, 0.0, 0.0, 0.0, 0.0, 1.6450619641479557E9, 0.0, 2022-02-16 19:39:24.147
97.0, 819.8272091867402, 1051.2858775444329, 955.2658161320724, 1561.9579967940226, 0.09600000455975533, 0.06400000303983688, 1.008000047877431, 0.0, 0.0, 0.0, 0.0, 0.0, 1.6450619641479557E9, 0.0, 2022-02-16 19:39:24.147
98.0, 792.5035001104698, 1055.5493634939194, 941.3421685970388, 1561.0417213048786, 0.09600000455975533, 0.06400000303983688, 1.008000047877431, 0.0, 0.0, 0.0, 0.0, 0.0, 1.64506196416386E9, 0.0, 2022-02-16 19:39:24.163
98.0, 922.3490866720676, 1043.5480245361105, 948.5078169121407, 1568.0652534216642, 0.09600000455975533, 0.06400000303983688, 1.008000047877431, 0.0, 0.0, 0.0, 0.0, 0.0, 1.64506196416386E9, 0.0, 2022-02-16 19:39:24.163
99.0, 829.7229844694957, 1044.348363126628, 953.0368357584812, 1562.9864692818373, 0.09600000455975533, 0.06400000303983688, 1.008000047877431, 0.0, 0.0, 0.0, 0.0, 0.0, 1.645061964164374E9, 0.0, 2022-02-16 19:39:24.164
99.0, 695.4044775608927, 1064.2633303906769, 969.3988980646245, 1508.6382431257516, 0.09600000455975533, 0.06400000303983688, 1.008000047877431, 0.0, 0.0, 0.0, 0.0, 0.0, 1.645061964164374E9, 0.0, 2022-02-16 19:39:24.164
100.0, 806.6926805423573, 1060.9273396302015, 962.5735806454904, 1522.647908359766, 0.09600000455975533, 0.06400000303983688, 1.008000047877431, 0.0, 0.0, 0.0, 0.0, 0.0, 1.6450619641786225E9, 0.0, 2022-02-16 19:39:24.178
100.0, 798.8650699350983, 1055.1529340986162, 963.9835229287855, 1561.905638194643, 0.09600000455975533, 0.06400000303983688, 1.008000047877431, 0.0, 0.0, 0.0, 0.0, 0.0, 1.6450619641786225E9, 0.0, 2022-02-16 19:39:24.178
0.0, 743.0508029963821, 1074.1834150231443, 973.4866087161936, 1138.7415680582635, 0.09600000455975533, 0.06400000303983688, 1.008000047877431, 0.0, 0.0, 0.0, 0.0, 0.0, 1.6450619641793704E9, 0.0, 2022-02-16 19:39:24.179
1.0, 834.9738040072843, 1054.1338113606907, 959.334827283863, 1108.7213911139406, 0.09600000455975533, 0.06400000303983688, 1.008000047877431, 0.0, 0.0, 0.0, 0.0, 0.0, 1.645061964192972E9, 0.0, 2022-02-16 19:39:24.192
1.0, 791.4264089232311, 1046.8260468472727, 955.9389981240965, 1027.1466932804324, 0.09600000455975533, 0.06400000303983688, 1.008000047877431, 0.0, 0.0, 0.0, 0.0, 0.0, 1.645061964192972E9, 0.0, 2022-02-16 19:39:24.192
2.0, 719.2014609789476, 1074.441468120087, 973.0976591208018, 988.4050696394406, 0.09600000455975533, 0.06400000303983688, 1.008000047877431, 0.0, 0.0, 0.0, 0.0, 0.0, 1.6450619642246313E9, 0.0, 2022-02-16 19:39:24.224
2.0, 795.9629075694829, 1075.537258807104, 969.7579284603707, 1036.5188825693913, 0.09600000455975533, 0.06400000303983688, 1.008000047877431, 0.0, 0.0, 0.0, 0.0, 0.0, 1.6450619642246313E9, 0.0, 2022-02-16 19:39:24.224
3.0, 841.6981441276148, 1053.8458390641026, 965.8459931067191, 992.5301792905666, 0.09600000455975533, 0.06400000303983688, 1.008000047877431, 0.0, 0.0, 0.0, 0.0, 0.0, 1.6450619642253273E9, 0.0, 2022-02-16 19:39:24.225
3.0, 815.283230740577, 1073.4354350320064, 981.3740577227436, 1008.5631304006092, 0.09600000455975533, 0.06400000303983688, 1.008000047877431, 0.0, 0.0, 0.0, 0.0, 0.0, 1.6450619642253273E9, 0.0, 2022-02-16 19:39:24.225
4.0, 823.1332807475701, 1069.8301714747213, 981.4151966222562, 1099.7119721206836, 0.09600000455975533, 0.06400000303983688, 1.008000047877431, 0.0, 0.0, 0.0, 0.0, 0.0, 1.6450619642393572E9, 0.0, 2022-02-16 19:39:24.239
4.0, 832.5316493362188, 1063.5172203495167, 970.3750119530596, 1101.7988362959586, 0.09600000455975533, 0.06400000303983688, 1.008000047877431, 0.0, 0.0, 0.0, 0.0, 0.0, 1.6450619642393572E9, 0.0, 2022-02-16 19:39:24.239
5.0, 751.8994062915444, 1067.892903297674, 968.7070165728219, 1076.0645847008564, 0.09600000455975533, 0.06400000303983688, 1.008000047877431, 0.0, 0.0, 0.0, 0.0, 0.0, 1.6450619642400537E9, 0.0, 2022-02-16 19:39:24.240
5.0, 762.9470707606524, 1074.8902561147697, 967.6261854856275, 1034.5292557929642, 0.09600000455975533, 0.06400000303983688, 1.008000047877431, 0.0, 0.0, 0.0, 0.0, 0.0, 1.6450619642400537E9, 0.0, 2022-02-16 19:39:24.240
6.0, 819.950625885278, 1068.1621760944836, 962.6895175441168, 1052.1815835838206, 0.09600000455975533, 0.06400000303983688, 1.008000047877431, 0.0, 0.0, 0.0, 0.0, 0.0, 1.6450619642408695E9, 0.0, 2022-02-16 19:39:24.240
6.0, 796.2920187655836, 1072.582737842109, 976.5121877803467, 1099.4015604243614, 0.09600000455975533, 0.06400000303983688, 1.008000047877431, 0.0, 0.0, 0.0, 0.0, 0.0, 1.6450619642408695E9, 0.0, 2022-02-16 19:39:24.240
7.0, 802.9266012869775, 1087.4226608662866, 978.4718953571282, 1090.2575050326996, 0.09600000455975533, 0.06400000303983688, 1.008000047877431, 0.0, 0.0, 0.0, 0.0, 0.0, 1.6450619642531047E9, 0.0, 2022-02-16 19:39:24.253
7.0, 847.4014915600419, 1070.9932803609408, 965.449563711416, 1179.3157426775433, 0.09600000455975533, 0.06400000303983688, 1.008000047877431, 0.0, 0.0, 0.0, 0.0, 0.0, 1.6450619642531047E9, 0.0, 2022-02-16 19:39:24.253
8.0, 893.2489251168445, 1064.732687835116, 961.7956814547069, 1134.3509255102836, 0.09600000455975533, 0.06400000303983688, 1.008000047877431, 0.0, 0.0, 0.0, 0.0, 0.0, 1.6450619642686129E9, 0.0, 2022-02-16 19:39:24.268
8.0, 705.2366745444015, 1072.511679742951, 979.9229765399359, 981.0748657262884, 0.09600000455975533, 0.06400000303983688, 1.008000047877431, 0.0, 0.0, 0.0, 0.0, 0.0, 1.6450619642686129E9, 0.0, 2022-02-16 19:39:24.268
9.0, 788.3260318599641, 1077.190294587519, 969.7130496609025, 1077.5194057836197, 0.09600000455975533, 0.06400000303983688, 1.008000047877431, 0.0, 0.0, 0.0, 0.0, 0.0, 1.6450619642693243E9, 0.0, 2022-02-16 19:39:24.269
9.0, 836.1518724933267, 1072.6276166415773, 966.7173897963949, 1099.9101868183352, 0.09600000455975533, 0.06400000303983688, 1.008000047877431, 0.0, 0.0, 0.0, 0.0, 0.0, 1.6450619642693243E9, 0.0, 2022-02-16 19:39:24.269
10.0, 842.5957201169804, 1081.689394234214, 971.515681439545, 983.1392905018292, 0.09600000455975533, 0.06400000303983688, 1.008000047877431, 0.0, 0.0, 0.0, 0.0, 0.0, 1.6450619642829075E9, 0.0, 2022-02-16 19:39:24.282
10.0, 754.1994447642937, 1071.3111718571745, 972.5591135271825, 1110.8531340886839, 0.09600000455975533, 0.06400000303983688, 1.008000047877431, 0.0, 0.0, 0.0, 0.0, 0.0, 1.6450619642829075E9, 0.0, 2022-02-16 19:39:24.282
11.0, 798.5733577385545, 1061.3368586753495, 954.6562124392949, 1114.3574203471653, 0.09600000455975533, 0.0800000037997961, 1.008000047877431, 0.0, 0.0, 0.0, 0.0, 0.0, 1.6450619642986572E9, 0.0, 2022-02-16 19:39:24.298
11.0, 775.3186598140746, 1072.7061545406468, 961.3917722594924, 1075.694334605243, 0.09600000455975533, 0.0800000037997961, 1.008000047877431, 0.0, 0.0, 0.0, 0.0, 0.0, 1.6450619642986572E9, 0.0, 2022-02-16 19:39:24.298
12.0, 808.9702796153724, 1083.136735517066, 974.3654852057807, 1113.721637354698, 0.09600000455975533, 0.0800000037997961, 1.008000047877431, 0.0, 0.0, 0.0, 0.0, 0.0, 1.6450619642993798E9, 0.0, 2022-02-16 19:39:24.299
12.0, 806.3560895463452, 1069.1382899829186, 962.1247926508076, 1136.190956288483, 0.09600000455975533, 0.0800000037997961, 1.008000047877431, 0.0, 0.0, 0.0, 0.0, 0.0, 1.6450619642993798E9, 0.0, 2022-02-16 19:39:24.299
13.0, 867.3688174234703, 1045.6479783612303, 949.2109181038104, 1155.354203661438, 0.09600000455975533, 0.0800000037997961, 1.008000047877431, 0.0, 0.0, 0.0, 0.0, 0.0, 1.645061964312996E9, 0.0, 2022-02-16 19:39:24.312
13.0, 775.6702104099095, 1064.6653696359135, 955.8380208252929, 1191.6985514308326, 0.09600000455975533, 0.0800000037997961, 1.008000047877431, 0.0, 0.0, 0.0, 0.0, 0.0, 1.645061964312996E9, 0.0, 2022-02-16 19:39:24.312
14.0, 731.389794934541, 1078.1215296764858, 959.1403524861671, 1051.1381514961831, 0.09600000455975533, 0.0800000037997961, 1.008000047877431, 0.0, 0.0, 0.0, 0.0, 0.0, 1.6450619643286388E9, 0.0, 2022-02-16 19:39:24.328
14.0, 812.5344042731449, 1075.6494558057748, 953.968070847448, 1090.8409294257872, 0.09600000455975533, 0.0800000037997961, 1.008000047877431, 0.0, 0.0, 0.0, 0.0, 0.0, 1.6450619643286388E9, 0.0, 2022-02-16 19:39:24.328
15.0, 862.0020609870553, 1068.6558428886347, 963.2168434378691, 1084.6962737985887, 0.09600000455975533, 0.0800000037997961, 1.008000047877431, 0.0, 0.0, 0.0, 0.0, 0.0, 1.6450619643293557E9, 0.0, 2022-02-16 19:39:24.329
15.0, 775.5654932111502, 1069.351464280393, 971.7587749366648, 1139.9570355438627, 0.09600000455975533, 0.0800000037997961, 1.008000047877431, 0.0, 0.0, 0.0, 0.0, 0.0, 1.6450619643293557E9, 0.0, 2022-02-16 19:39:24.329
16.0, 887.3698023864999, 1066.153849818278, 950.1010142932646, 1080.9002753435634, 0.09600000455975533, 0.0800000037997961, 1.008000047877431, 0.0, 0.0, 0.0, 0.0, 0.0, 1.6450619643429446E9, 0.0, 2022-02-16 19:39:24.342
16.0, 826.3084558099508, 1067.62737040082, 956.2942886198871, 1085.029124894645, 0.09600000455975533, 0.0800000037997961, 1.008000047877431, 0.0, 0.0, 0.0, 0.0, 0.0, 1.6450619643429446E9, 0.0, 2022-02-16 19:39:24.342
17.0, 773.3888714369386, 1076.636789394077, 963.7740885312669, 1095.5644230698235, 0.09600000455975533, 0.0800000037997961, 1.008000047877431, 0.0, 0.0, 0.0, 0.0, 0.0, 1.6450619643586662E9, 0.0, 2022-02-16 19:39:24.358
17.0, 848.3102872492746, 1078.0317720775492, 955.9315183241852, 1081.569717435632, 0.09600000455975533, 0.0800000037997961, 1.008000047877431, 0.0, 0.0, 0.0, 0.0, 0.0, 1.6450619643586662E9, 0.0, 2022-02-16 19:39:24.358
18.0, 780.0571130579337, 1060.039113390725, 949.1847388041206, 1146.2438073693775, 0.09600000455975533, 0.0800000037997961, 1.008000047877431, 0.0, 0.0, 0.0, 0.0, 0.0, 1.6450619643593705E9, 0.0, 2022-02-16 19:39:24.359
18.0, 785.9624150879681, 1068.3678705920465, 957.2891020081006, 1200.255442529451, 0.09600000455975533, 0.0800000037997961, 1.008000047877431, 0.0, 0.0, 0.0, 0.0, 0.0, 1.6450619643593705E9, 0.0, 2022-02-16 19:39:24.359
19.0, 810.8626689929515, 1069.2729263813235, 949.8616606961004, 1076.4834534958936, 0.09600000455975533, 0.0800000037997961, 1.008000047877431, 0.0, 0.0, 0.0, 0.0, 0.0, 1.6450619643729146E9, 0.0, 2022-02-16 19:39:24.372
19.0, 811.0721033904701, 1052.1030456847511, 942.7969896798022, 1110.707277990412, 0.09600000455975533, 0.0800000037997961, 1.008000047877431, 0.0, 0.0, 0.0, 0.0, 0.0, 1.6450619643729146E9, 0.0, 2022-02-16 19:39:24.372
20.0, 810.2568052001297, 1055.8728648400865, 951.9373051715083, 1156.053564953152, 0.09600000455975533, 0.0800000037997961, 1.0240000486373901, 0.0, 0.0, 0.0, 0.0, 0.0, 1.645061964388636E9, 0.0, 2022-02-16 19:39:24.388
20.0, 808.7982442174107, 1075.1819683113135, 956.0324956229888, 1139.1753964531235, 0.09600000455975533, 0.0800000037997961, 1.0240000486373901, 0.0, 0.0, 0.0, 0.0, 0.0, 1.645061964388636E9, 0.0, 2022-02-16 19:39:24.388
21.0, 827.2284711990505, 1072.414442344103, 935.418167067226, 1111.0737881860696, 0.09600000455975533, 0.0800000037997961, 1.0240000486373901, 0.0, 0.0, 0.0, 0.0, 0.0, 1.645061964389346E9, 0.0, 2022-02-16 19:39:24.389
21.0, 851.1900102151558, 1048.5912796263583, 943.1298407758586, 1105.194665455725, 0.09600000455975533, 0.0800000037997961, 1.0240000486373901, 0.0, 0.0, 0.0, 0.0, 0.0, 1.645061964389346E9, 0.0, 2022-02-16 19:39:24.389
22.0, 787.712688267231, 1055.1697636484168, 943.6272474699654, 1150.0398058244027, 0.09600000455975533, 0.0800000037997961, 1.0240000486373901, 0.0, 0.0, 0.0, 0.0, 0.0, 1.6450619644028995E9, 0.0, 2022-02-16 19:39:24.402
22.0, 833.0327959302813, 1069.1906485822983, 944.5921416585334, 1168.8328031017445, 0.09600000455975533, 0.0800000037997961, 1.0240000486373901, 0.0, 0.0, 0.0, 0.0, 0.0, 1.6450619644028995E9, 0.0, 2022-02-16 19:39:24.402
23.0, 808.7047467185184, 1046.7699483479373, 931.7194060110487, 1124.9039382222109, 0.09600000455975533, 0.0800000037997961, 1.0240000486373901, 0.0, 0.0, 0.0, 0.0, 0.0, 1.6450619644189696E9, 0.0, 2022-02-16 19:39:24.418
23.0, 847.8839386543259, 1047.5141884391196, 932.2429920048453, 1132.9447231269442, 0.09600000455975533, 0.0800000037997961, 1.0240000486373901, 0.0, 0.0, 0.0, 0.0, 0.0, 1.6450619644189696E9, 0.0, 2022-02-16 19:39:24.418
24.0, 731.2775979358703, 1048.5725801265799, 947.2886095265858, 1125.203130218666, 0.09600000455975533, 0.0800000037997961, 1.0240000486373901, 0.0, 0.0, 0.0, 0.0, 0.0, 1.6450619644193082E9, 0.0, 2022-02-16 19:39:24.419
24.0, 818.9670321969315, 1056.9013373279013, 928.0917030540295, 1173.2608446492814, 0.09600000455975533, 0.0800000037997961, 1.0240000486373901, 0.0, 0.0, 0.0, 0.0, 0.0, 1.6450619644193082E9, 0.0, 2022-02-16 19:39:24.419
25.0, 780.9509491473436, 1052.0058082859032, 941.2935498976149, 1119.8438535821624, 0.09600000455975533, 0.0800000037997961, 1.0240000486373901, 0.0, 0.0, 0.0, 0.0, 0.0, 1.645061964449372E9, 0.0, 2022-02-16 19:39:24.449
25.0, 733.6000758083537, 1059.2612141999416, 949.3717338019051, 1103.4443922764622, 0.09600000455975533, 0.0800000037997961, 1.0240000486373901, 0.0, 0.0, 0.0, 0.0, 0.0, 1.645061964449372E9, 0.0, 2022-02-16 19:39:24.449
26.0, 805.1144427610561, 1055.9775820388459, 943.0213836771436, 1260.643607113976, 0.09600000455975533, 0.0800000037997961, 1.0240000486373901, 0.0, 0.0, 0.0, 0.0, 0.0, 1.645061964450039E9, 0.0, 2022-02-16 19:39:24.450
26.0, 841.7392830271274, 1058.6104716076516, 947.8346349201165, 1088.5109717533924, 0.09600000455975533, 0.0800000037997961, 1.0240000486373901, 0.0, 0.0, 0.0, 0.0, 0.0, 1.645061964450039E9, 0.0, 2022-02-16 19:39:24.450
27.0, 815.4739656383172, 1073.379336532671, 948.8593675079755, 1158.5181590239517, 0.09600000455975533, 0.0800000037997961, 1.0240000486373901, 0.0, 0.0, 0.0, 0.0, 0.0, 1.6450619644507363E9, 0.0, 2022-02-16 19:39:24.450
27.0, 795.3383442768827, 1064.489594337996, 946.7500639329664, 1141.172503029462, 0.09600000455975533, 0.0800000037997961, 1.0240000486373901, 0.0, 0.0, 0.0, 0.0, 0.0, 1.6450619644507363E9, 0.0, 2022-02-16 19:39:24.450
28.0, 862.2002756847069, 1046.508155351039, 939.7190520162694, 1158.8697096197866, 0.09600000455975533, 0.0800000037997961, 1.0240000486373901, 0.0, 0.0, 0.0, 0.0, 0.0, 1.6450619644628963E9, 0.0, 2022-02-16 19:39:24.462
28.0, 785.9025766886771, 1052.5967124789022, 947.2811297266744, 1118.0300021036528, 0.09600000455975533, 0.0800000037997961, 1.0240000486373901, 0.0, 0.0, 0.0, 0.0, 0.0, 1.6450619644628963E9, 0.0, 2022-02-16 19:39:24.462
29.0, 813.8620687574148, 1053.1352580725215, 946.3760739373975, 1163.6867007627152, 0.09600000455975533, 0.0800000037997961, 1.0240000486373901, 0.0, 0.0, 0.0, 0.0, 0.0, 1.6450619644786215E9, 0.0, 2022-02-16 19:39:24.478
29.0, 864.9902410516515, 1047.5067086392082, 932.2055930052884, 1148.3493710444309, 0.09600000455975533, 0.0800000037997961, 1.0240000486373901, 0.0, 0.0, 0.0, 0.0, 0.0, 1.6450619644786215E9, 0.0, 2022-02-16 19:39:24.478
30.0, 723.236813031137, 1047.6226455378346, 935.1975129698403, 1198.0563813555054, 0.09600000455975533, 0.0800000037997961, 1.008000047877431, 0.0, 0.0, 0.0, 0.0, 0.0, 1.6450619644796903E9, 0.0, 2022-02-16 19:39:24.479
30.0, 876.0715646203607, 1051.224169195164, 955.9614375238307, 1209.362098921556, 0.09600000455975533, 0.0800000037997961, 1.008000047877431, 0.0, 0.0, 0.0, 0.0, 0.0, 1.6450619644796903E9, 0.0, 2022-02-16 19:39:24.479
31.0, 831.1778055522591, 1040.2550426251255, 933.70529288752, 1168.743045502808, 0.09600000455975533, 0.0800000037997961, 1.008000047877431, 0.0, 0.0, 0.0, 0.0, 0.0, 1.645061964492937E9, 0.0, 2022-02-16 19:39:24.492
31.0, 854.986008670181, 1049.040067621041, 931.2107796170749, 1175.3177896249108, 0.09600000455975533, 0.0800000037997961, 1.008000047877431, 0.0, 0.0, 0.0, 0.0, 0.0, 1.645061964492937E9, 0.0, 2022-02-16 19:39:24.492
32.0, 699.5782059114426, 1066.9055697093718, 945.4635383482091, 1208.5131416316144, 0.09600000455975533, 0.0800000037997961, 1.008000047877431, 0.0, 0.0, 0.0, 0.0, 0.0, 1.645061964508646E9, 0.0, 2022-02-16 19:39:24.508
32.0, 790.3193985363469, 1050.969855998177, 946.3648542375304, 1246.039297787007, 0.09600000455975533, 0.0800000037997961, 1.008000047877431, 0.0, 0.0, 0.0, 0.0, 0.0, 1.645061964508646E9, 0.0, 2022-02-16 19:39:24.508
33.0, 915.1235999576747, 1046.0518875564449, 935.3919877675362, 1192.1922182249837, 0.09600000455975533, 0.0800000037997961, 1.008000047877431, 0.0, 0.0, 0.0, 0.0, 0.0, 1.645061964509346E9, 0.0, 2022-02-16 19:39:24.509
33.0, 787.7388675669208, 1051.960929486435, 944.4836845598184, 1141.6362506239675, 0.09600000455975533, 0.0800000037997961, 1.008000047877431, 0.0, 0.0, 0.0, 0.0, 0.0, 1.645061964509346E9, 0.0, 2022-02-16 19:39:24.509
34.0, 774.4173439247534, 1046.5717336502858, 947.2325110272504, 1133.8946577156894, 0.09600000455975533, 0.0800000037997961, 1.008000047877431, 0.0, 0.0, 0.0, 0.0, 0.0, 1.6450619645232227E9, 0.0, 2022-02-16 19:39:24.523
34.0, 792.1893485141918, 1026.754003785085, 933.2976437923498, 1194.6755117955618, 0.09600000455975533, 0.0800000037997961, 1.008000047877431, 0.0, 0.0, 0.0, 0.0, 0.0, 1.6450619645232227E9, 0.0, 2022-02-16 19:39:24.523
35.0, 764.7871015388519, 1046.7437690482475, 928.604069347959, 1150.5708716181107, 0.09600000455975533, 0.0800000037997961, 1.008000047877431, 0.0, 0.0, 0.0, 0.0, 0.0, 1.645061964538591E9, 0.0, 2022-02-16 19:39:24.538
35.0, 794.7623996837065, 1053.5803061672486, 936.9889250486158, 1189.8136418531649, 0.09600000455975533, 0.0800000037997961, 1.008000047877431, 0.0, 0.0, 0.0, 0.0, 0.0, 1.645061964538591E9, 0.0, 2022-02-16 19:39:24.538
36.0, 878.5062394915149, 1056.385231134016, 928.4731728495099, 1185.3818604056723, 0.09600000455975533, 0.0800000037997961, 1.008000047877431, 0.0, 0.0, 0.0, 0.0, 0.0, 1.6450619645393057E9, 0.0, 2022-02-16 19:39:24.539
36.0, 795.3981826761737, 1056.119698237162, 937.6957661402412, 1218.0424067187123, 0.09600000455975533, 0.0800000037997961, 1.008000047877431, 0.0, 0.0, 0.0, 0.0, 0.0, 1.6450619645393057E9, 0.0, 2022-02-16 19:39:24.539
37.0, 742.0335502084345, 1068.7343807877041, 946.140460240189, 1220.024553695228, 0.09600000455975533, 0.0800000037997961, 1.008000047877431, 0.0, 0.0, 0.0, 0.0, 0.0, 1.6450619645529983E9, 0.0, 2022-02-16 19:39:24.552
37.0, 810.1857471009716, 1061.5462930728681, 950.228170891758, 1194.697951195296, 0.09600000455975533, 0.0800000037997961, 1.008000047877431, 0.0, 0.0, 0.0, 0.0, 0.0, 1.6450619645529983E9, 0.0, 2022-02-16 19:39:24.552
38.0, 864.2908797599375, 1048.8568125232123, 929.2809912399389, 1193.9312717043795, 0.09600000455975533, 0.0800000037997961, 1.008000047877431, 0.0, 0.0, 0.0, 0.0, 0.0, 1.6450619645689905E9, 0.0, 2022-02-16 19:39:24.568
38.0, 796.2695793658495, 1052.0656466851942, 933.7239923872985, 1225.3987899315543, 0.09600000455975533, 0.0800000037997961, 1.008000047877431, 0.0, 0.0, 0.0, 0.0, 0.0, 1.6450619645689905E9, 0.0, 2022-02-16 19:39:24.568
39.0, 808.0427844263613, 1051.983368886169, 946.9108796310611, 1242.142322033178, 0.09600000455975533, 0.0800000037997961, 1.008000047877431, 0.0, 0.0, 0.0, 0.0, 0.0, 1.645061964569339E9, 0.0, 2022-02-16 19:39:24.569
39.0, 896.7120724758133, 1042.1698714024387, 925.6084094834514, 1262.9623450865038, 0.09600000455975533, 0.0800000037997961, 1.008000047877431, 0.0, 0.0, 0.0, 0.0, 0.0, 1.645061964569339E9, 0.0, 2022-02-16 19:39:24.569
40.0, 803.3978286813945, 1034.798528589774, 922.3846157216467, 1268.1533262250014, 0.09600000455975533, 0.0800000037997961, 1.008000047877431, 0.0, 0.0, 0.0, 0.0, 0.0, 1.645061964583318E9, 0.0, 2022-02-16 19:39:24.583
40.0, 806.442107245326, 1064.5494327372871, 934.501891578082, 1185.8269085003994, 0.09600000455975533, 0.0800000037997961, 1.008000047877431, 0.0, 0.0, 0.0, 0.0, 0.0, 1.645061964583318E9, 0.0, 2022-02-16 19:39:24.583
41.0, 834.3903796141967, 1062.2157351649366, 934.7038461756893, 1172.651240956504, 0.09600000455975533, 0.0800000037997961, 1.008000047877431, 0.0, 0.0, 0.0, 0.0, 0.0, 1.6450619646155572E9, 0.0, 2022-02-16 19:39:24.615
41.0, 743.7950430875644, 1050.838959499728, 932.2841309043579, 1283.2400826462545, 0.09600000455975533, 0.0800000037997961, 1.008000047877431, 0.0, 0.0, 0.0, 0.0, 0.0, 1.6450619646155572E9, 0.0, 2022-02-16 19:39:24.615
42.0, 831.6752122463658, 1048.3519260291941, 944.0124571654014, 1232.0333724529482, 0.09600000455975533, 0.0800000037997961, 1.008000047877431, 0.0, 0.0, 0.0, 0.0, 0.0, 1.6450619646165705E9, 0.0, 2022-02-16 19:39:24.616
42.0, 876.9541810099036, 1040.539275021758, 932.9348734966479, 1201.777581811417, 0.09600000455975533, 0.0800000037997961, 1.008000047877431, 0.0, 0.0, 0.0, 0.0, 0.0, 1.6450619646165705E9, 0.0, 2022-02-16 19:39:24.616
43.0, 808.6112492196262, 1016.3496021083556, 915.252626506146, 1210.1773971118964, 0.09600000455975533, 0.0800000037997961, 1.008000047877431, 0.0, 0.0, 0.0, 0.0, 0.0, 1.6450619646175325E9, 0.0, 2022-02-16 19:39:24.617
43.0, 817.2017994178459, 1034.9481245880015, 926.5433844723739, 1226.51328011835, 0.09600000455975533, 0.0800000037997961, 1.008000047877431, 0.0, 0.0, 0.0, 0.0, 0.0, 1.6450619646175325E9, 0.0, 2022-02-16 19:39:24.617
44.0, 771.3169668614864, 1072.4780206433497, 942.70349218091, 1203.886885386426, 0.09600000455975533, 0.0800000037997961, 1.008000047877431, 0.0, 0.0, 0.0, 0.0, 0.0, 1.6450619646286306E9, 0.0, 2022-02-16 19:39:24.628
44.0, 819.1016685953364, 1052.574273079168, 923.3195907105692, 1249.3378895479254, 0.09600000455975533, 0.0800000037997961, 1.008000047877431, 0.0, 0.0, 0.0, 0.0, 0.0, 1.6450619646286306E9, 0.0, 2022-02-16 19:39:24.628
45.0, 795.2074477784336, 1033.0183362108655, 921.5992367309518, 1246.0205982872285, 0.09600000455975533, 0.0800000037997961, 1.008000047877431, 0.0, 0.0, 0.0, 0.0, 0.0, 1.6450619646293757E9, 0.0, 2022-02-16 19:39:24.629
45.0, 774.9596294183284, 1060.5514796846546, 943.1709796753712, 1220.6565967877395, 0.09600000455975533, 0.0800000037997961, 1.008000047877431, 0.0, 0.0, 0.0, 0.0, 0.0, 1.6450619646293757E9, 0.0, 2022-02-16 19:39:24.629
46.0, 814.4342734506354, 1059.5267470967956, 936.816889650654, 1261.0886552087031, 0.09600000455975533, 0.0800000037997961, 1.008000047877431, 0.0, 0.0, 0.0, 0.0, 0.0, 1.6450619646429653E9, 0.0, 2022-02-16 19:39:24.642
46.0, 902.0339501127601, 1046.5530341505073, 925.9300408796407, 1380.043653099332, 0.09600000455975533, 0.0800000037997961, 1.008000047877431, 0.0, 0.0, 0.0, 0.0, 0.0, 1.6450619646429653E9, 0.0, 2022-02-16 19:39:24.642
47.0, 829.5098101720214, 1048.595019526314, 940.025723812636, 1310.851764019113, 0.09600000455975533, 0.0800000037997961, 1.008000047877431, 0.0, 0.0, 0.0, 0.0, 0.0, 1.6450619646749234E9, 0.0, 2022-02-16 19:39:24.674
47.0, 896.3754814798012, 1039.742676331196, 940.2276784102432, 1299.4039302547462, 0.09600000455975533, 0.0800000037997961, 1.008000047877431, 0.0, 0.0, 0.0, 0.0, 0.0, 1.6450619646749234E9, 0.0, 2022-02-16 19:39:24.674
48.0, 916.2231305446476, 1040.8197675184347, 931.8577823094092, 1241.9553270353936, 0.09600000455975533, 0.0800000037997961, 1.008000047877431, 0.0, 0.0, 0.0, 0.0, 0.0, 1.6450619646756165E9, 0.0, 2022-02-16 19:39:24.675
48.0, 794.7100410843268, 1052.7051695776172, 934.7487249751575, 1228.89933629008, 0.09600000455975533, 0.0800000037997961, 1.008000047877431, 0.0, 0.0, 0.0, 0.0, 0.0, 1.6450619646756165E9, 0.0, 2022-02-16 19:39:24.675
49.0, 761.4174516787753, 1060.2186285885982, 944.1882324633189, 1258.508124239277, 0.09600000455975533, 0.0800000037997961, 1.008000047877431, 0.0, 0.0, 0.0, 0.0, 0.0, 1.6450619646763463E9, 0.0, 2022-02-16 19:39:24.676
49.0, 881.2588058589026, 1054.91545045143, 933.5295175896026, 1295.11426500557, 0.09600000455975533, 0.0800000037997961, 1.008000047877431, 0.0, 0.0, 0.0, 0.0, 0.0, 1.6450619646763463E9, 0.0, 2022-02-16 19:39:24.676
50.0, 826.65626650583, 1052.2713411827572, 935.1152351708151, 1345.8123488049023, 0.09600000455975533, 0.0800000037997961, 1.008000047877431, 0.0, 0.0, 0.0, 0.0, 0.0, 1.645061964677109E9, 0.0, 2022-02-16 19:39:24.677
50.0, 786.7253546789289, 1062.7692403583787, 943.7731035682373, 1269.7764428057708, 0.09600000455975533, 0.0800000037997961, 1.008000047877431, 0.0, 0.0, 0.0, 0.0, 0.0, 1.645061964677109E9, 0.0, 2022-02-16 19:39:24.677
51.0, 806.1915339482948, 1045.7639152598567, 929.7447388344444, 1313.529532387387, 0.09600000455975533, 0.0800000037997961, 1.008000047877431, 0.0, 0.0, 0.0, 0.0, 0.0, 1.6450619646878755E9, 0.0, 2022-02-16 19:39:24.687
51.0, 846.930264165625, 1041.6425455086865, 939.5170974186622, 1285.3905251207761, 0.09600000455975533, 0.0800000037997961, 1.008000047877431, 0.0, 0.0, 0.0, 0.0, 0.0, 1.6450619646878755E9, 0.0, 2022-02-16 19:39:24.687
52.0, 791.2207144256681, 1055.9551426391117, 949.4988904003985, 1243.253072320018, 0.09600000455975533, 0.0800000037997961, 1.008000047877431, 0.0, 0.0, 0.0, 0.0, 0.0, 1.6450619647192636E9, 0.0, 2022-02-16 19:39:24.719
52.0, 808.4616532213986, 1053.744861765299, 948.769609909039, 1300.1519102458842, 0.09600000455975533, 0.0800000037997961, 1.008000047877431, 0.0, 0.0, 0.0, 0.0, 0.0, 1.6450619647192636E9, 0.0, 2022-02-16 19:39:24.719
53.0, 877.032718908973, 1054.2460083593614, 949.3380747023039, 1269.7465236061253, 0.09600000455975533, 0.0800000037997961, 1.008000047877431, 0.0, 0.0, 0.0, 0.0, 0.0, 1.6450619647199583E9, 0.0, 2022-02-16 19:39:24.719
53.0, 780.9920880468562, 1059.1527571012266, 956.4364048182033, 1323.9825527635403, 0.09600000455975533, 0.0800000037997961, 1.008000047877431, 0.0, 0.0, 0.0, 0.0, 0.0, 1.6450619647199583E9, 0.0, 2022-02-16 19:39:24.719
54.0, 851.7248159088194, 1057.3538652225398, 948.7359508094378, 1256.2641842658632, 0.09600000455975533, 0.0800000037997961, 1.008000047877431, 0.0, 0.0, 0.0, 0.0, 0.0, 1.6450619647206917E9, 0.0, 2022-02-16 19:39:24.720
54.0, 893.219005917199, 1046.6315720495768, 937.022584148217, 1248.8517025536858, 0.09600000455975533, 0.0800000037997961, 1.008000047877431, 0.0, 0.0, 0.0, 0.0, 0.0, 1.6450619647206917E9, 0.0, 2022-02-16 19:39:24.720
55.0, 806.9170745396987, 1061.8267855695449, 935.9417530610226, 1288.1356116882525, 0.09600000455975533, 0.0800000037997961, 1.008000047877431, 0.0, 0.0, 0.0, 0.0, 0.0, 1.6450619647328095E9, 0.0, 2022-02-16 19:39:24.732
55.0, 829.8987597674131, 1088.600729352329, 966.4705563993193, 1332.3973276638426, 0.09600000455975533, 0.0800000037997961, 1.008000047877431, 0.0, 0.0, 0.0, 0.0, 0.0, 1.6450619647328095E9, 0.0, 2022-02-16 19:39:24.732
56.0, 835.4076324021444, 1063.621937548276, 947.6887788218446, 1364.0854999884032, 0.09600000455975533, 0.0800000037997961, 1.008000047877431, 0.0, 0.0, 0.0, 0.0, 0.0, 1.6450619647485383E9, 0.0, 2022-02-16 19:39:24.748
56.0, 854.7129959734157, 1056.265554335434, 952.4646310652606, 1193.4226453104056, 0.09600000455975533, 0.0800000037997961, 1.008000047877431, 0.0, 0.0, 0.0, 0.0, 0.0, 1.6450619647485383E9, 0.0, 2022-02-16 19:39:24.748
57.0, 845.8195138787851, 1062.331672063563, 967.607485985849, 1241.4354809415527, 0.09600000455975533, 0.0800000037997961, 1.008000047877431, 0.0, 0.0, 0.0, 0.0, 0.0, 1.6450619647492268E9, 0.0, 2022-02-16 19:39:24.749
57.0, 807.9679864272475, 1068.8054388868622, 970.0832997565158, 1245.0781434983946, 0.09600000455975533, 0.0800000037997961, 1.008000047877431, 0.0, 0.0, 0.0, 0.0, 0.0, 1.6450619647492268E9, 0.0, 2022-02-16 19:39:24.749
58.0, 800.1179364202544, 1058.0307871145196, 957.5770743046887, 1278.890578997787, 0.09600000455975533, 0.0800000037997961, 1.008000047877431, 0.0, 0.0, 0.0, 0.0, 0.0, 1.6450619647628949E9, 0.0, 2022-02-16 19:39:24.762
58.0, 808.1400218252093, 1057.0584131260403, 961.421691459138, 1246.9406136763282, 0.09600000455975533, 0.0800000037997961, 1.008000047877431, 0.0, 0.0, 0.0, 0.0, 0.0, 1.6450619647628949E9, 0.0, 2022-02-16 19:39:24.762
59.0, 764.6001065410674, 1069.57959817769, 959.7985748783685, 1269.7390438062139, 0.09600000455975533, 0.0800000037997961, 1.008000047877431, 0.0, 0.0, 0.0, 0.0, 0.0, 1.6450619647784941E9, 0.0, 2022-02-16 19:39:24.778
59.0, 845.7147966800258, 1048.258428530302, 955.8417607252486, 1329.5063849980943, 0.09600000455975533, 0.0800000037997961, 1.008000047877431, 0.0, 0.0, 0.0, 0.0, 0.0, 1.6450619647784941E9, 0.0, 2022-02-16 19:39:24.778
60.0, 804.4113415693864, 1040.1204062267207, 956.8103948137723, 1255.048716780264, 0.09600000455975533, 0.0800000037997961, 1.008000047877431, 0.0, 0.0, 0.0, 0.0, 0.0, 1.645061964779253E9, 0.0, 2022-02-16 19:39:24.779
60.0, 877.5189059032127, 1055.7868471411057, 957.9323648004793, 1330.9013676815666, 0.09600000455975533, 0.0800000037997961, 1.008000047877431, 0.0, 0.0, 0.0, 0.0, 0.0, 1.645061964779253E9, 0.0, 2022-02-16 19:39:24.779
61.0, 878.577297590673, 1053.1614373722114, 946.1778592397459, 1391.345630765427, 0.09600000455975533, 0.0800000037997961, 1.008000047877431, 0.0, 0.0, 0.0, 0.0, 0.0, 1.6450619647928116E9, 0.0, 2022-02-16 19:39:24.792
61.0, 925.456943535246, 1053.2437151712365, 939.7751505156048, 1416.8816676628776, 0.09600000455975533, 0.0800000037997961, 1.008000047877431, 0.0, 0.0, 0.0, 0.0, 0.0, 1.6450619647928116E9, 0.0, 2022-02-16 19:39:24.792
62.0, 842.9921495122835, 1077.3398905857466, 965.7375360080041, 1512.3538337317295, 0.09600000455975533, 0.0800000037997961, 1.008000047877431, 0.0, 0.0, 0.0, 0.0, 0.0, 1.645061964808236E9, 0.0, 2022-02-16 19:39:24.808
62.0, 973.8886479614303, 1081.9212680314668, 976.3925109817646, 1578.4565654485486, 0.09600000455975533, 0.0800000037997961, 1.008000047877431, 0.0, 0.0, 0.0, 0.0, 0.0, 1.645061964808236E9, 0.0, 2022-02-16 19:39:24.808
63.0, 1056.544176882133, 1051.8674319875427, 943.3878938728012, 1729.5186044587754, 0.09600000455975533, 0.0800000037997961, 1.008000047877431, 0.0, 0.0, 0.0, 0.0, 0.0, 1.6450619648234916E9, 0.0, 2022-02-16 19:39:24.823
63.0, 1005.9508102815598, 1044.1482784789987, 940.2089789104648, 1753.1959110782482, 0.09600000455975533, 0.0800000037997961, 1.008000047877431, 0.0, 0.0, 0.0, 0.0, 0.0, 1.6450619648234916E9, 0.0, 2022-02-16 19:39:24.823
64.0, 955.0395521847531, 1048.8418529233895, 944.0236768652685, 1731.7139257327653, 0.09600000455975533, 0.0800000037997961, 1.008000047877431, 0.0, 0.0, 0.0, 0.0, 0.0, 1.6450619648242452E9, 0.0, 2022-02-16 19:39:24.824
64.0, 977.0451235240325, 1031.0997675335966, 923.611302907113, 1968.986268571578, 0.09600000455975533, 0.0800000037997961, 1.008000047877431, 0.0, 0.0, 0.0, 0.0, 0.0, 1.6450619648242452E9, 0.0, 2022-02-16 19:39:24.824
65.0, 932.6637307498604, 1034.6264931918122, 922.4968127203174, 1768.5238910466433, 0.09600000455975533, 0.0800000037997961, 1.008000047877431, 0.0, 0.0, 0.0, 0.0, 0.0, 1.6450619648385904E9, 0.0, 2022-02-16 19:39:24.838
65.0, 882.0105257499963, 1065.9070164212026, 943.7394444686361, 1576.4426293224096, 0.09600000455975533, 0.0800000037997961, 1.008000047877431, 0.0, 0.0, 0.0, 0.0, 0.0, 1.6450619648385904E9, 0.0, 2022-02-16 19:39:24.838
66.0, 936.2577746072784, 1058.1654235129245, 938.1295945351012, 1496.9996744636446, 0.09600000455975533, 0.0800000037997961, 1.008000047877431, 0.0, 0.0, 0.0, 0.0, 0.0, 1.6450619648392725E9, 0.0, 2022-02-16 19:39:24.839
66.0, 872.1409297669306, 1059.4407293978147, 936.1624071584083, 1498.8845840413123, 0.09600000455975533, 0.0800000037997961, 1.008000047877431, 0.0, 0.0, 0.0, 0.0, 0.0, 1.6450619648392725E9, 0.0, 2022-02-16 19:39:24.839
67.0, 840.6808913396671, 1058.797466605436, 946.7986826323904, 1645.2530486071482, 0.09600000455975533, 0.0800000037997961, 1.008000047877431, 0.0, 0.0, 0.0, 0.0, 0.0, 1.6450619648528636E9, 0.0, 2022-02-16 19:39:24.852
67.0, 840.5425150413066, 1054.010394662153, 943.3392751733772, 1560.1890241149813, 0.09600000455975533, 0.0800000037997961, 1.008000047877431, 0.0, 0.0, 0.0, 0.0, 0.0, 1.6450619648528636E9, 0.0, 2022-02-16 19:39:24.852
68.0, 859.2420148197562, 1040.7861084188335, 932.0372975072823, 1673.126522976905, 0.09600000455975533, 0.0800000037997961, 1.008000047877431, 0.0, 0.0, 0.0, 0.0, 0.0, 1.6450619648685856E9, 0.0, 2022-02-16 19:39:24.868
68.0, 808.0801834259182, 1042.9851695927791, 938.627001229208, 1733.0584197668359, 0.09600000455975533, 0.0800000037997961, 1.008000047877431, 0.0, 0.0, 0.0, 0.0, 0.0, 1.6450619648685856E9, 0.0, 2022-02-16 19:39:24.868
69.0, 829.767863268964, 1048.8418529233895, 946.2750966385938, 1759.7912246501073, 0.09600000455975533, 0.0800000037997961, 1.008000047877431, 0.0, 0.0, 0.0, 0.0, 0.0, 1.6450619648693433E9, 0.0, 2022-02-16 19:39:24.869
69.0, 901.2373514221981, 1052.0544269853272, 941.0878554000519, 1811.9628290319815, 0.09600000455975533, 0.0800000037997961, 1.008000047877431, 0.0, 0.0, 0.0, 0.0, 0.0, 1.6450619648693433E9, 0.0, 2022-02-16 19:39:24.869
70.0, 842.3862857194617, 1054.0141345621087, 933.70529288752, 1778.8086159247905, 0.09600000455975533, 0.0800000037997961, 1.008000047877431, 0.0, 0.0, 0.0, 0.0, 0.0, 1.6450619648828304E9, 0.0, 2022-02-16 19:39:24.882
70.0, 905.8112490680069, 1063.3190056518652, 946.7874629325233, 1842.1513014743105, 0.09600000455975533, 0.0800000037997961, 1.008000047877431, 0.0, 0.0, 0.0, 0.0, 0.0, 1.6450619648828304E9, 0.0, 2022-02-16 19:39:24.882
71.0, 822.1085481597111, 1049.765608212445, 940.025723812636, 1806.0425674021244, 0.09600000455975533, 0.0800000037997961, 1.008000047877431, 0.0, 0.0, 0.0, 0.0, 0.0, 1.6450619648985755E9, 0.0, 2022-02-16 19:39:24.898
71.0, 859.8777978122234, 1045.1543115670793, 928.7050466467626, 1820.7628136277199, 0.09600000455975533, 0.0800000037997961, 1.008000047877431, 0.0, 0.0, 0.0, 0.0, 0.0, 1.6450619648985755E9, 0.0, 2022-02-16 19:39:24.898
72.0, 755.6692254468799, 1054.5339806559496, 954.4579977416433, 1809.3374192630872, 0.09600000455975533, 0.0800000037997961, 1.008000047877431, 0.0, 0.0, 0.0, 0.0, 0.0, 1.6450619648992708E9, 0.0, 2022-02-16 19:39:24.899
72.0, 882.6724880421534, 1049.5860930145718, 938.2791905333288, 1854.5116708278656, 0.09600000455975533, 0.0800000037997961, 1.008000047877431, 0.0, 0.0, 0.0, 0.0, 0.0, 1.6450619648992708E9, 0.0, 2022-02-16 19:39:24.899
73.0, 879.5683710789308, 1059.52300719684, 937.1160816471092, 1840.5618439931422, 0.09600000455975533, 0.0800000037997961, 1.008000047877431, 0.0, 0.0, 0.0, 0.0, 0.0, 1.6450619649128904E9, 0.0, 2022-02-16 19:39:24.912
73.0, 802.2160202953964, 1078.166408475954, 954.9142655362375, 1781.5125635927543, 0.09600000455975533, 0.0800000037997961, 1.008000047877431, 0.0, 0.0, 0.0, 0.0, 0.0, 1.6450619649128904E9, 0.0, 2022-02-16 19:39:24.912
74.0, 770.9093177663162, 1074.3778898208402, 963.4823763347231, 1867.5601817732677, 0.09600000455975533, 0.0800000037997961, 1.008000047877431, 0.0, 0.0, 0.0, 0.0, 0.0, 1.64506196492862E9, 0.0, 2022-02-16 19:39:24.928
74.0, 872.630856661126, 1055.6073319432326, 947.3035691264085, 1870.294048640877, 0.09600000455975533, 0.0800000037997961, 1.008000047877431, 0.0, 0.0, 0.0, 0.0, 0.0, 1.64506196492862E9, 0.0, 2022-02-16 19:39:24.928
75.0, 896.439059779048, 1046.736289248336, 932.1756738056429, 1859.9046065639704, 0.09600000455975533, 0.0800000037997961, 1.008000047877431, 0.0, 0.0, 0.0, 0.0, 0.0, 1.6450619649292948E9, 0.0, 2022-02-16 19:39:24.929
75.0, 818.9707720968872, 1077.6316027822904, 951.821368272882, 1802.3662457456812, 0.09600000455975533, 0.0800000037997961, 1.008000047877431, 0.0, 0.0, 0.0, 0.0, 0.0, 1.6450619649292948E9, 0.0, 2022-02-16 19:39:24.929
76.0, 888.936820467934, 1065.058059131261, 940.5418300065212, 1856.6022749030963, 0.09600000455975533, 0.0800000037997961, 1.008000047877431, 0.0, 0.0, 0.0, 0.0, 0.0, 1.6450619649429457E9, 0.0, 2022-02-16 19:39:24.942
76.0, 849.8960048304871, 1040.9992827163078, 934.7562047750689, 1900.119750787504, 0.09600000455975533, 0.0800000037997961, 1.008000047877431, 0.0, 0.0, 0.0, 0.0, 0.0, 1.6450619649429457E9, 0.0, 2022-02-16 19:39:24.942
77.0, 820.0852622836828, 1055.951402739156, 939.4609989193268, 1932.1856530075893, 0.09600000455975533, 0.0800000037997961, 1.008000047877431, 0.0, 0.0, 0.0, 0.0, 0.0, 1.6450619649590127E9, 0.0, 2022-02-16 19:39:24.959
77.0, 854.0846927808598, 1045.532041462604, 936.6149350530468, 1823.017973301001, 0.09600000455975533, 0.0800000037997961, 1.008000047877431, 0.0, 0.0, 0.0, 0.0, 0.0, 1.6450619649590127E9, 0.0, 2022-02-16 19:39:24.959
78.0, 839.4504642542452, 1036.4328648704104, 942.4043001844548, 1838.1870075212792, 0.09600000455975533, 0.0800000037997961, 1.008000047877431, 0.0, 0.0, 0.0, 0.0, 0.0, 1.6450619649737191E9, 0.0, 2022-02-16 19:39:24.973
78.0, 865.0949582504109, 1063.3115258519538, 940.4670320074074, 1874.6772113889456, 0.09600000455975533, 0.0800000037997961, 1.008000047877431, 0.0, 0.0, 0.0, 0.0, 0.0, 1.6450619649737191E9, 0.0, 2022-02-16 19:39:24.973
79.0, 853.3479324895889, 1058.6516105071642, 937.1460008467548, 1915.2401663083583, 0.09600000455975533, 0.0800000037997961, 1.008000047877431, 0.0, 0.0, 0.0, 0.0, 0.0, 1.6450619649743102E9, 0.0, 2022-02-16 19:39:24.974
79.0, 920.1388057982549, 1049.9376436104067, 939.3338423208334, 1930.8467688234523, 0.09600000455975533, 0.0800000037997961, 1.008000047877431, 0.0, 0.0, 0.0, 0.0, 0.0, 1.6450619649743102E9, 0.0, 2022-02-16 19:39:24.974
80.0, 820.2872168812901, 1051.1344115962274, 938.5671628299169, 1879.1127327363938, 0.09600000455975533, 0.0800000037997961, 1.008000047877431, 0.0, 0.0, 0.0, 0.0, 0.0, 1.6450619650050895E9, 0.0, 2022-02-16 19:39:25.005
80.0, 746.9290792504326, 1059.5379667966627, 940.5530497063883, 1814.6518171001226, 0.09600000455975533, 0.0800000037997961, 1.008000047877431, 0.0, 0.0, 0.0, 0.0, 0.0, 1.6450619650050895E9, 0.0, 2022-02-16 19:39:25.005
81.0, 857.1177516449243, 1045.7564354599454, 925.9188211797737, 1937.1971189482138, 0.09600000455975533, 0.0800000037997961, 1.008000047877431, 0.0, 0.0, 0.0, 0.0, 0.0, 1.6450619650057297E9, 0.0, 2022-02-16 19:39:25.005
81.0, 890.7020532470196, 1033.2502100081183, 920.6904410417192, 1890.6465841997415, 0.09600000455975533, 0.0800000037997961, 1.008000047877431, 0.0, 0.0, 0.0, 0.0, 0.0, 1.6450619650057297E9, 0.0, 2022-02-16 19:39:25.005
82.0, 819.4382595913485, 1055.528794044163, 938.686839628499, 1870.7428366355598, 0.09600000455975533, 0.0800000037997961, 1.008000047877431, 0.0, 0.0, 0.0, 0.0, 0.0, 1.645061965006508E9, 0.0, 2022-02-16 19:39:25.006
82.0, 888.0429843785241, 1048.3743654289283, 934.4457930787466, 1930.8729481231421, 0.09600000455975533, 0.0800000037997961, 1.008000047877431, 0.0, 0.0, 0.0, 0.0, 0.0, 1.645061965006508E9, 0.0, 2022-02-16 19:39:25.006
83.0, 895.3357892921194, 1045.1543115670793, 921.6141963307746, 1941.8944332925603, 0.09600000455975533, 0.0800000037997961, 1.008000047877431, 0.0, 0.0, 0.0, 0.0, 0.0, 1.6450619650072525E9, 0.0, 2022-02-16 19:39:25.007
83.0, 857.2561279432848, 1060.125131089706, 934.3859546794556, 1913.302898131311, 0.09600000455975533, 0.0800000037997961, 1.008000047877431, 0.0, 0.0, 0.0, 0.0, 0.0, 1.6450619650072525E9, 0.0, 2022-02-16 19:39:25.007
84.0, 860.4425227055326, 1055.289440446999, 928.278698051814, 1966.7872073976323, 0.09600000455975533, 0.0800000037997961, 1.008000047877431, 0.0, 0.0, 0.0, 0.0, 0.0, 1.6450619650335476E9, 0.0, 2022-02-16 19:39:25.033
84.0, 958.8654698394239, 1033.9495712998323, 926.9809527671896, 1912.880289436318, 0.09600000455975533, 0.0800000037997961, 1.008000047877431, 0.0, 0.0, 0.0, 0.0, 0.0, 1.6450619650335476E9, 0.0, 2022-02-16 19:39:25.033
85.0, 872.522399562411, 1047.8806986347772, 941.2898099976592, 2029.2584962574765, 0.09600000455975533, 0.0800000037997961, 1.008000047877431, 0.0, 0.0, 0.0, 0.0, 0.0, 1.645061965034288E9, 0.0, 2022-02-16 19:39:25.034
85.0, 805.4697332568467, 1058.9620222034864, 937.3703948440962, 2012.2868302585557, 0.09600000455975533, 0.0800000037997961, 1.008000047877431, 0.0, 0.0, 0.0, 0.0, 0.0, 1.645061965034288E9, 0.0, 2022-02-16 19:39:25.034
86.0, 873.0983441555873, 1047.3084939415567, 929.883115132805, 2017.638627095148, 0.09600000455975533, 0.0800000037997961, 1.008000047877431, 0.0, 0.0, 0.0, 0.0, 0.0, 1.6450619650486054E9, 0.0, 2022-02-16 19:39:25.048
86.0, 856.0219609579071, 1046.6577513492666, 935.8594752619974, 1940.847261304967, 0.09600000455975533, 0.0800000037997961, 1.008000047877431, 0.0, 0.0, 0.0, 0.0, 0.0, 1.6450619650486054E9, 0.0, 2022-02-16 19:39:25.048
87.0, 815.6871399357915, 1070.4696943671443, 947.4980439241044, 1969.5135944653302, 0.09600000455975533, 0.0800000037997961, 1.008000047877431, 0.0, 0.0, 0.0, 0.0, 0.0, 1.64506196504927E9, 0.0, 2022-02-16 19:39:25.049
87.0, 896.3044233806431, 1061.4303561742418, 943.9675783659332, 2021.8983731446788, 0.09600000455975533, 0.0800000037997961, 1.008000047877431, 0.0, 0.0, 0.0, 0.0, 0.0, 1.64506196504927E9, 0.0, 2022-02-16 19:39:25.049
88.0, 879.9872398739681, 1049.4701561159454, 927.7251928583719, 1946.3037753403187, 0.09600000455975533, 0.0800000037997961, 1.008000047877431, 0.0, 0.0, 0.0, 0.0, 0.0, 1.645061965062942E9, 0.0, 2022-02-16 19:39:25.062
88.0, 862.9407758759335, 1053.2362353713252, 937.4003140437417, 1909.7911320729181, 0.09600000455975533, 0.0800000037997961, 1.008000047877431, 0.0, 0.0, 0.0, 0.0, 0.0, 1.645061965062942E9, 0.0, 2022-02-16 19:39:25.062
89.0, 840.6322726402432, 1056.6769433305599, 936.8430689503439, 1948.6673921123147, 0.09600000455975533, 0.0800000037997961, 1.008000047877431, 0.0, 0.0, 0.0, 0.0, 0.0, 1.6450619650786235E9, 0.0, 2022-02-16 19:39:25.078
89.0, 863.3372052712366, 1047.9180976343341, 930.3880016268231, 1930.861728423275, 0.09600000455975533, 0.0800000037997961, 1.008000047877431, 0.0, 0.0, 0.0, 0.0, 0.0, 1.6450619650786235E9, 0.0, 2022-02-16 19:39:25.078
90.0, 913.1564125809819, 1047.2748348419555, 929.0042386432178, 1890.8298392975703, 0.09600000455975533, 0.0800000037997961, 1.008000047877431, 0.0, 0.0, 0.0, 0.0, 0.0, 1.6450619650793304E9, 0.0, 2022-02-16 19:39:25.079
90.0, 854.0323341814801, 1062.2419144646265, 931.8914414090104, 1936.3406818583608, 0.09600000455975533, 0.0800000037997961, 1.008000047877431, 0.0, 0.0, 0.0, 0.0, 0.0, 1.6450619650793304E9, 0.0, 2022-02-16 19:39:25.079
91.0, 910.3514876142144, 1052.0394673855044, 917.3544502812438, 1896.0170805361122, 0.09600000455975533, 0.06400000303983688, 1.008000047877431, 0.0, 0.0, 0.0, 0.0, 0.0, 1.6450619650929403E9, 0.0, 2022-02-16 19:39:25.092
91.0, 913.5678015761077, 1058.9171434040181, 925.2381593878381, 1799.1461918838322, 0.09600000455975533, 0.06400000303983688, 1.008000047877431, 0.0, 0.0, 0.0, 0.0, 0.0, 1.6450619650929403E9, 0.0, 2022-02-16 19:39:25.092
92.0, 744.210171982646, 1068.857797486242, 945.9796445420943, 1814.8425519978628, 0.09600000455975533, 0.06400000303983688, 1.008000047877431, 0.0, 0.0, 0.0, 0.0, 0.0, 1.64506196510876E9, 0.0, 2022-02-16 19:39:25.108
92.0, 853.2693945905194, 1057.4810218210332, 929.1874937410466, 1874.5612744903192, 0.09600000455975533, 0.06400000303983688, 1.008000047877431, 0.0, 0.0, 0.0, 0.0, 0.0, 1.64506196510876E9, 0.0, 2022-02-16 19:39:25.108
93.0, 799.1567821316421, 1034.0056697991677, 920.6941809416749, 1914.0920170219615, 0.09600000455975533, 0.06400000303983688, 1.008000047877431, 0.0, 0.0, 0.0, 0.0, 0.0, 1.6450619651093466E9, 0.0, 2022-02-16 19:39:25.109
93.0, 713.2662397492677, 1052.8061468764208, 922.6127496189438, 1736.8843374215066, 0.09600000455975533, 0.06400000303983688, 1.008000047877431, 0.0, 0.0, 0.0, 0.0, 0.0, 1.6450619651093466E9, 0.0, 2022-02-16 19:39:25.109
94.0, 840.6509721400216, 1047.4468702399172, 926.9846926671453, 1727.882398228161, 0.09600000455975533, 0.06400000303983688, 1.008000047877431, 0.0, 0.0, 0.0, 0.0, 0.0, 1.6450619651229377E9, 0.0, 2022-02-16 19:39:25.122
94.0, 789.2871861485764, 1054.6274781548418, 927.1230689655058, 1690.3412824729457, 0.09600000455975533, 0.06400000303983688, 1.008000047877431, 0.0, 0.0, 0.0, 0.0, 0.0, 1.6450619651229377E9, 0.0, 2022-02-16 19:39:25.122
95.0, 755.257836451754, 1046.4670164515264, 928.2225995524786, 1767.802090355195, 0.09600000455975533, 0.06400000303983688, 1.008000047877431, 0.0, 0.0, 0.0, 0.0, 0.0, 1.645061965138626E9, 0.0, 2022-02-16 19:39:25.138
95.0, 779.1296178689227, 1062.8664777572267, 931.9550197082572, 1747.494433595799, 0.09600000455975533, 0.06400000303983688, 1.008000047877431, 0.0, 0.0, 0.0, 0.0, 0.0, 1.645061965138626E9, 0.0, 2022-02-16 19:39:25.138
96.0, 798.4836001396179, 1061.1049848780967, 916.9692405858077, 1680.0565575947985, 0.09600000455975533, 0.06400000303983688, 1.008000047877431, 0.0, 0.0, 0.0, 0.0, 0.0, 1.645061965139332E9, 0.0, 2022-02-16 19:39:25.139
96.0, 816.4201603271067, 1046.1865239548497, 908.5021070861258, 1669.2183275232092, 0.09600000455975533, 0.06400000303983688, 1.008000047877431, 0.0, 0.0, 0.0, 0.0, 0.0, 1.645061965139332E9, 0.0, 2022-02-16 19:39:25.139
97.0, 775.2214224152267, 1034.207624396775, 922.8932421156205, 1676.9187815319747, 0.09600000455975533, 0.06400000303983688, 1.008000047877431, 0.0, 0.0, 0.0, 0.0, 0.0, 1.6450619651529722E9, 0.0, 2022-02-16 19:39:25.152
97.0, 859.8553584124893, 1037.5997136565857, 918.8055314640515, 1746.3911631088704, 0.09600000455975533, 0.06400000303983688, 1.008000047877431, 0.0, 0.0, 0.0, 0.0, 0.0, 1.6450619651529722E9, 0.0, 2022-02-16 19:39:25.152
98.0, 886.3114106990397, 1054.1562507604249, 910.5141732622869, 1779.4593585170805, 0.09600000455975533, 0.06400000303983688, 1.008000047877431, 0.0, 0.0, 0.0, 0.0, 0.0, 1.6450619651692636E9, 0.0, 2022-02-16 19:39:25.169
98.0, 816.4986982261762, 1064.5419529373758, 922.5641309195198, 1680.7446991866454, 0.09600000455975533, 0.06400000303983688, 1.008000047877431, 0.0, 0.0, 0.0, 0.0, 0.0, 1.6450619651692636E9, 0.0, 2022-02-16 19:39:25.169
99.0, 801.7447929009795, 1072.4294019439258, 929.3819685387425, 1674.177434864454, 0.09600000455975533, 0.06400000303983688, 1.008000047877431, 0.0, 0.0, 0.0, 0.0, 0.0, 1.645061965169324E9, 0.0, 2022-02-16 19:39:25.169
99.0, 819.6514338888228, 1048.8081938237883, 912.9675476332195, 1802.8299933401868, 0.09600000455975533, 0.06400000303983688, 1.008000047877431, 0.0, 0.0, 0.0, 0.0, 0.0, 1.645061965169324E9, 0.0, 2022-02-16 19:39:25.169
100.0, 740.4777518268675, 1041.249856013339, 911.5688250497915, 1732.8714247690514, 0.09600000455975533, 0.06400000303983688, 1.008000047877431, 0.0, 0.0, 0.0, 0.0, 0.0, 1.6450619651836567E9, 0.0, 2022-02-16 19:39:25.183
100.0, 744.6215609777719, 1057.5782592198811, 917.5414452790283, 1731.3717248868197, 0.09600000455975533, 0.06400000303983688, 1.008000047877431, 0.0, 0.0, 0.0, 0.0, 0.0, 1.6450619651836567E9, 0.0, 2022-02-16 19:39:25.183
0.0, 801.714873701334, 1061.16295332741, 919.244969708845, 1220.3517949413508, 0.09600000455975533, 0.06400000303983688, 1.008000047877431, 0.0, 0.0, 0.0, 0.0, 0.0, 1.6450619651844587E9, 0.0, 2022-02-16 19:39:25.184
1.0, 801.1464089080691, 1053.757951415144, 909.9475784189999, 1280.6389822270721, 0.09600000455975533, 0.06400000303983688, 1.008000047877431, 0.0, 0.0, 0.0, 0.0, 0.0, 1.6450619651979184E9, 0.0, 2022-02-16 19:39:25.197
1.0, 787.8622842654586, 1048.185500481166, 904.337728485465, 1273.9408214064315, 0.09600000455975533, 0.06400000303983688, 1.008000047877431, 0.0, 0.0, 0.0, 0.0, 0.0, 1.6450619651979184E9, 0.0, 2022-02-16 19:39:25.197
2.0, 772.7119495449588, 1049.3336497675627, 896.9402063731104, 1153.3552271351218, 0.09600000455975533, 0.06400000303983688, 1.008000047877431, 0.0, 0.0, 0.0, 0.0, 0.0, 1.6450619652300453E9, 0.0, 2022-02-16 19:39:25.230
2.0, 814.6362280482426, 1052.2395520331338, 899.2626842455938, 1242.2302096821368, 0.09600000455975533, 0.06400000303983688, 1.008000047877431, 0.0, 0.0, 0.0, 0.0, 0.0, 1.6450619652300453E9, 0.0, 2022-02-16 19:39:25.230
3.0, 807.2125266361982, 1047.0560506945476, 902.613634605892, 1253.685523246415, 0.09600000455975533, 0.06400000303983688, 1.008000047877431, 0.0, 0.0, 0.0, 0.0, 0.0, 1.645061965230738E9, 0.0, 2022-02-16 19:39:25.230
3.0, 763.4295178549364, 1070.980190711096, 910.2879093149677, 1187.642629928887, 0.09600000455975533, 0.06400000303983688, 1.008000047877431, 0.0, 0.0, 0.0, 0.0, 0.0, 1.645061965230738E9, 0.0, 2022-02-16 19:39:25.230
4.0, 846.930264165625, 1051.7047463394701, 890.6833537472412, 1261.1541034579277, 0.09600000455975533, 0.06400000303983688, 1.008000047877431, 0.0, 0.0, 0.0, 0.0, 0.0, 1.6450619652314835E9, 0.0, 2022-02-16 19:39:25.231
4.0, 843.287601608783, 1056.1963661862537, 896.1922263819724, 1242.686477476731, 0.09600000455975533, 0.06400000303983688, 1.008000047877431, 0.0, 0.0, 0.0, 0.0, 0.0, 1.6450619652314835E9, 0.0, 2022-02-16 19:39:25.231
5.0, 784.7918264018372, 1063.3358352016658, 914.2372436681762, 1324.5977663062513, 0.09600000455975533, 0.06400000303983688, 1.008000047877431, 0.0, 0.0, 0.0, 0.0, 0.0, 1.6450619652322075E9, 0.0, 2022-02-16 19:39:25.232
5.0, 785.1845158971846, 1038.2934650983661, 902.4939578073099, 1304.002137250267, 0.09600000455975533, 0.06400000303983688, 1.008000047877431, 0.0, 0.0, 0.0, 0.0, 0.0, 1.6450619652322075E9, 0.0, 2022-02-16 19:39:25.232
6.0, 851.9529498061165, 1041.491079560481, 894.509271401912, 1172.9560428028926, 0.09600000455975533, 0.06400000303983688, 1.008000047877431, 0.0, 0.0, 0.0, 0.0, 0.0, 1.6450619652429492E9, 0.0, 2022-02-16 19:39:25.242
6.0, 745.6949122650549, 1065.407739777118, 900.9942579250783, 1261.5430530533195, 0.09600000455975533, 0.06400000303983688, 1.008000047877431, 0.0, 0.0, 0.0, 0.0, 0.0, 1.6450619652429492E9, 0.0, 2022-02-16 19:39:25.242
7.0, 724.2914648186415, 1068.6689325384796, 906.4769512601197, 1211.424653747119, 0.09600000455975533, 0.06400000303983688, 1.008000047877431, 0.0, 0.0, 0.0, 0.0, 0.0, 1.6450619652579317E9, 0.0, 2022-02-16 19:39:25.257
7.0, 880.0919570727274, 1059.7492711441591, 901.9666319135576, 1313.7034377353266, 0.09600000455975533, 0.06400000303983688, 1.008000047877431, 0.0, 0.0, 0.0, 0.0, 0.0, 1.6450619652579317E9, 0.0, 2022-02-16 19:39:25.257
8.0, 789.1188906505704, 1054.6443077046424, 904.8650543792173, 1308.3292014990002, 0.09600000455975533, 0.06400000303983688, 1.008000047877431, 0.0, 0.0, 0.0, 0.0, 0.0, 1.6450619652735972E9, 0.0, 2022-02-16 19:39:25.273
8.0, 764.8918187376112, 1057.8606216665357, 914.6935114627704, 1257.0327337067574, 0.09600000455975533, 0.06400000303983688, 1.008000047877431, 0.0, 0.0, 0.0, 0.0, 0.0, 1.6450619652735972E9, 0.0, 2022-02-16 19:39:25.273
9.0, 879.6095099784434, 1057.4791518710554, 906.6714260578156, 1266.0496324999258, 0.09600000455975533, 0.06400000303983688, 1.008000047877431, 0.0, 0.0, 0.0, 0.0, 0.0, 1.6450619652743907E9, 0.0, 2022-02-16 19:39:25.274
9.0, 817.2204989176244, 1058.1897328626364, 905.6130343703553, 1238.9914563205093, 0.09600000455975533, 0.06400000303983688, 1.008000047877431, 0.0, 0.0, 0.0, 0.0, 0.0, 1.6450619652743907E9, 0.0, 2022-02-16 19:39:25.274
10.0, 762.2177902692929, 1081.0667008915916, 920.4791366942227, 1274.5354654993862, 0.09600000455975533, 0.06400000303983688, 1.008000047877431, 0.0, 0.0, 0.0, 0.0, 0.0, 1.6450619652878957E9, 0.0, 2022-02-16 19:39:25.287
10.0, 788.1539964620024, 1083.123645867221, 909.3566742260009, 1295.5088244508952, 0.09600000455975533, 0.06400000303983688, 1.008000047877431, 0.0, 0.0, 0.0, 0.0, 0.0, 1.6450619652878957E9, 0.0, 2022-02-16 19:39:25.287
11.0, 888.551610772498, 1062.9207063065842, 903.5897484943271, 1304.544422743842, 0.09600000455975533, 0.06400000303983688, 1.008000047877431, 0.0, 0.0, 0.0, 0.0, 0.0, 1.645061965303712E9, 0.0, 2022-02-16 19:39:25.303
11.0, 830.0782749652863, 1070.3705870183185, 910.1233537169173, 1198.6678549982607, 0.09600000455975533, 0.06400000303983688, 1.008000047877431, 0.0, 0.0, 0.0, 0.0, 0.0, 1.645061965303712E9, 0.0, 2022-02-16 19:39:25.303
12.0, 824.1318340357393, 1068.242583943531, 906.4096330609173, 1257.6385974995792, 0.09600000455975533, 0.06400000303983688, 1.008000047877431, 0.0, 0.0, 0.0, 0.0, 0.0, 1.6450619653043845E9, 0.0, 2022-02-16 19:39:25.304
12.0, 774.6641773218289, 1050.5229379534721, 897.0150043722242, 1303.3850537575781, 0.09600000455975533, 0.06400000303983688, 1.008000047877431, 0.0, 0.0, 0.0, 0.0, 0.0, 1.6450619653043845E9, 0.0, 2022-02-16 19:39:25.304
13.0, 693.6579442815855, 1053.6270549166948, 892.953473020345, 1266.4348421953619, 0.09600000455975533, 0.06400000303983688, 1.008000047877431, 0.0, 0.0, 0.0, 0.0, 0.0, 1.6450619653197231E9, 0.0, 2022-02-16 19:39:25.319
13.0, 805.8960818517953, 1055.4147270955145, 890.8853083448485, 1252.8440457563847, 0.09600000455975533, 0.06400000303983688, 1.008000047877431, 0.0, 0.0, 0.0, 0.0, 0.0, 1.6450619653197231E9, 0.0, 2022-02-16 19:39:25.319
14.0, 744.2887098817155, 1053.2231457214803, 894.3671552035958, 1202.7368661500514, 0.09600000455975533, 0.06400000303983688, 1.008000047877431, 0.0, 0.0, 0.0, 0.0, 0.0, 1.6450619653335552E9, 0.0, 2022-02-16 19:39:25.333
14.0, 850.9843157175928, 1057.9877782650292, 893.6752737117931, 1303.108301160857, 0.09600000455975533, 0.06400000303983688, 1.008000047877431, 0.0, 0.0, 0.0, 0.0, 0.0, 1.6450619653335552E9, 0.0, 2022-02-16 19:39:25.333
15.0, 818.8735346980393, 1079.4622838106006, 902.6959124049172, 1310.8685935689136, 0.09600000455975533, 0.06400000303983688, 1.008000047877431, 0.0, 0.0, 0.0, 0.0, 0.0, 1.6450619653343236E9, 0.0, 2022-02-16 19:39:25.334
15.0, 780.2216686559841, 1058.2607909617946, 890.2532652523369, 1283.836596689187, 0.09600000455975533, 0.06400000303983688, 1.008000047877431, 0.0, 0.0, 0.0, 0.0, 0.0, 1.6450619653343236E9, 0.0, 2022-02-16 19:39:25.334
16.0, 797.5149660510942, 1047.003692095168, 883.8094176286831, 1232.7794824941084, 0.09600000455975533, 0.06400000303983688, 1.008000047877431, 0.0, 0.0, 0.0, 0.0, 0.0, 1.6450619653479955E9, 0.0, 2022-02-16 19:39:25.347
16.0, 767.9547968013212, 1064.0052772937343, 899.0569897480309, 1283.6346420915797, 0.09600000455975533, 0.06400000303983688, 1.008000047877431, 0.0, 0.0, 0.0, 0.0, 0.0, 1.6450619653479955E9, 0.0, 2022-02-16 19:39:25.347
17.0, 787.7949660662562, 1047.9611064838246, 894.2549582049251, 1222.087108520791, 0.09600000455975533, 0.06400000303983688, 1.008000047877431, 0.0, 0.0, 0.0, 0.0, 0.0, 1.6450619653636549E9, 0.0, 2022-02-16 19:39:25.363
17.0, 842.7079171156511, 1052.4639460304752, 884.6658547185361, 1266.831271590665, 0.09600000455975533, 0.06400000303983688, 1.008000047877431, 0.0, 0.0, 0.0, 0.0, 0.0, 1.6450619653636549E9, 0.0, 2022-02-16 19:39:25.363
18.0, 842.2815685207024, 1058.111194963567, 894.2960971044376, 1282.5650307042524, 0.09600000455975533, 0.06400000303983688, 1.008000047877431, 0.0, 0.0, 0.0, 0.0, 0.0, 1.6450619653642895E9, 0.0, 2022-02-16 19:39:25.364
18.0, 820.6462472770363, 1078.4973896220326, 898.7914568511769, 1216.828809183091, 0.09600000455975533, 0.06400000303983688, 1.008000047877431, 0.0, 0.0, 0.0, 0.0, 0.0, 1.6450619653642895E9, 0.0, 2022-02-16 19:39:25.364
19.0, 818.3873477037996, 1078.6769048199058, 889.6062625600025, 1247.402491320856, 0.09600000455975533, 0.06400000303983688, 1.008000047877431, 0.0, 0.0, 0.0, 0.0, 0.0, 1.6450619653778872E9, 0.0, 2022-02-16 19:39:25.377
19.0, 743.9072400862351, 1085.7378359362483, 896.233365281485, 1268.749840267934, 0.09600000455975533, 0.06400000303983688, 1.008000047877431, 0.0, 0.0, 0.0, 0.0, 0.0, 1.6450619653778872E9, 0.0, 2022-02-16 19:39:25.377
20.0, 665.7882098117843, 1092.338759358041, 913.6949581746012, 1303.362614357844, 0.09600000455975533, 0.06400000303983688, 1.008000047877431, 0.0, 0.0, 0.0, 0.0, 0.0, 1.6450619653937097E9, 0.0, 2022-02-16 19:39:25.393
20.0, 816.9325266210362, 1066.275396566838, 897.2767973691225, 1355.5042995400727, 0.09600000455975533, 0.06400000303983688, 1.008000047877431, 0.0, 0.0, 0.0, 0.0, 0.0, 1.6450619653937097E9, 0.0, 2022-02-16 19:39:25.393
21.0, 744.3971669804305, 1068.0069702463225, 893.4845388140529, 1285.8299633655697, 0.09600000455975533, 0.06400000303983688, 1.008000047877431, 0.0, 0.0, 0.0, 0.0, 0.0, 1.645061965394337E9, 0.0, 2022-02-16 19:39:25.394
21.0, 771.4703027596697, 1084.185777454637, 904.1245541879907, 1228.2579434476793, 0.09600000455975533, 0.06400000303983688, 1.008000047877431, 0.0, 0.0, 0.0, 0.0, 0.0, 1.645061965394337E9, 0.0, 2022-02-16 19:39:25.394
22.0, 773.8862781310454, 1079.8100945064798, 903.2007988989353, 1277.7555193612352, 0.09600000455975533, 0.06400000303983688, 1.008000047877431, 0.0, 0.0, 0.0, 0.0, 0.0, 1.645061965424322E9, 0.0, 2022-02-16 19:39:25.424
22.0, 820.601368477568, 1072.4200521940365, 888.3870551744476, 1324.8408598033711, 0.09600000455975533, 0.06400000303983688, 1.008000047877431, 0.0, 0.0, 0.0, 0.0, 0.0, 1.645061965424322E9, 0.0, 2022-02-16 19:39:25.424
23.0, 763.9344043489546, 1059.0349502526224, 895.1076553948224, 1302.468778268434, 0.09600000455975533, 0.06400000303983688, 1.008000047877431, 0.0, 0.0, 0.0, 0.0, 0.0, 1.6450619654250476E9, 0.0, 2022-02-16 19:39:25.425
23.0, 754.6332731591538, 1087.6975435130298, 910.3140886146575, 1248.6254386063665, 0.09600000455975533, 0.06400000303983688, 1.008000047877431, 0.0, 0.0, 0.0, 0.0, 0.0, 1.6450619654250476E9, 0.0, 2022-02-16 19:39:25.425
24.0, 879.287878582254, 1078.5385285215452, 896.1473475825042, 1227.6670392546803, 0.09600000455975533, 0.06400000303983688, 1.008000047877431, 0.0, 0.0, 0.0, 0.0, 0.0, 1.6450619654259193E9, 0.0, 2022-02-16 19:39:25.425
24.0, 752.422992285341, 1078.7928417185321, 900.4893714310601, 1315.1657386180013, 0.09600000455975533, 0.06400000303983688, 1.008000047877431, 0.0, 0.0, 0.0, 0.0, 0.0, 1.6450619654259193E9, 0.0, 2022-02-16 19:39:25.425
25.0, 803.970033374615, 1086.6653311252594, 901.7908566156402, 1284.7079933788627, 0.09600000455975533, 0.06400000303983688, 1.008000047877431, 0.0, 0.0, 0.0, 0.0, 0.0, 1.6450619654379764E9, 0.0, 2022-02-16 19:39:25.437
25.0, 773.5309876352549, 1075.561568156816, 904.4424456842244, 1213.6947730202228, 0.09600000455975533, 0.06400000303983688, 1.008000047877431, 0.0, 0.0, 0.0, 0.0, 0.0, 1.6450619654379764E9, 0.0, 2022-02-16 19:39:25.437
26.0, 771.3693254608661, 1062.584115310572, 902.0302102128044, 1234.1482858778909, 0.09600000455975533, 0.06400000303983688, 1.008000047877431, 0.0, 0.0, 0.0, 0.0, 0.0, 1.645061965453622E9, 0.0, 2022-02-16 19:39:25.453
26.0, 746.6373670538887, 1071.6122338036075, 921.3019146844745, 1256.2735340157524, 0.09600000455975533, 0.06400000303983688, 1.008000047877431, 0.0, 0.0, 0.0, 0.0, 0.0, 1.645061965453622E9, 0.0, 2022-02-16 19:39:25.453
27.0, 702.9927345709875, 1075.8794596530497, 914.2297638682649, 1317.3236608924344, 0.09600000455975533, 0.06400000303983688, 1.008000047877431, 0.0, 0.0, 0.0, 0.0, 0.0, 1.6450619654543471E9, 0.0, 2022-02-16 19:39:25.454
27.0, 729.1608145609498, 1072.6257466915995, 910.3888866137713, 1295.172233454883, 0.09600000455975533, 0.06400000303983688, 1.008000047877431, 0.0, 0.0, 0.0, 0.0, 0.0, 1.6450619654543471E9, 0.0, 2022-02-16 19:39:25.454
28.0, 764.7945813387632, 1076.7882553422824, 922.6594983683899, 1285.34377637133, 0.09600000455975533, 0.06400000303983688, 1.008000047877431, 0.0, 0.0, 0.0, 0.0, 0.0, 1.64506196546794E9, 0.0, 2022-02-16 19:39:25.467
28.0, 736.1693870779127, 1086.8111872235313, 932.1513644559309, 1292.5617832858115, 0.09600000455975533, 0.06400000303983688, 1.008000047877431, 0.0, 0.0, 0.0, 0.0, 0.0, 1.64506196546794E9, 0.0, 2022-02-16 19:39:25.467
29.0, 828.4140194850042, 1070.5501022161916, 923.478536458686, 1206.6188823040575, 0.09600000455975533, 0.06400000303983688, 1.008000047877431, 0.0, 0.0, 0.0, 0.0, 0.0, 1.645061965483663E9, 0.0, 2022-02-16 19:39:25.483
29.0, 750.9719111025333, 1057.6848463686183, 924.7351428437978, 1285.1268621739, 0.09600000455975533, 0.06400000303983688, 1.008000047877431, 0.0, 0.0, 0.0, 0.0, 0.0, 1.645061965483663E9, 0.0, 2022-02-16 19:39:25.483
30.0, 711.0896179750562, 1080.4795365985483, 944.3658777112141, 1257.5189207009971, 0.09600000455975533, 0.06400000303983688, 1.008000047877431, 0.0, 0.0, 0.0, 0.0, 0.0, 1.6450619654843845E9, 0.0, 2022-02-16 19:39:25.484
30.0, 804.2692253710702, 1060.4074935363606, 935.4836153164506, 1267.9308021776378, 0.09600000455975533, 0.06400000303983688, 1.008000047877431, 0.0, 0.0, 0.0, 0.0, 0.0, 1.6450619654843845E9, 0.0, 2022-02-16 19:39:25.484
31.0, 842.3189675202593, 1056.0392903881148, 918.0930805224925, 1409.2279624035582, 0.09600000455975533, 0.0800000037997961, 1.008000047877431, 0.0, 0.0, 0.0, 0.0, 0.0, 1.6450619654978383E9, 0.0, 2022-02-16 19:39:25.497
31.0, 743.7501642880961, 1078.385192623362, 949.9308488452807, 1313.7071776352823, 0.09600000455975533, 0.0800000037997961, 1.008000047877431, 0.0, 0.0, 0.0, 0.0, 0.0, 1.6450619654978383E9, 0.0, 2022-02-16 19:39:25.497
32.0, 803.6596216782928, 1082.4093249756843, 943.8946503167972, 1249.2687013987452, 0.09600000455975533, 0.0800000037997961, 1.008000047877431, 0.0, 0.0, 0.0, 0.0, 0.0, 1.6450619655137E9, 0.0, 2022-02-16 19:39:25.513
32.0, 832.8532807324082, 1059.7567509440705, 936.4223302053288, 1228.7403905419633, 0.09600000455975533, 0.0800000037997961, 1.008000047877431, 0.0, 0.0, 0.0, 0.0, 0.0, 1.6450619655137E9, 0.0, 2022-02-16 19:39:25.513
33.0, 787.2526805726811, 1071.0923877097666, 944.1414837138727, 1273.5630915109068, 0.09600000455975533, 0.0800000037997961, 1.008000047877431, 0.0, 0.0, 0.0, 0.0, 0.0, 1.6450619655143733E9, 0.0, 2022-02-16 19:39:25.514
33.0, 704.5148738529533, 1063.0590826049447, 953.3378977049142, 1293.5304173743352, 0.09600000455975533, 0.0800000037997961, 1.008000047877431, 0.0, 0.0, 0.0, 0.0, 0.0, 1.6450619655143733E9, 0.0, 2022-02-16 19:39:25.514
34.0, 777.9515493828803, 1063.0478629050776, 935.6369512146339, 1290.0448306156322, 0.09600000455975533, 0.0800000037997961, 1.008000047877431, 0.0, 0.0, 0.0, 0.0, 0.0, 1.6450619655279796E9, 0.0, 2022-02-16 19:39:25.527
34.0, 770.3894716724753, 1063.8594211954623, 945.8281785938889, 1257.1075317058712, 0.09600000455975533, 0.0800000037997961, 1.008000047877431, 0.0, 0.0, 0.0, 0.0, 0.0, 1.6450619655279796E9, 0.0, 2022-02-16 19:39:25.527
35.0, 767.124539011158, 1078.516089121811, 960.3950889213011, 1293.6351345730945, 0.09600000455975533, 0.0800000037997961, 1.008000047877431, 0.0, 0.0, 0.0, 0.0, 0.0, 1.6450619655600533E9, 0.0, 2022-02-16 19:39:25.560
35.0, 766.4924959186465, 1083.5686939619482, 951.8868165221065, 1224.2225913954899, 0.09600000455975533, 0.0800000037997961, 1.008000047877431, 0.0, 0.0, 0.0, 0.0, 0.0, 1.6450619655600533E9, 0.0, 2022-02-16 19:39:25.560
36.0, 790.4689945345744, 1059.7193519445136, 937.4882016927004, 1275.4741803882644, 0.09600000455975533, 0.0800000037997961, 1.008000047877431, 0.0, 0.0, 0.0, 0.0, 0.0, 1.6450619655608125E9, 0.0, 2022-02-16 19:39:25.560
36.0, 739.1463474426419, 1067.5507024517283, 941.3589981468394, 1315.7229837113991, 0.09600000455975533, 0.0800000037997961, 1.008000047877431, 0.0, 0.0, 0.0, 0.0, 0.0, 1.6450619655608125E9, 0.0, 2022-02-16 19:39:25.560
37.0, 799.9646005220711, 1059.5248771468177, 932.2186826551333, 1324.2499556103721, 0.09600000455975533, 0.0800000037997961, 1.008000047877431, 0.0, 0.0, 0.0, 0.0, 0.0, 1.6450619655615244E9, 0.0, 2022-02-16 19:39:25.561
37.0, 785.4350891942158, 1049.4832457657903, 922.7342963675037, 1261.6028914526105, 0.09600000455975533, 0.0800000037997961, 1.008000047877431, 0.0, 0.0, 0.0, 0.0, 0.0, 1.6450619655615244E9, 0.0, 2022-02-16 19:39:25.561
38.0, 703.9800681592897, 1068.9008063357323, 943.5393598210067, 1232.0763813024387, 0.09600000455975533, 0.0800000037997961, 1.008000047877431, 0.0, 0.0, 0.0, 0.0, 0.0, 1.6450619655623662E9, 0.0, 2022-02-16 19:39:25.562
38.0, 755.4186521498486, 1062.4008602127433, 950.9443617332727, 1308.0524489022791, 0.09600000455975533, 0.0800000037997961, 1.008000047877431, 0.0, 0.0, 0.0, 0.0, 0.0, 1.6450619655623662E9, 0.0, 2022-02-16 19:39:25.562
39.0, 850.5205681230873, 1063.1413604039699, 948.3862701635808, 1247.0845998246223, 0.09600000455975533, 0.0800000037997961, 1.008000047877431, 0.0, 0.0, 0.0, 0.0, 0.0, 1.6450619655729382E9, 0.0, 2022-02-16 19:39:25.572
39.0, 763.7661088509485, 1065.3292018780485, 958.6410758420825, 1247.402491320856, 0.09600000455975533, 0.0800000037997961, 1.008000047877431, 0.0, 0.0, 0.0, 0.0, 0.0, 1.6450619655729382E9, 0.0, 2022-02-16 19:39:25.572
40.0, 671.4990370441228, 1072.5434688925743, 969.4755660137162, 1275.5938571868464, 0.09600000455975533, 0.0800000037997961, 1.008000047877431, 0.0, 0.0, 0.0, 0.0, 0.0, 1.6450619656207523E9, 0.0, 2022-02-16 19:39:25.620
40.0, 738.4133270513266, 1058.8516951547936, 961.2926649106666, 1253.6331646470353, 0.09600000455975533, 0.0800000037997961, 1.008000047877431, 0.0, 0.0, 0.0, 0.0, 0.0, 1.6450619656207523E9, 0.0, 2022-02-16 19:39:25.620
41.0, 751.1402066005394, 1035.8625301271677, 952.8255314109847, 1253.408770649694, 0.09600000455975533, 0.06400000303983688, 1.008000047877431, 0.0, 0.0, 0.0, 0.0, 0.0, 1.6450619656214523E9, 0.0, 2022-02-16 19:39:25.621
41.0, 725.2451393073425, 1056.5703561818227, 968.6378284236416, 1275.6985743856058, 0.09600000455975533, 0.06400000303983688, 1.008000047877431, 0.0, 0.0, 0.0, 0.0, 0.0, 1.6450619656214523E9, 0.0, 2022-02-16 19:39:25.621
42.0, 741.8428153106943, 1054.6667471043766, 968.1179823298007, 1234.4325182745233, 0.09600000455975533, 0.06400000303983688, 1.008000047877431, 0.0, 0.0, 0.0, 0.0, 0.0, 1.64506196562227E9, 0.0, 2022-02-16 19:39:25.622
42.0, 744.5505028786138, 1045.9939191071317, 962.1154429009184, 1270.9264620421454, 0.09600000455975533, 0.06400000303983688, 1.008000047877431, 0.0, 0.0, 0.0, 0.0, 0.0, 1.64506196562227E9, 0.0, 2022-02-16 19:39:25.622
43.0, 741.5024844147265, 1082.6823376724496, 968.7425456224009, 1360.0033991867676, 0.09600000455975533, 0.06400000303983688, 1.008000047877431, 0.0, 0.0, 0.0, 0.0, 0.0, 1.6450619656229548E9, 0.0, 2022-02-16 19:39:25.622
43.0, 747.7256779409945, 1094.739775129594, 975.7211989397183, 1276.3530568778515, 0.09600000455975533, 0.06400000303983688, 1.008000047877431, 0.0, 0.0, 0.0, 0.0, 0.0, 1.6450619656229548E9, 0.0, 2022-02-16 19:39:25.622
44.0, 709.4328422946855, 1071.6159737035632, 963.8582362802699, 1229.5220296327025, 0.09600000455975533, 0.06400000303983688, 1.008000047877431, 0.0, 0.0, 0.0, 0.0, 0.0, 1.6450619656336107E9, 0.0, 2022-02-16 19:39:25.633
44.0, 703.0899719698355, 1044.0454312302172, 967.7851312337443, 1402.7242763806134, 0.09600000455975533, 0.06400000303983688, 1.008000047877431, 0.0, 0.0, 0.0, 0.0, 0.0, 1.6450619656336107E9, 0.0, 2022-02-16 19:39:25.633
45.0, 761.7203835751861, 1070.6922184145078, 975.036797247827, 1319.077673971653, 0.09600000455975533, 0.06400000303983688, 1.008000047877431, 0.0, 0.0, 0.0, 0.0, 0.0, 1.645061965634366E9, 0.0, 2022-02-16 19:39:25.634
45.0, 768.1305720992386, 1086.8972049225122, 975.036797247827, 1262.4705482423306, 0.09600000455975533, 0.06400000303983688, 1.008000047877431, 0.0, 0.0, 0.0, 0.0, 0.0, 1.645061965634366E9, 0.0, 2022-02-16 19:39:25.634
46.0, 812.0182980792597, 1079.0658544152975, 975.5342039419338, 1206.8395364014432, 0.09600000455975533, 0.06400000303983688, 1.008000047877431, 0.0, 0.0, 0.0, 0.0, 0.0, 1.6450619656479871E9, 0.0, 2022-02-16 19:39:25.647
46.0, 703.2208684682846, 1085.0609140442684, 980.175419786945, 1268.4057694720104, 0.09600000455975533, 0.06400000303983688, 1.008000047877431, 0.0, 0.0, 0.0, 0.0, 0.0, 1.6450619656479871E9, 0.0, 2022-02-16 19:39:25.647
47.0, 697.0949123408645, 1074.6490325676277, 987.6776590980589, 1247.7465621167794, 0.09600000455975533, 0.06400000303983688, 1.008000047877431, 0.0, 0.0, 0.0, 0.0, 0.0, 1.6450619656636176E9, 0.0, 2022-02-16 19:39:25.663
47.0, 702.794519873336, 1057.2734573734924, 980.0594828883186, 1282.4341342058033, 0.09600000455975533, 0.06400000303983688, 1.008000047877431, 0.0, 0.0, 0.0, 0.0, 0.0, 1.6450619656636176E9, 0.0, 2022-02-16 19:39:25.663
48.0, 692.289140897803, 1072.2180975964293, 980.2090788865462, 1300.0378432972357, 0.09600000455975533, 0.06400000303983688, 1.008000047877431, 0.0, 0.0, 0.0, 0.0, 0.0, 1.6450619656643062E9, 0.0, 2022-02-16 19:39:25.664
48.0, 726.72239978984, 1085.0010756449774, 984.2369511388242, 1245.207170046866, 0.09600000455975533, 0.06400000303983688, 1.008000047877431, 0.0, 0.0, 0.0, 0.0, 0.0, 1.6450619656643062E9, 0.0, 2022-02-16 19:39:25.664
49.0, 674.1281867129728, 1059.4425993477926, 979.6854928927496, 1186.3598442440853, 0.09600000455975533, 0.06400000303983688, 1.008000047877431, 0.0, 0.0, 0.0, 0.0, 0.0, 1.645061965677869E9, 0.0, 2022-02-16 19:39:25.677
49.0, 671.8505876399577, 1059.0947886519134, 991.4325186535716, 1210.773911154829, 0.09600000455975533, 0.06400000303983688, 1.008000047877431, 0.0, 0.0, 0.0, 0.0, 0.0, 1.645061965677869E9, 0.0, 2022-02-16 19:39:25.677
50.0, 665.5077173151076, 1066.8476012600586, 985.4898176239803, 1341.9621218005195, 0.09600000455975533, 0.06400000303983688, 1.008000047877431, 0.0, 0.0, 0.0, 0.0, 0.0, 1.6450619656934896E9, 0.0, 2022-02-16 19:39:25.693
50.0, 769.3647390846163, 1061.7014989210293, 984.3154890378937, 1340.9523488124833, 0.09600000455975533, 0.06400000303983688, 1.008000047877431, 0.0, 0.0, 0.0, 0.0, 0.0, 1.6450619656934896E9, 0.0, 2022-02-16 19:39:25.693
51.0, 705.7565206382424, 1074.536835568957, 993.7362970262766, 1209.9997518640012, 0.09600000455975533, 0.06400000303983688, 1.008000047877431, 0.0, 0.0, 0.0, 0.0, 0.0, 1.6450619656943076E9, 0.0, 2022-02-16 19:39:25.694
51.0, 641.5087792994455, 1088.5016220035031, 1002.2071704259142, 1200.8519565723836, 0.09600000455975533, 0.06400000303983688, 1.008000047877431, 0.0, 0.0, 0.0, 0.0, 0.0, 1.6450619656943076E9, 0.0, 2022-02-16 19:39:25.694
52.0, 743.3873939923942, 1076.9789902400225, 1000.5990134449676, 1271.5510253347456, 0.09600000455975533, 0.06400000303983688, 1.008000047877431, 0.0, 0.0, 0.0, 0.0, 0.0, 1.6450619657079196E9, 0.0, 2022-02-16 19:39:25.707
52.0, 746.1100411601365, 1070.5052234167233, 984.8615144314244, 1217.4084936762229, 0.09600000455975533, 0.06400000303983688, 1.008000047877431, 0.0, 0.0, 0.0, 0.0, 0.0, 1.6450619657079196E9, 0.0, 2022-02-16 19:39:25.707
53.0, 802.9004219872877, 1068.410879441537, 991.7017914503813, 1279.7825451372191, 0.09600000455975533, 0.06400000303983688, 1.008000047877431, 0.0, 0.0, 0.0, 0.0, 0.0, 1.6450619657236023E9, 0.0, 2022-02-16 19:39:25.723
53.0, 653.3306030593812, 1086.6840306250378, 996.0961738983169, 1343.222468085587, 0.09600000455975533, 0.06400000303983688, 1.008000047877431, 0.0, 0.0, 0.0, 0.0, 0.0, 1.6450619657236023E9, 0.0, 2022-02-16 19:39:25.723
54.0, 746.3755740569904, 1072.0872010979801, 990.6957583623007, 1142.5282167633995, 0.09600000455975533, 0.06400000303983688, 1.008000047877431, 0.0, 0.0, 0.0, 0.0, 0.0, 1.6450619657243237E9, 0.0, 2022-02-16 19:39:25.724
54.0, 660.7580443713814, 1078.553488121368, 995.1312797097489, 1257.5750192003325, 0.09600000455975533, 0.06400000303983688, 1.008000047877431, 0.0, 0.0, 0.0, 0.0, 0.0, 1.6450619657243237E9, 0.0, 2022-02-16 19:39:25.724
55.0, 712.1966283619404, 1098.4235765859485, 1006.1789441788569, 1245.2969276458025, 0.09600000455975533, 0.06400000303983688, 1.008000047877431, 0.0, 0.0, 0.0, 0.0, 0.0, 1.6450619657378733E9, 0.0, 2022-02-16 19:39:25.737
55.0, 697.1884098397568, 1084.9075781460851, 989.9365586712956, 1288.1561811380088, 0.09600000455975533, 0.06400000303983688, 1.008000047877431, 0.0, 0.0, 0.0, 0.0, 0.0, 1.6450619657378733E9, 0.0, 2022-02-16 19:39:25.737
56.0, 728.5212916685268, 1069.5852080276236, 978.6084017055109, 1380.5204903436825, 0.09600000455975533, 0.06400000303983688, 1.008000047877431, 0.0, 0.0, 0.0, 0.0, 0.0, 1.6450619657683337E9, 0.0, 2022-02-16 19:39:25.768
56.0, 775.2363820150495, 1103.723014823161, 995.5576283046976, 1309.742883682251, 0.09600000455975533, 0.06400000303983688, 1.008000047877431, 0.0, 0.0, 0.0, 0.0, 0.0, 1.6450619657683337E9, 0.0, 2022-02-16 19:39:25.768
57.0, 753.0886944774538, 1091.5720798671246, 976.6225148290396, 1494.6996359908953, 0.09600000455975533, 0.06400000303983688, 1.008000047877431, 0.0, 0.0, 0.0, 0.0, 0.0, 1.6450619657850847E9, 0.0, 2022-02-16 19:39:25.785
57.0, 796.4752738634124, 1080.8497866941616, 973.0097714718431, 1592.961767426692, 0.09600000455975533, 0.06400000303983688, 1.008000047877431, 0.0, 0.0, 0.0, 0.0, 0.0, 1.6450619657850847E9, 0.0, 2022-02-16 19:39:25.785
58.0, 865.4278093464673, 1084.3914719522, 977.2508180215955, 1632.627146356739, 0.09600000455975533, 0.06400000303983688, 1.008000047877431, 0.0, 0.0, 0.0, 0.0, 0.0, 1.6450619657857857E9, 0.0, 2022-02-16 19:39:25.785
58.0, 887.0481709903106, 1088.9878089977428, 966.5958430478349, 1639.5571809746325, 0.09600000455975533, 0.06400000303983688, 1.008000047877431, 0.0, 0.0, 0.0, 0.0, 0.0, 1.6450619657857857E9, 0.0, 2022-02-16 19:39:25.785
59.0, 843.2801218088716, 1078.9499175166711, 950.0879246434197, 1560.518135311082, 0.09600000455975533, 0.06400000303983688, 1.008000047877431, 0.0, 0.0, 0.0, 0.0, 0.0, 1.6450619657865558E9, 0.0, 2022-02-16 19:39:25.786
59.0, 820.0329036843032, 1069.9143192237243, 945.0353198032826, 1435.280105494894, 0.09600000455975533, 0.06400000303983688, 1.008000047877431, 0.0, 0.0, 0.0, 0.0, 0.0, 1.6450619657865558E9, 0.0, 2022-02-16 19:39:25.786
60.0, 892.7066396232694, 1082.4878628747538, 955.1442693835124, 1678.2931947656907, 0.09600000455975533, 0.06400000303983688, 1.008000047877431, 0.0, 0.0, 0.0, 0.0, 0.0, 1.6450619657872016E9, 0.0, 2022-02-16 19:39:25.787
60.0, 812.7251391708851, 1084.570987150073, 961.2851851107553, 1517.1072465754114, 0.09600000455975533, 0.06400000303983688, 1.008000047877431, 0.0, 0.0, 0.0, 0.0, 0.0, 1.6450619657872016E9, 0.0, 2022-02-16 19:39:25.787
61.0, 845.1538116866723, 1093.0829994492233, 943.9507488161325, 1538.8884239173494, 0.09600000455975533, 0.0800000037997961, 1.008000047877431, 0.0, 0.0, 0.0, 0.0, 0.0, 1.645061965797878E9, 0.0, 2022-02-16 19:39:25.797
61.0, 784.0962050100788, 1094.9080706276, 937.3049465948716, 1692.497334797401, 0.09600000455975533, 0.0800000037997961, 1.008000047877431, 0.0, 0.0, 0.0, 0.0, 0.0, 1.645061965797878E9, 0.0, 2022-02-16 19:39:25.797
62.0, 745.391980368644, 1103.3116258280352, 948.7378207594156, 1889.375018214807, 0.09600000455975533, 0.0800000037997961, 1.008000047877431, 0.0, 0.0, 0.0, 0.0, 0.0, 1.6450619658135753E9, 0.0, 2022-02-16 19:39:25.813
62.0, 792.6979749081656, 1090.2780744824558, 936.298913506791, 2008.483352003619, 0.09600000455975533, 0.0800000037997961, 1.008000047877431, 0.0, 0.0, 0.0, 0.0, 0.0, 1.6450619658135753E9, 0.0, 2022-02-16 19:39:25.813
63.0, 742.2916033053771, 1092.8735650517046, 951.6175437252969, 2005.0052450448275, 0.09600000455975533, 0.0800000037997961, 1.008000047877431, 0.0, 0.0, 0.0, 0.0, 0.0, 1.645061965814273E9, 0.0, 2022-02-16 19:39:25.814
63.0, 706.6092178281397, 1103.7529340228066, 965.1933805644512, 2142.607384114526, 0.09600000455975533, 0.0800000037997961, 1.008000047877431, 0.0, 0.0, 0.0, 0.0, 0.0, 1.645061965814273E9, 0.0, 2022-02-16 19:39:25.814
64.0, 754.0199295664206, 1091.5758197670802, 956.2026610709727, 2179.0115702832118, 0.09600000455975533, 0.0800000037997961, 1.008000047877431, 0.0, 0.0, 0.0, 0.0, 0.0, 1.6450619658279135E9, 0.0, 2022-02-16 19:39:25.827
64.0, 727.747132377699, 1090.1621375838295, 942.1144579378888, 2285.235948724672, 0.09600000455975533, 0.0800000037997961, 1.008000047877431, 0.0, 0.0, 0.0, 0.0, 0.0, 1.6450619658279135E9, 0.0, 2022-02-16 19:39:25.827
65.0, 713.9095025416464, 1098.4721952853724, 954.7814990878105, 2205.0412739748135, 0.09600000455975533, 0.0800000037997961, 1.008000047877431, 0.0, 0.0, 0.0, 0.0, 0.0, 1.6450619658436787E9, 0.0, 2022-02-16 19:39:25.843
65.0, 791.4488483229652, 1104.9197828089818, 946.6958353836089, 2184.183851921931, 0.09600000455975533, 0.0800000037997961, 1.008000047877431, 0.0, 0.0, 0.0, 0.0, 0.0, 1.6450619658436787E9, 0.0, 2022-02-16 19:39:25.843
66.0, 794.6801218846813, 1088.3034073058516, 931.5791597627103, 2201.0508007220924, 0.09600000455975533, 0.0800000037997961, 1.008000047877431, 0.0, 0.0, 0.0, 0.0, 0.0, 1.6450619658443415E9, 0.0, 2022-02-16 19:39:25.844
66.0, 695.4792755600065, 1093.6552041424438, 944.0218069152907, 2215.9094232460484, 0.09600000455975533, 0.0800000037997961, 1.008000047877431, 0.0, 0.0, 0.0, 0.0, 0.0, 1.6450619658443415E9, 0.0, 2022-02-16 19:39:25.844
67.0, 789.3021457483992, 1086.4484169278294, 933.9539962345734, 2289.690169571899, 0.09600000455975533, 0.0800000037997961, 1.008000047877431, 0.0, 0.0, 0.0, 0.0, 0.0, 1.6450619658579557E9, 0.0, 2022-02-16 19:39:25.857
67.0, 806.4757663449273, 1082.3382668765262, 926.3993983240798, 2256.1769260689616, 0.09600000455975533, 0.0800000037997961, 1.008000047877431, 0.0, 0.0, 0.0, 0.0, 0.0, 1.6450619658579557E9, 0.0, 2022-02-16 19:39:25.857
68.0, 705.6592832393944, 1086.8111872235313, 942.8661778289825, 2196.8882920714095, 0.09600000455975533, 0.0800000037997961, 1.008000047877431, 0.0, 0.0, 0.0, 0.0, 0.0, 1.6450619658736148E9, 0.0, 2022-02-16 19:39:25.873
68.0, 770.6213454697281, 1099.05561967846, 950.7760662352666, 2145.6554025784135, 0.09600000455975533, 0.0800000037997961, 1.008000047877431, 0.0, 0.0, 0.0, 0.0, 0.0, 1.6450619658736148E9, 0.0, 2022-02-16 19:39:25.873
69.0, 812.2651314763352, 1082.0166354803368, 935.5808527152985, 2201.320073518902, 0.09600000455975533, 0.0800000037997961, 1.008000047877431, 0.0, 0.0, 0.0, 0.0, 0.0, 1.6450619658744507E9, 0.0, 2022-02-16 19:39:25.874
69.0, 769.9369437778369, 1086.983222621493, 932.1700639557093, 2233.823544033803, 0.09600000455975533, 0.0800000037997961, 1.008000047877431, 0.0, 0.0, 0.0, 0.0, 0.0, 1.6450619658744507E9, 0.0, 2022-02-16 19:39:25.874
70.0, 766.7655086154118, 1071.8141884012148, 930.4871089756489, 2167.7731709163636, 0.09600000455975533, 0.0800000037997961, 1.008000047877431, 0.0, 0.0, 0.0, 0.0, 0.0, 1.6450619658879204E9, 0.0, 2022-02-16 19:39:25.887
70.0, 790.8392446301877, 1072.004923298955, 919.9293714007363, 2134.491801210679, 0.09600000455975533, 0.0800000037997961, 1.008000047877431, 0.0, 0.0, 0.0, 0.0, 0.0, 1.6450619658879204E9, 0.0, 2022-02-16 19:39:25.887
71.0, 753.967570967041, 1086.5456543266773, 915.9426380479708, 2218.9088230105117, 0.09600000455975533, 0.06400000303983688, 1.008000047877431, 0.0, 0.0, 0.0, 0.0, 0.0, 1.6450619659035964E9, 0.0, 2022-02-16 19:39:25.903
