%OpenBCI Raw EEG Data
%Number of channels = 4
%Sample Rate = 200 Hz
%Board = OpenBCI_GUI$BoardGanglionBLE
Sample Index, EXG Channel 0, EXG Channel 1, EXG Channel 2, EXG Channel 3, Accel Channel 0, Accel Channel 1, Accel Channel 2, Other, Other, Other, Other, Other, Timestamp, Other, Timestamp (Formatted)
72.0, 12.644601750187576, 15.127895320765674, 3.1265563629567623, -0.3702500956133008, 0.5120000243186951, 0.0, 0.0, 0.0, 0.0, 0.0, 0.0, 0.0, 1.636075168924688E9, 0.0, 2021-11-04 20:19:28.924
72.0, 70.18857241841033, -178.5615233844146, 65.22946507716551, -203.353320190683, 0.5120000243186951, 0.0, 0.0, 0.0, 0.0, 0.0, 0.0, 0.0, 1.636075168924688E9, 0.0, 2021-11-04 20:19:28.924
0.0, 845.2828382351436, 654.0636234506965, 435.9994067843072, 1166.932933924254, 0.5120000243186951, 0.0, 0.0, 0.0, 0.0, 0.0, 0.0, 0.0, 1.636075168952044E9, 0.0, 2021-11-04 20:19:28.952
1.0, 852.3362895515747, 642.5821305867285, 424.1401840248145, 1161.4240612895228, 0.5120000243186951, 0.49600002355873585, 0.0, 0.0, 0.0, 0.0, 0.0, 0.0, 1.6360751689654336E9, 0.0, 2021-11-04 20:19:28.965
1.0, 859.460798967164, 652.6686407672241, 442.7050474048592, 1166.7085399269126, 0.5120000243186951, 0.49600002355873585, 0.0, 0.0, 0.0, 0.0, 0.0, 0.0, 1.6360751689654336E9, 0.0, 2021-11-04 20:19:28.965
2.0, 865.8074091919698, 649.4785061050206, 454.06312357028946, 1183.7400443251245, 0.5120000243186951, 0.49600002355873585, 0.0, 0.0, 0.0, 0.0, 0.0, 0.0, 1.6360751689827805E9, 0.0, 2021-11-04 20:19:28.982
2.0, 851.5583903607912, 641.1385292038321, 407.5499878213741, 1148.8168585388921, 0.5120000243186951, 0.49600002355873585, 0.0, 0.0, 0.0, 0.0, 0.0, 0.0, 1.6360751689827805E9, 0.0, 2021-11-04 20:19:28.982
3.0, 856.99994479632, 639.5154126230627, 406.8506265296601, 1166.7721182261594, 0.5120000243186951, 0.49600002355873585, 0.0, 0.0, 0.0, 0.0, 0.0, 0.0, 1.6360751689835737E9, 0.0, 2021-11-04 20:19:28.983
3.0, 858.8362356745638, 643.1318958802149, 428.5570058724843, 1184.4655849165283, 0.5120000243186951, 0.49600002355873585, 0.0, 0.0, 0.0, 0.0, 0.0, 0.0, 1.6360751689835737E9, 0.0, 2021-11-04 20:19:28.983
4.0, 845.7278863298707, 656.5095180217177, 436.13030328275636, 1164.4272009539418, 0.5120000243186951, 0.49600002355873585, 0.0, 0.0, 0.0, 0.0, 0.0, 0.0, 1.636075169028132E9, 0.0, 2021-11-04 20:19:29.028
4.0, 857.0298639959656, 634.6759820804, 423.72131522977725, 1136.9688554792665, 0.5120000243186951, 0.49600002355873585, 0.0, 0.0, 0.0, 0.0, 0.0, 0.0, 1.636075169028132E9, 0.0, 2021-11-04 20:19:29.028
5.0, 867.2210913752206, 641.3891025008634, 427.487394485157, 1152.7063544928096, 0.5120000243186951, 0.49600002355873585, 0.0, 0.0, 0.0, 0.0, 0.0, 0.0, 1.63607516902886E9, 0.0, 2021-11-04 20:19:29.028
5.0, 863.8589213150553, 638.1391294393688, 427.4051166861318, 1151.2515334100462, 0.5120000243186951, 0.49600002355873585, 0.0, 0.0, 0.0, 0.0, 0.0, 0.0, 1.63607516902886E9, 0.0, 2021-11-04 20:19:29.028
6.0, 864.8724342030473, 626.3434849791229, 388.5363364466466, 1105.1198674566112, 0.5120000243186951, 0.49600002355873585, 0.0, 0.0, 0.0, 0.0, 0.0, 0.0, 1.636075169029522E9, 0.0, 2021-11-04 20:19:29.029
6.0, 868.5487558594905, 624.4398759016767, 416.6304649137892, 1151.797558803577, 0.5120000243186951, 0.49600002355873585, 0.0, 0.0, 0.0, 0.0, 0.0, 0.0, 1.636075169029522E9, 0.0, 2021-11-04 20:19:29.029
7.0, 851.5583903607912, 631.4035696191713, 391.15426641562954, 1152.594157494139, 0.5120000243186951, 0.49600002355873585, 0.0, 0.0, 0.0, 0.0, 0.0, 0.0, 1.6360751690303428E9, 0.0, 2021-11-04 20:19:29.030
7.0, 859.2551044696011, 638.4682406354696, 395.5710882632993, 1126.856165999081, 0.5120000243186951, 0.49600002355873585, 0.0, 0.0, 0.0, 0.0, 0.0, 0.0, 1.6360751690303428E9, 0.0, 2021-11-04 20:19:29.030
8.0, 863.6046081180684, 619.0880790650845, 408.4251244110055, 1130.7307023531757, 0.5120000243186951, 0.49600002355873585, 0.0, 0.0, 0.0, 0.0, 0.0, 0.0, 1.6360751690721471E9, 0.0, 2021-11-04 20:19:29.072
8.0, 867.1462933761068, 630.2479405328631, 400.60499360365793, 1138.8986438564025, 0.5120000243186951, 0.49600002355873585, 0.0, 0.0, 0.0, 0.0, 0.0, 0.0, 1.6360751690721471E9, 0.0, 2021-11-04 20:19:29.072
9.0, 875.4152121781372, 637.8922960422933, 398.7911421251483, 1133.464569220785, 0.5120000243186951, 0.49600002355873585, 0.0, 0.0, 0.0, 0.0, 0.0, 0.0, 1.6360751690732625E9, 0.0, 2021-11-04 20:19:29.073
9.0, 874.8691867846064, 620.5840390473604, 393.5403225873597, 1080.253272651229, 0.5120000243186951, 0.49600002355873585, 0.0, 0.0, 0.0, 0.0, 0.0, 0.0, 1.6360751690732625E9, 0.0, 2021-11-04 20:19:29.073
10.0, 875.3030151794665, 642.3839158890769, 400.7358901021071, 1147.7622067513876, 0.5120000243186951, 0.49600002355873585, 0.7520000357180834, 0.0, 0.0, 0.0, 0.0, 0.0, 1.636075169088395E9, 0.0, 2021-11-04 20:19:29.088
10.0, 882.6556584923528, 645.8134041484445, 404.101800062228, 1168.0362044111826, 0.5120000243186951, 0.49600002355873585, 0.7520000357180834, 0.0, 0.0, 0.0, 0.0, 0.0, 1.636075169088395E9, 0.0, 2021-11-04 20:19:29.088
11.0, 882.7491559912451, 641.9800066938624, 440.36013013264164, 1179.59623517422, 0.5120000243186951, 0.2400000113993883, 0.7520000357180834, 0.0, 0.0, 0.0, 0.0, 0.0, 1.6360751690891197E9, 0.0, 2021-11-04 20:19:29.089
11.0, 891.8595522833057, 644.4072017651051, 439.7729658395983, 1165.1901405449025, 0.5120000243186951, 0.2400000113993883, 0.7520000357180834, 0.0, 0.0, 0.0, 0.0, 0.0, 1.6360751690891197E9, 0.0, 2021-11-04 20:19:29.089
12.0, 885.0117954644375, 641.3778828009963, 443.1126965000294, 1173.3169431486167, 0.25600001215934753, 0.2400000113993883, 0.7520000357180834, 0.0, 0.0, 0.0, 0.0, 0.0, 1.6360751690898829E9, 0.0, 2021-11-04 20:19:29.089
12.0, 894.1371513563208, 653.659714255482, 401.08370079798624, 1160.7546191974543, 0.25600001215934753, 0.2400000113993883, 0.7520000357180834, 0.0, 0.0, 0.0, 0.0, 0.0, 1.6360751690898829E9, 0.0, 2021-11-04 20:19:29.089
13.0, 895.9771821345203, 656.8087100181729, 424.79840641701594, 1157.5457850354724, 0.25600001215934753, 0.2400000113993883, 0.7520000357180834, 0.0, 0.0, 0.0, 0.0, 0.0, 1.6360751690906608E9, 0.0, 2021-11-04 20:19:29.090
13.0, 898.9317030995153, 667.5010839914903, 446.2392528629862, 1153.992880077567, 0.25600001215934753, 0.2400000113993883, 0.7520000357180834, 0.0, 0.0, 0.0, 0.0, 0.0, 1.6360751690906608E9, 0.0, 2021-11-04 20:19:29.090
14.0, 883.014688888099, 648.9362206114456, 412.4829158629291, 1139.2352348524146, 0.25600001215934753, 0.2400000113993883, 0.7520000357180834, 0.0, 0.0, 0.0, 0.0, 0.0, 1.6360751691011891E9, 0.0, 2021-11-04 20:19:29.101
14.0, 902.7501409542747, 653.6896334551275, 422.61056494293734, 1151.0271394127049, 0.25600001215934753, 0.2400000113993883, 0.7520000357180834, 0.0, 0.0, 0.0, 0.0, 0.0, 1.6360751691011891E9, 0.0, 2021-11-04 20:19:29.101
15.0, 902.5444464567117, 650.282584595494, 416.90347761055455, 1172.7447384553961, 0.25600001215934753, 0.2400000113993883, 0.7520000357180834, 0.0, 0.0, 0.0, 0.0, 0.0, 1.6360751691016035E9, 0.0, 2021-11-04 20:19:29.101
15.0, 897.6302179149352, 652.1562744732946, 426.61225789552554, 1168.765484902542, 0.25600001215934753, 0.2400000113993883, 0.7520000357180834, 0.0, 0.0, 0.0, 0.0, 0.0, 1.6360751691016035E9, 0.0, 2021-11-04 20:19:29.101
16.0, 894.7243156493641, 656.516997821629, 422.9172367393039, 1154.2135341749527, 0.25600001215934753, 0.2400000113993883, 0.7520000357180834, 0.0, 0.0, 0.0, 0.0, 0.0, 1.6360751691152022E9, 0.0, 2021-11-04 20:19:29.115
16.0, 899.791880089324, 650.6977134905756, 430.72614784678444, 1152.7699327920564, 0.25600001215934753, 0.2400000113993883, 0.7520000357180834, 0.0, 0.0, 0.0, 0.0, 0.0, 1.6360751691152022E9, 0.0, 2021-11-04 20:19:29.115
17.0, 900.2780670835637, 660.1895795781165, 426.5262401965447, 1157.0633379411884, 0.25600001215934753, 0.2400000113993883, 0.7520000357180834, 0.0, 0.0, 0.0, 0.0, 0.0, 1.636075169130922E9, 0.0, 2021-11-04 20:19:29.130
17.0, 902.0171205629595, 674.1094872131944, 440.0796376359649, 1134.5042614084668, 0.25600001215934753, 0.2400000113993883, 0.7520000357180834, 0.0, 0.0, 0.0, 0.0, 0.0, 1.636075169130922E9, 0.0, 2021-11-04 20:19:29.130
18.0, 912.5112798386253, 669.7076249653473, 422.97333523863927, 1165.0480243465863, 0.25600001215934753, 0.2400000113993883, 0.7520000357180834, 0.0, 0.0, 0.0, 0.0, 0.0, 1.6360751691316764E9, 0.0, 2021-11-04 20:19:29.131
18.0, 900.3154660831206, 674.4535580091178, 427.1807226887904, 1168.3989747068845, 0.25600001215934753, 0.2400000113993883, 0.7520000357180834, 0.0, 0.0, 0.0, 0.0, 0.0, 1.6360751691316764E9, 0.0, 2021-11-04 20:19:29.131
19.0, 900.5585595802404, 684.7195833874866, 445.3379369736649, 1150.8850232143886, 0.25600001215934753, 0.2400000113993883, 0.7520000357180834, 0.0, 0.0, 0.0, 0.0, 0.0, 1.63607516916159E9, 0.0, 2021-11-04 20:19:29.161
19.0, 894.8626919477247, 687.670364452526, 455.757298250217, 1148.1100174472667, 0.25600001215934753, 0.2400000113993883, 0.7520000357180834, 0.0, 0.0, 0.0, 0.0, 0.0, 1.63607516916159E9, 0.0, 2021-11-04 20:19:29.161
20.0, 886.874265642371, 671.6374133424833, 442.6676484053023, 1185.0527492095716, 0.25600001215934753, 0.2400000113993883, 0.3840000182390213, 0.0, 0.0, 0.0, 0.0, 0.0, 1.6360751692220871E9, 0.0, 2021-11-04 20:19:29.222
20.0, 890.9769358937629, 665.3132425174117, 447.20788695150986, 1193.1384129137732, 0.25600001215934753, 0.2400000113993883, 0.3840000182390213, 0.0, 0.0, 0.0, 0.0, 0.0, 1.6360751692220871E9, 0.0, 2021-11-04 20:19:29.222
21.0, 894.5560201513581, 679.2929885517806, 461.3858476835303, 1175.6618604208343, 0.25600001215934753, 0.3680000174790621, 0.3840000182390213, 0.0, 0.0, 0.0, 0.0, 0.0, 1.6360751692228706E9, 0.0, 2021-11-04 20:19:29.222
21.0, 895.4161971411668, 686.1482251705602, 449.02921822993085, 1178.2236918904819, 0.25600001215934753, 0.3680000174790621, 0.3840000182390213, 0.0, 0.0, 0.0, 0.0, 0.0, 1.6360751692228706E9, 0.0, 2021-11-04 20:19:29.222
22.0, 882.8987519894727, 677.8680866686627, 443.4979061954655, 1184.2860697186552, 0.3840000182390213, 0.3680000174790621, 0.3840000182390213, 0.0, 0.0, 0.0, 0.0, 0.0, 1.6360751692235916E9, 0.0, 2021-11-04 20:19:29.223
22.0, 870.676758934278, 679.2630693521351, 424.39449722180143, 1153.6936880811118, 0.3840000182390213, 0.3680000174790621, 0.3840000182390213, 0.0, 0.0, 0.0, 0.0, 0.0, 1.6360751692235916E9, 0.0, 2021-11-04 20:19:29.223
23.0, 880.3817993192933, 662.5157973505557, 425.86801780434325, 1160.8481166963466, 0.3840000182390213, 0.3680000174790621, 0.3840000182390213, 0.0, 0.0, 0.0, 0.0, 0.0, 1.636075169236403E9, 0.0, 2021-11-04 20:19:29.236
23.0, 877.3898793547414, 663.6826461367309, 431.09265804244205, 1154.329471073579, 0.3840000182390213, 0.3680000174790621, 0.3840000182390213, 0.0, 0.0, 0.0, 0.0, 0.0, 1.636075169236403E9, 0.0, 2021-11-04 20:19:29.236
24.0, 874.6223533875309, 667.8675941871479, 427.0760054900311, 1143.558559201192, 0.3840000182390213, 0.3680000174790621, 0.3840000182390213, 0.0, 0.0, 0.0, 0.0, 0.0, 1.6360751692370732E9, 0.0, 2021-11-04 20:19:29.237
24.0, 874.0314491945319, 651.9879789752886, 414.9662094335072, 1151.532025906723, 0.3840000182390213, 0.3680000174790621, 0.3840000182390213, 0.0, 0.0, 0.0, 0.0, 0.0, 1.6360751692370732E9, 0.0, 2021-11-04 20:19:29.237
25.0, 867.7484172689728, 654.2954972479492, 429.8846703567542, 1150.4773741192184, 0.3840000182390213, 0.3680000174790621, 0.3840000182390213, 0.0, 0.0, 0.0, 0.0, 0.0, 1.63607516925298E9, 0.0, 2021-11-04 20:19:29.252
25.0, 882.0647542993538, 668.2191447829828, 429.2152282646857, 1134.743615005631, 0.3840000182390213, 0.3680000174790621, 0.3840000182390213, 0.0, 0.0, 0.0, 0.0, 0.0, 1.63607516925298E9, 0.0, 2021-11-04 20:19:29.252
26.0, 869.6183672468178, 681.9258781205863, 417.139091307763, 1153.3196980855428, 0.3840000182390213, 0.3680000174790621, 0.3840000182390213, 0.0, 0.0, 0.0, 0.0, 0.0, 1.6360751692536807E9, 0.0, 2021-11-04 20:19:29.253
26.0, 860.95675894944, 672.6958050299436, 411.85835257032886, 1145.4696480785497, 0.3840000182390213, 0.3680000174790621, 0.3840000182390213, 0.0, 0.0, 0.0, 0.0, 0.0, 1.6360751692536807E9, 0.0, 2021-11-04 20:19:29.253
28.0, 864.2329113106243, 689.491695730947, 406.2148435371928, 1151.8386977030896, 0.3840000182390213, 0.3680000174790621, 0.3840000182390213, 0.0, 0.0, 0.0, 0.0, 0.0, 1.6360751692544272E9, 0.0, 2021-11-04 20:19:29.254
28.0, 861.5775823420845, 703.9576287595555, 427.2854398875497, 1151.6704022050835, 0.3840000182390213, 0.3680000174790621, 0.3840000182390213, 0.0, 0.0, 0.0, 0.0, 0.0, 1.6360751692544272E9, 0.0, 2021-11-04 20:19:29.254
29.0, 862.4190598321147, 710.5286329817027, 423.41838333336636, 1104.880513859447, 0.3840000182390213, 0.3680000174790621, 0.3840000182390213, 0.0, 0.0, 0.0, 0.0, 0.0, 1.6360751692551847E9, 0.0, 2021-11-04 20:19:29.255
29.0, 863.6868859170936, 687.2814148571342, 408.86643260577694, 1151.1393364113756, 0.3840000182390213, 0.3680000174790621, 0.3840000182390213, 0.0, 0.0, 0.0, 0.0, 0.0, 1.6360751692551847E9, 0.0, 2021-11-04 20:19:29.255
30.0, 857.6207681889646, 702.7795602735132, 430.441915450152, 1171.7611447670497, 0.3840000182390213, 0.3680000174790621, 0.5600000265985727, 0.0, 0.0, 0.0, 0.0, 0.0, 1.636075169282364E9, 0.0, 2021-11-04 20:19:29.282
30.0, 864.2927497099154, 697.4128038370982, 419.5139277796261, 1168.6794672035612, 0.3840000182390213, 0.3680000174790621, 0.5600000265985727, 0.0, 0.0, 0.0, 0.0, 0.0, 1.636075169282364E9, 0.0, 2021-11-04 20:19:29.282
31.0, 862.5761356302537, 690.8754587145522, 404.56554765673354, 1122.4692633510567, 0.3840000182390213, 0.43200002051889896, 0.5600000265985727, 0.0, 0.0, 0.0, 0.0, 0.0, 1.6360751692830677E9, 0.0, 2021-11-04 20:19:29.283
31.0, 870.8001756328158, 689.0429077362642, 423.6577369305305, 1158.5218989239074, 0.3840000182390213, 0.43200002051889896, 0.5600000265985727, 0.0, 0.0, 0.0, 0.0, 0.0, 1.6360751692830677E9, 0.0, 2021-11-04 20:19:29.283
32.0, 875.9687173715793, 686.0023690722883, 443.17253489932045, 1169.1207753983326, 0.4480000212788582, 0.43200002051889896, 0.5600000265985727, 0.0, 0.0, 0.0, 0.0, 0.0, 1.636075169283801E9, 0.0, 2021-11-04 20:19:29.283
32.0, 857.5422302898951, 693.1156587880105, 411.53672117413953, 1142.0625992189161, 0.4480000212788582, 0.43200002051889896, 0.5600000265985727, 0.0, 0.0, 0.0, 0.0, 0.0, 1.636075169283801E9, 0.0, 2021-11-04 20:19:29.283
33.0, 869.4500717488118, 666.2594372062013, 401.2931351955049, 1140.532980137039, 0.4480000212788582, 0.43200002051889896, 0.5600000265985727, 0.0, 0.0, 0.0, 0.0, 0.0, 1.6360751692845092E9, 0.0, 2021-11-04 20:19:29.284
33.0, 883.2054237858392, 686.5596141656861, 388.0651090522297, 1143.693195599597, 0.4480000212788582, 0.43200002051889896, 0.5600000265985727, 0.0, 0.0, 0.0, 0.0, 0.0, 1.6360751692845092E9, 0.0, 2021-11-04 20:19:29.284
34.0, 887.03134144051, 716.4040158120915, 394.8081486723386, 1148.4877473427914, 0.4480000212788582, 0.43200002051889896, 0.5600000265985727, 0.0, 0.0, 0.0, 0.0, 0.0, 1.6360751692952676E9, 0.0, 2021-11-04 20:19:29.295
34.0, 885.3035076609813, 718.2253470905125, 399.41570541774854, 1149.938828525599, 0.4480000212788582, 0.43200002051889896, 0.5600000265985727, 0.0, 0.0, 0.0, 0.0, 0.0, 1.6360751692952676E9, 0.0, 2021-11-04 20:19:29.295
35.0, 882.8688327898271, 707.5441928170621, 406.140045538079, 1140.847131733317, 0.4480000212788582, 0.43200002051889896, 0.5600000265985727, 0.0, 0.0, 0.0, 0.0, 0.0, 1.6360751693109677E9, 0.0, 2021-11-04 20:19:29.310
35.0, 890.4982286994345, 707.4656549179927, 414.8016538354568, 1131.112172148656, 0.4480000212788582, 0.43200002051889896, 0.5600000265985727, 0.0, 0.0, 0.0, 0.0, 0.0, 1.6360751693109677E9, 0.0, 2021-11-04 20:19:29.310
36.0, 885.4493637592532, 718.5581981865689, 392.3996531008743, 1128.2511486825533, 0.4480000212788582, 0.43200002051889896, 0.5600000265985727, 0.0, 0.0, 0.0, 0.0, 0.0, 1.6360751693116996E9, 0.0, 2021-11-04 20:19:29.311
36.0, 887.6895638327114, 714.1825152384117, 379.80367005011067, 1134.9081706036814, 0.4480000212788582, 0.43200002051889896, 0.5600000265985727, 0.0, 0.0, 0.0, 0.0, 0.0, 1.6360751693116996E9, 0.0, 2021-11-04 20:19:29.311
37.0, 885.5503410580568, 692.5359742948785, 372.21541304001585, 1135.8693248922937, 0.4480000212788582, 0.43200002051889896, 0.5600000265985727, 0.0, 0.0, 0.0, 0.0, 0.0, 1.6360751693252466E9, 0.0, 2021-11-04 20:19:29.325
37.0, 882.1507719983347, 690.9839158132672, 394.07512828102335, 1128.4194441805594, 0.4480000212788582, 0.43200002051889896, 0.5600000265985727, 0.0, 0.0, 0.0, 0.0, 0.0, 1.6360751693252466E9, 0.0, 2021-11-04 20:19:29.325
38.0, 886.3132806490175, 690.6996834166348, 392.81104209600016, 1149.721914328169, 0.4480000212788582, 0.43200002051889896, 0.5600000265985727, 0.0, 0.0, 0.0, 0.0, 0.0, 1.6360751693714323E9, 0.0, 2021-11-04 20:19:29.371
38.0, 873.3956662020646, 692.8987445905805, 380.0056246477179, 1131.2056696475483, 0.4480000212788582, 0.43200002051889896, 0.5600000265985727, 0.0, 0.0, 0.0, 0.0, 0.0, 1.6360751693714323E9, 0.0, 2021-11-04 20:19:29.371
39.0, 867.987770866137, 691.5374210067093, 411.7274560718797, 1140.6863160352223, 0.4480000212788582, 0.43200002051889896, 0.5600000265985727, 0.0, 0.0, 0.0, 0.0, 0.0, 1.6360751693720815E9, 0.0, 2021-11-04 20:19:29.372
39.0, 876.3763664667495, 703.1423305692151, 407.9202379169874, 1139.6541036474518, 0.4480000212788582, 0.43200002051889896, 0.5600000265985727, 0.0, 0.0, 0.0, 0.0, 0.0, 1.6360751693720815E9, 0.0, 2021-11-04 20:19:29.372
40.0, 875.3291944791563, 714.22739403788, 407.587386820931, 1142.7133418112062, 0.4480000212788582, 0.43200002051889896, 0.6560000311583281, 0.0, 0.0, 0.0, 0.0, 0.0, 1.636075169385785E9, 0.0, 2021-11-04 20:19:29.385
40.0, 870.2504103393294, 702.4093101778999, 380.5329505414702, 1142.6385438120924, 0.4480000212788582, 0.43200002051889896, 0.6560000311583281, 0.0, 0.0, 0.0, 0.0, 0.0, 1.636075169385785E9, 0.0, 2021-11-04 20:19:29.385
41.0, 863.7729036160745, 692.4873555954546, 387.0590759641491, 1151.8125184033997, 0.4480000212788582, 0.4640000220388174, 0.6560000311583281, 0.0, 0.0, 0.0, 0.0, 0.0, 1.636075169418634E9, 0.0, 2021-11-04 20:19:29.418
41.0, 860.7548043518327, 693.7925806799904, 395.8702802597545, 1153.1813217871822, 0.4480000212788582, 0.4640000220388174, 0.6560000311583281, 0.0, 0.0, 0.0, 0.0, 0.0, 1.636075169418634E9, 0.0, 2021-11-04 20:19:29.418
42.0, 854.0491637312807, 688.9531501373276, 394.8380678719841, 1160.6573817986064, 0.4800000227987766, 0.4640000220388174, 0.6560000311583281, 0.0, 0.0, 0.0, 0.0, 0.0, 1.6360751694193928E9, 0.0, 2021-11-04 20:19:29.419
42.0, 858.7464780756272, 687.1692178584635, 404.2551359604113, 1136.1161582893692, 0.4800000227987766, 0.4640000220388174, 0.6560000311583281, 0.0, 0.0, 0.0, 0.0, 0.0, 1.6360751694193928E9, 0.0, 2021-11-04 20:19:29.419
43.0, 843.8915954516269, 697.3342659380287, 404.82734065363184, 1128.3708254811354, 0.4800000227987766, 0.4640000220388174, 0.6560000311583281, 0.0, 0.0, 0.0, 0.0, 0.0, 1.6360751694201071E9, 0.0, 2021-11-04 20:19:29.420
43.0, 854.6961664236151, 698.6320112226531, 382.66843341616914, 1151.049578812439, 0.4800000227987766, 0.4640000220388174, 0.6560000311583281, 0.0, 0.0, 0.0, 0.0, 0.0, 1.6360751694201071E9, 0.0, 2021-11-04 20:19:29.420
44.0, 846.26643192349, 682.531741913408, 362.95542074972764, 1108.620413815137, 0.4800000227987766, 0.4640000220388174, 0.6560000311583281, 0.0, 0.0, 0.0, 0.0, 0.0, 1.6360751694208906E9, 0.0, 2021-11-04 20:19:29.420
44.0, 836.1911414428614, 669.0045237736776, 362.43557465588674, 1131.0747731490992, 0.4800000227987766, 0.4640000220388174, 0.6560000311583281, 0.0, 0.0, 0.0, 0.0, 0.0, 1.6360751694208906E9, 0.0, 2021-11-04 20:19:29.420
45.0, 838.9586674100719, 692.1619842993096, 379.8261094498448, 1141.6399905239232, 0.4800000227987766, 0.4640000220388174, 0.6560000311583281, 0.0, 0.0, 0.0, 0.0, 0.0, 1.6360751694779649E9, 0.0, 2021-11-04 20:19:29.477
45.0, 841.6027766787447, 703.8828307604417, 396.44248495297506, 1124.9188978220336, 0.4800000227987766, 0.4640000220388174, 0.6560000311583281, 0.0, 0.0, 0.0, 0.0, 0.0, 1.6360751694779649E9, 0.0, 2021-11-04 20:19:29.477
46.0, 837.4178286283277, 687.8685791501775, 407.03762152744457, 1110.1201136973687, 0.4800000227987766, 0.4640000220388174, 0.6560000311583281, 0.0, 0.0, 0.0, 0.0, 0.0, 1.6360751694787693E9, 0.0, 2021-11-04 20:19:29.478
46.0, 832.2904257890768, 707.1814225213602, 381.6025619287975, 1121.885838957969, 0.4800000227987766, 0.4640000220388174, 0.6560000311583281, 0.0, 0.0, 0.0, 0.0, 0.0, 1.6360751694787693E9, 0.0, 2021-11-04 20:19:29.478
47.0, 840.8099178881384, 700.4234233014286, 365.62570931809023, 1115.6589055317454, 0.4800000227987766, 0.4640000220388174, 0.6560000311583281, 0.0, 0.0, 0.0, 0.0, 0.0, 1.6360751694793797E9, 0.0, 2021-11-04 20:19:29.479
47.0, 828.0867782388814, 684.6373055884615, 356.1151437307708, 1103.1638997797854, 0.4800000227987766, 0.4640000220388174, 0.6560000311583281, 0.0, 0.0, 0.0, 0.0, 0.0, 1.6360751694793797E9, 0.0, 2021-11-04 20:19:29.479
48.0, 832.578398085665, 690.142438323237, 388.1623464510776, 1066.8345116102137, 0.4800000227987766, 0.4640000220388174, 0.6560000311583281, 0.0, 0.0, 0.0, 0.0, 0.0, 1.636075169480198E9, 0.0, 2021-11-04 20:19:29.480
48.0, 822.9331960999407, 687.1355587588623, 403.67171156732365, 1147.2834995570593, 0.4800000227987766, 0.4640000220388174, 0.6560000311583281, 0.0, 0.0, 0.0, 0.0, 0.0, 1.636075169480198E9, 0.0, 2021-11-04 20:19:29.480
49.0, 825.8278786656447, 681.2713956283405, 403.26780237210914, 1151.434788507875, 0.4800000227987766, 0.4640000220388174, 0.6560000311583281, 0.0, 0.0, 0.0, 0.0, 0.0, 1.636075169490706E9, 0.0, 2021-11-04 20:19:29.490
49.0, 824.8966435766779, 680.2242236407474, 362.9965596492402, 1125.517281814944, 0.4800000227987766, 0.4640000220388174, 0.6560000311583281, 0.0, 0.0, 0.0, 0.0, 0.0, 1.636075169490706E9, 0.0, 2021-11-04 20:19:29.490
50.0, 827.1331037501805, 672.1086407369003, 362.7833853517659, 1134.0592133137397, 0.4800000227987766, 0.4640000220388174, 0.7040000334382057, 0.0, 0.0, 0.0, 0.0, 0.0, 1.636075169508146E9, 0.0, 2021-11-04 20:19:29.508
50.0, 820.8463319246657, 672.4901105323806, 397.7626696373336, 1156.7604060447775, 0.4800000227987766, 0.4640000220388174, 0.7040000334382057, 0.0, 0.0, 0.0, 0.0, 0.0, 1.636075169508146E9, 0.0, 2021-11-04 20:19:29.508
51.0, 823.2660471959971, 685.1160127827898, 397.9496646351181, 1150.795265615452, 0.4800000227987766, 0.4800000227987766, 0.7040000334382057, 0.0, 0.0, 0.0, 0.0, 0.0, 1.636075169508742E9, 0.0, 2021-11-04 20:19:29.508
51.0, 823.3146658954211, 681.1965976292267, 394.55383547535166, 1127.6789439893328, 0.4800000227987766, 0.4800000227987766, 0.7040000334382057, 0.0, 0.0, 0.0, 0.0, 0.0, 1.636075169508742E9, 0.0, 2021-11-04 20:19:29.508
54.0, 822.0057009109296, 678.1149200657383, 398.00202323449776, 1108.0444692219608, 0.4800000227987766, 0.4800000227987766, 0.7040000334382057, 0.0, 0.0, 0.0, 0.0, 0.0, 1.6360751695094907E9, 0.0, 2021-11-04 20:19:29.509
54.0, 820.4499025293626, 688.5791601417586, 379.5605765529908, 1073.270879433956, 0.4800000227987766, 0.4800000227987766, 0.7040000334382057, 0.0, 0.0, 0.0, 0.0, 0.0, 1.6360751695094907E9, 0.0, 2021-11-04 20:19:29.509
55.0, 823.0304334987886, 679.999829643406, 407.8790990174748, 1095.4484861711971, 0.4800000227987766, 0.4800000227987766, 0.7040000334382057, 0.0, 0.0, 0.0, 0.0, 0.0, 1.636075169510209E9, 0.0, 2021-11-04 20:19:29.510
55.0, 822.761160701979, 673.3652471220121, 408.6158593087457, 1088.3239767556079, 0.4800000227987766, 0.4800000227987766, 0.7040000334382057, 0.0, 0.0, 0.0, 0.0, 0.0, 1.636075169510209E9, 0.0, 2021-11-04 20:19:29.510
56.0, 819.6944427383132, 677.3370208749548, 384.99465118860826, 1086.5811833762564, 0.4800000227987766, 0.4800000227987766, 0.7040000334382057, 0.0, 0.0, 0.0, 0.0, 0.0, 1.636075169537992E9, 0.0, 2021-11-04 20:19:29.537
56.0, 826.7516339547001, 681.2788754282519, 410.5045087863691, 1094.8089632787742, 0.4800000227987766, 0.4800000227987766, 0.7040000334382057, 0.0, 0.0, 0.0, 0.0, 0.0, 1.636075169537992E9, 0.0, 2021-11-04 20:19:29.537
57.0, 825.6633230675943, 701.1227845931426, 419.1361978841014, 1088.8438228494488, 0.4800000227987766, 0.4800000227987766, 0.7040000334382057, 0.0, 0.0, 0.0, 0.0, 0.0, 1.6360751695387332E9, 0.0, 2021-11-04 20:19:29.538
57.0, 825.3117724717595, 689.9442236255854, 414.27806784166023, 1099.6035150219686, 0.4800000227987766, 0.4800000227987766, 0.7040000334382057, 0.0, 0.0, 0.0, 0.0, 0.0, 1.6360751695387332E9, 0.0, 2021-11-04 20:19:29.538
58.0, 826.9760279520415, 685.534881577827, 399.5690413159318, 1109.862060600426, 0.4800000227987766, 0.4800000227987766, 0.7040000334382057, 0.0, 0.0, 0.0, 0.0, 0.0, 1.6360751695395293E9, 0.0, 2021-11-04 20:19:29.539
58.0, 831.396589699667, 681.0357819311321, 377.2044395809062, 1136.2956734872423, 0.4800000227987766, 0.4800000227987766, 0.7040000334382057, 0.0, 0.0, 0.0, 0.0, 0.0, 1.6360751695395293E9, 0.0, 2021-11-04 20:19:29.539
59.0, 834.9345350577496, 683.9267245968804, 432.9588681203313, 1126.0558274085633, 0.4800000227987766, 0.4800000227987766, 0.7040000334382057, 0.0, 0.0, 0.0, 0.0, 0.0, 1.63607516954023E9, 0.0, 2021-11-04 20:19:29.540
59.0, 842.6162895667367, 680.3999989386648, 415.57581312628463, 1095.3213295727037, 0.4800000227987766, 0.4800000227987766, 0.7040000334382057, 0.0, 0.0, 0.0, 0.0, 0.0, 1.63607516954023E9, 0.0, 2021-11-04 20:19:29.540
60.0, 845.735366129782, 692.3265398973599, 405.5715807448141, 1135.5663929958828, 0.4800000227987766, 0.4800000227987766, 0.7200000341981649, 0.0, 0.0, 0.0, 0.0, 0.0, 1.636075169550218E9, 0.0, 2021-11-04 20:19:29.550
60.0, 850.3204834754579, 687.8124806508422, 420.3329658699222, 1152.134149799589, 0.4800000227987766, 0.4800000227987766, 0.7200000341981649, 0.0, 0.0, 0.0, 0.0, 0.0, 1.636075169550218E9, 0.0, 2021-11-04 20:19:29.550
61.0, 859.509417666588, 695.292280562222, 427.50235408497974, 1118.3591132997535, 0.4800000227987766, 0.4800000227987766, 0.7200000341981649, 0.0, 0.0, 0.0, 0.0, 0.0, 1.6360751695652075E9, 0.0, 2021-11-04 20:19:29.565
61.0, 856.0313107077964, 702.1400373810902, 460.3536352957599, 1127.3086938937195, 0.4800000227987766, 0.4800000227987766, 0.7200000341981649, 0.0, 0.0, 0.0, 0.0, 0.0, 1.6360751695652075E9, 0.0, 2021-11-04 20:19:29.565
62.0, 850.9375669681467, 693.8561589792371, 430.23996085254475, 1151.0084399129264, 0.5120000243186951, 0.4800000227987766, 0.7200000341981649, 0.0, 0.0, 0.0, 0.0, 0.0, 1.636075169580719E9, 0.0, 2021-11-04 20:19:29.580
62.0, 862.9239463261329, 693.7701412802562, 440.4798069312237, 1139.2838535518385, 0.5120000243186951, 0.4800000227987766, 0.7200000341981649, 0.0, 0.0, 0.0, 0.0, 0.0, 1.636075169580719E9, 0.0, 2021-11-04 20:19:29.580
63.0, 858.4435461792164, 716.9762205053121, 434.2940124045126, 1138.8238458572887, 0.5120000243186951, 0.4800000227987766, 0.7200000341981649, 0.0, 0.0, 0.0, 0.0, 0.0, 1.6360751695959048E9, 0.0, 2021-11-04 20:19:29.595
63.0, 872.8421610086225, 711.5122266700491, 434.5221463018097, 1122.8656927463599, 0.5120000243186951, 0.4800000227987766, 0.7200000341981649, 0.0, 0.0, 0.0, 0.0, 0.0, 1.6360751695959048E9, 0.0, 2021-11-04 20:19:29.595
64.0, 880.7258701152168, 720.8432770594954, 426.4851012970321, 1140.0916719422676, 0.5120000243186951, 0.4800000227987766, 0.7200000341981649, 0.0, 0.0, 0.0, 0.0, 0.0, 1.6360751695966198E9, 0.0, 2021-11-04 20:19:29.596
64.0, 877.154265657533, 711.2504336731508, 419.3755514812656, 1125.1732110190205, 0.5120000243186951, 0.4800000227987766, 0.7200000341981649, 0.0, 0.0, 0.0, 0.0, 0.0, 1.6360751695966198E9, 0.0, 2021-11-04 20:19:29.596
65.0, 877.2776823560707, 707.9032232128084, 441.91592851420864, 1121.0032225684263, 0.5120000243186951, 0.4800000227987766, 0.7200000341981649, 0.0, 0.0, 0.0, 0.0, 0.0, 1.6360751696114929E9, 0.0, 2021-11-04 20:19:29.611
65.0, 874.3231613910757, 717.4586675995961, 444.43662108434364, 1126.36249920493, 0.5120000243186951, 0.4800000227987766, 0.7200000341981649, 0.0, 0.0, 0.0, 0.0, 0.0, 1.6360751696114929E9, 0.0, 2021-11-04 20:19:29.611
66.0, 871.4022995256819, 704.4999142531306, 448.3448165380396, 1125.9922491093166, 0.5120000243186951, 0.4800000227987766, 0.7200000341981649, 0.0, 0.0, 0.0, 0.0, 0.0, 1.6360751696434536E9, 0.0, 2021-11-04 20:19:29.643
66.0, 864.0608759126626, 698.2542813271284, 436.2985987807624, 1125.7267162124626, 0.5120000243186951, 0.4800000227987766, 0.7200000341981649, 0.0, 0.0, 0.0, 0.0, 0.0, 1.6360751696434536E9, 0.0, 2021-11-04 20:19:29.643
67.0, 880.6248928164132, 723.5060858279467, 431.57136523677036, 1116.941691216547, 0.5120000243186951, 0.4800000227987766, 0.7200000341981649, 0.0, 0.0, 0.0, 0.0, 0.0, 1.6360751696440957E9, 0.0, 2021-11-04 20:19:29.644
67.0, 879.9591906243004, 705.2441543443128, 412.20242336625233, 1115.9356581284665, 0.5120000243186951, 0.4800000227987766, 0.7200000341981649, 0.0, 0.0, 0.0, 0.0, 0.0, 1.6360751696440957E9, 0.0, 2021-11-04 20:19:29.644
68.0, 869.4650313486345, 692.5920727942139, 432.2894260282628, 1123.7146500363015, 0.5120000243186951, 0.4800000227987766, 0.7200000341981649, 0.0, 0.0, 0.0, 0.0, 0.0, 1.6360751696449032E9, 0.0, 2021-11-04 20:19:29.644
68.0, 878.8260009377263, 709.2009684974328, 429.7874329579063, 1124.0849001319148, 0.5120000243186951, 0.4800000227987766, 0.7200000341981649, 0.0, 0.0, 0.0, 0.0, 0.0, 1.6360751696449032E9, 0.0, 2021-11-04 20:19:29.644
69.0, 881.133519210387, 710.8240850782022, 409.92856419319287, 1121.6016065613367, 0.5120000243186951, 0.4800000227987766, 0.7200000341981649, 0.0, 0.0, 0.0, 0.0, 0.0, 1.636075169655942E9, 0.0, 2021-11-04 20:19:29.655
69.0, 870.7291175336577, 690.5837465180084, 431.61250413628295, 1139.736381446477, 0.5120000243186951, 0.4800000227987766, 0.7200000341981649, 0.0, 0.0, 0.0, 0.0, 0.0, 1.636075169655942E9, 0.0, 2021-11-04 20:19:29.655
70.0, 871.787509221118, 703.6546968631446, 452.03609779430553, 1134.0816527134739, 0.5120000243186951, 0.4800000227987766, 0.7360000349581242, 0.0, 0.0, 0.0, 0.0, 0.0, 1.6360751696567285E9, 0.0, 2021-11-04 20:19:29.656
70.0, 881.3130344082601, 702.805739573203, 442.83594390330836, 1119.365146387834, 0.5120000243186951, 0.4800000227987766, 0.7360000349581242, 0.0, 0.0, 0.0, 0.0, 0.0, 1.6360751696567285E9, 0.0, 2021-11-04 20:19:29.656
71.0, 880.2284634211101, 700.3261859025806, 426.5598992961459, 1120.0981667791493, 0.5120000243186951, 0.49600002355873585, 0.7360000349581242, 0.0, 0.0, 0.0, 0.0, 0.0, 1.6360751696878E9, 0.0, 2021-11-04 20:19:29.687
71.0, 879.566501128953, 695.0005683656782, 443.75969919236377, 1127.5779666905291, 0.5120000243186951, 0.49600002355873585, 0.7360000349581242, 0.0, 0.0, 0.0, 0.0, 0.0, 1.6360751696878E9, 0.0, 2021-11-04 20:19:29.687
72.0, 879.6973976274021, 692.240522198379, 411.2487488775514, 1131.9648693385534, 0.5120000243186951, 0.49600002355873585, 0.7360000349581242, 0.0, 0.0, 0.0, 0.0, 0.0, 1.6360751696884508E9, 0.0, 2021-11-04 20:19:29.688
72.0, 872.7224842100404, 707.5591524168849, 431.9229158326052, 1125.4537035156973, 0.5120000243186951, 0.49600002355873585, 0.7360000349581242, 0.0, 0.0, 0.0, 0.0, 0.0, 1.6360751696884508E9, 0.0, 2021-11-04 20:19:29.688
73.0, 873.0815146057867, 696.8705183435231, 420.8789912634529, 1114.0096096512862, 0.5120000243186951, 0.49600002355873585, 0.7360000349581242, 0.0, 0.0, 0.0, 0.0, 0.0, 1.6360751696891904E9, 0.0, 2021-11-04 20:19:29.689
73.0, 862.7032922287472, 701.0143274944276, 421.52973385574296, 1104.8244153601117, 0.5120000243186951, 0.49600002355873585, 0.7360000349581242, 0.0, 0.0, 0.0, 0.0, 0.0, 1.6360751696891904E9, 0.0, 2021-11-04 20:19:29.689
74.0, 852.9421533443965, 702.7907799733803, 440.6032236297615, 1104.3793672653846, 0.5120000243186951, 0.49600002355873585, 0.7360000349581242, 0.0, 0.0, 0.0, 0.0, 0.0, 1.6360751697172651E9, 0.0, 2021-11-04 20:19:29.717
74.0, 866.708725081291, 686.2641620691866, 426.87031099246815, 1069.3739036801271, 0.5120000243186951, 0.49600002355873585, 0.7360000349581242, 0.0, 0.0, 0.0, 0.0, 0.0, 1.6360751697172651E9, 0.0, 2021-11-04 20:19:29.717
75.0, 884.4844695706852, 691.1858704108745, 418.71358918910846, 1099.7905100197531, 0.5120000243186951, 0.49600002355873585, 0.7360000349581242, 0.0, 0.0, 0.0, 0.0, 0.0, 1.6360751697180011E9, 0.0, 2021-11-04 20:19:29.718
75.0, 873.1226535052992, 709.126170498319, 414.75303513603285, 1113.8450540532358, 0.5120000243186951, 0.49600002355873585, 0.7360000349581242, 0.0, 0.0, 0.0, 0.0, 0.0, 1.6360751697180011E9, 0.0, 2021-11-04 20:19:29.718
76.0, 869.0349428537302, 715.6934348205104, 423.31366613460705, 1099.0275704287924, 0.5120000243186951, 0.49600002355873585, 0.7360000349581242, 0.0, 0.0, 0.0, 0.0, 0.0, 1.6360751697187283E9, 0.0, 2021-11-04 20:19:29.718
76.0, 862.6023149299435, 722.1597218438983, 431.1786757414229, 1092.3219298082404, 0.5120000243186951, 0.49600002355873585, 0.7360000349581242, 0.0, 0.0, 0.0, 0.0, 0.0, 1.6360751697187283E9, 0.0, 2021-11-04 20:19:29.718
77.0, 869.8764203437604, 705.6106645399705, 416.5893260142766, 1105.400359953288, 0.5120000243186951, 0.49600002355873585, 0.7360000349581242, 0.0, 0.0, 0.0, 0.0, 0.0, 1.636075169719572E9, 0.0, 2021-11-04 20:19:29.719
77.0, 861.2035923465155, 713.528032746166, 399.1352129210718, 1082.5346116242, 0.5120000243186951, 0.49600002355873585, 0.7360000349581242, 0.0, 0.0, 0.0, 0.0, 0.0, 1.636075169719572E9, 0.0, 2021-11-04 20:19:29.719
78.0, 852.489625449758, 711.7403605673462, 394.4266788768582, 1077.6877012816258, 0.5120000243186951, 0.49600002355873585, 0.7360000349581242, 0.0, 0.0, 0.0, 0.0, 0.0, 1.6360751697775729E9, 0.0, 2021-11-04 20:19:29.777
78.0, 857.9199601854198, 717.0846776040271, 396.1283333566971, 1092.0339575116523, 0.5120000243186951, 0.49600002355873585, 0.7360000349581242, 0.0, 0.0, 0.0, 0.0, 0.0, 1.6360751697775729E9, 0.0, 2021-11-04 20:19:29.777
79.0, 867.4754045722075, 719.1790215792134, 381.0228774356656, 1079.4155350611545, 0.5120000243186951, 0.49600002355873585, 0.7360000349581242, 0.0, 0.0, 0.0, 0.0, 0.0, 1.6360751697782884E9, 0.0, 2021-11-04 20:19:29.778
79.0, 856.4426997029223, 722.3915956411511, 373.98812561901286, 1071.6702022529207, 0.5120000243186951, 0.49600002355873585, 0.7360000349581242, 0.0, 0.0, 0.0, 0.0, 0.0, 1.6360751697782884E9, 0.0, 2021-11-04 20:19:29.778
80.0, 860.6052083536051, 726.7373593896627, 400.93410479975864, 1092.1536343102343, 0.5120000243186951, 0.49600002355873585, 0.7360000349581242, 0.0, 0.0, 0.0, 0.0, 0.0, 1.6360751698237023E9, 0.0, 2021-11-04 20:19:29.823
80.0, 869.5099101481028, 731.438413633965, 396.4649243527092, 1108.2239844198339, 0.5120000243186951, 0.49600002355873585, 0.7360000349581242, 0.0, 0.0, 0.0, 0.0, 0.0, 1.6360751698237023E9, 0.0, 2021-11-04 20:19:29.823
81.0, 861.9179132380523, 722.814204336144, 369.17113447608426, 1098.8891941304319, 0.5120000243186951, 0.4800000227987766, 0.7360000349581242, 0.0, 0.0, 0.0, 0.0, 0.0, 1.6360751698244064E9, 0.0, 2021-11-04 20:19:29.824
81.0, 854.3558355276473, 724.6056164149195, 382.6759132160805, 1106.039882845711, 0.5120000243186951, 0.4800000227987766, 0.7360000349581242, 0.0, 0.0, 0.0, 0.0, 0.0, 1.6360751698244064E9, 0.0, 2021-11-04 20:19:29.824
82.0, 848.8619224927388, 729.1196756614372, 376.2993837916292, 1109.3609140063636, 0.5120000243186951, 0.4800000227987766, 0.7360000349581242, 0.0, 0.0, 0.0, 0.0, 0.0, 1.6360751698251584E9, 0.0, 2021-11-04 20:19:29.825
82.0, 854.3633153275587, 716.4152355119586, 395.7580832610838, 1086.584923276212, 0.5120000243186951, 0.4800000227987766, 0.7360000349581242, 0.0, 0.0, 0.0, 0.0, 0.0, 1.6360751698251584E9, 0.0, 2021-11-04 20:19:29.825
83.0, 840.0207989974879, 724.6205760147423, 394.73709057318047, 1068.977474284824, 0.5120000243186951, 0.4800000227987766, 0.7360000349581242, 0.0, 0.0, 0.0, 0.0, 0.0, 1.6360751698259892E9, 0.0, 2021-11-04 20:19:29.825
83.0, 835.9443080457859, 720.3870092649013, 394.18732527969405, 1069.7927724751644, 0.5120000243186951, 0.4800000227987766, 0.7360000349581242, 0.0, 0.0, 0.0, 0.0, 0.0, 1.6360751698259892E9, 0.0, 2021-11-04 20:19:29.825
84.0, 843.5101256561466, 719.3921958766878, 409.56579389749095, 1069.6319567770697, 0.5120000243186951, 0.4800000227987766, 0.7360000349581242, 0.0, 0.0, 0.0, 0.0, 0.0, 1.6360751698356829E9, 0.0, 2021-11-04 20:19:29.835
84.0, 838.7828921121545, 725.6527884025127, 388.59991474589333, 1088.8961814488284, 0.5120000243186951, 0.4800000227987766, 0.7360000349581242, 0.0, 0.0, 0.0, 0.0, 0.0, 1.6360751698356829E9, 0.0, 2021-11-04 20:19:29.835
85.0, 837.72824032465, 719.4034155765548, 386.1689797746949, 1079.0415450655855, 0.5120000243186951, 0.4800000227987766, 0.7360000349581242, 0.0, 0.0, 0.0, 0.0, 0.0, 1.636075169850669E9, 0.0, 2021-11-04 20:19:29.850
85.0, 838.3079248177819, 708.9915340999141, 387.4555053594522, 1101.2565508023836, 0.5120000243186951, 0.4800000227987766, 0.7360000349581242, 0.0, 0.0, 0.0, 0.0, 0.0, 1.636075169850669E9, 0.0, 2021-11-04 20:19:29.850
86.0, 837.0662780324928, 729.2617918597534, 385.4583987831138, 1087.7592518622987, 0.5120000243186951, 0.4800000227987766, 0.7360000349581242, 0.0, 0.0, 0.0, 0.0, 0.0, 1.6360751698684661E9, 0.0, 2021-11-04 20:19:29.868
86.0, 829.2461472251453, 722.4589138403535, 380.4656323422678, 1085.1039228937589, 0.5120000243186951, 0.4800000227987766, 0.7360000349581242, 0.0, 0.0, 0.0, 0.0, 0.0, 1.6360751698684661E9, 0.0, 2021-11-04 20:19:29.868
88.0, 841.8982287752442, 730.2528653480113, 356.68734842399135, 1058.84608530486, 0.5120000243186951, 0.4800000227987766, 0.7360000349581242, 0.0, 0.0, 0.0, 0.0, 0.0, 1.6360751698692343E9, 0.0, 2021-11-04 20:19:29.869
88.0, 845.9448005273007, 735.1446544900537, 367.1927273995243, 1070.1256235712208, 0.5120000243186951, 0.4800000227987766, 0.7360000349581242, 0.0, 0.0, 0.0, 0.0, 0.0, 1.6360751698692343E9, 0.0, 2021-11-04 20:19:29.869
89.0, 836.6997678368352, 711.5084867700934, 361.57913756603375, 1075.406362308655, 0.5120000243186951, 0.4800000227987766, 0.7360000349581242, 0.0, 0.0, 0.0, 0.0, 0.0, 1.6360751698699045E9, 0.0, 2021-11-04 20:19:29.869
89.0, 830.8730037058704, 697.4801220363006, 337.93922994611785, 1076.4348347964697, 0.5120000243186951, 0.4800000227987766, 0.7360000349581242, 0.0, 0.0, 0.0, 0.0, 0.0, 1.6360751698699045E9, 0.0, 2021-11-04 20:19:29.869
90.0, 832.8701102822088, 713.6402297448367, 346.114651249256, 1050.6744039016776, 0.5120000243186951, 0.4800000227987766, 0.7360000349581242, 0.0, 0.0, 0.0, 0.0, 0.0, 1.6360751698706305E9, 0.0, 2021-11-04 20:19:29.870
90.0, 832.0099332924001, 714.2012147381902, 360.50204637879506, 1089.371148743201, 0.5120000243186951, 0.4800000227987766, 0.7360000349581242, 0.0, 0.0, 0.0, 0.0, 0.0, 1.6360751698706305E9, 0.0, 2021-11-04 20:19:29.870
91.0, 828.8833769294433, 704.0548661584035, 356.257259929087, 1071.4046693560667, 0.5120000243186951, 0.49600002355873585, 0.7360000349581242, 0.0, 0.0, 0.0, 0.0, 0.0, 1.636075169882105E9, 0.0, 2021-11-04 20:19:29.882
91.0, 830.0053469161503, 702.8393986728042, 350.4828543975018, 1067.518913302105, 0.5120000243186951, 0.49600002355873585, 0.7360000349581242, 0.0, 0.0, 0.0, 0.0, 0.0, 1.636075169882105E9, 0.0, 2021-11-04 20:19:29.882
92.0, 832.914989081677, 705.1132578458637, 363.2359132464044, 1074.8902561147697, 0.5120000243186951, 0.49600002355873585, 0.7360000349581242, 0.0, 0.0, 0.0, 0.0, 0.0, 1.6360751699736829E9, 0.0, 2021-11-04 20:19:29.973
92.0, 836.654889037367, 693.0072016892955, 354.31251195212826, 1062.3877705628984, 0.5120000243186951, 0.49600002355873585, 0.7360000349581242, 0.0, 0.0, 0.0, 0.0, 0.0, 1.6360751699736829E9, 0.0, 2021-11-04 20:19:29.973
93.0, 836.5389521387406, 705.7677403381094, 349.2299879123457, 1067.1150041068904, 0.5120000243186951, 0.49600002355873585, 0.7360000349581242, 0.0, 0.0, 0.0, 0.0, 0.0, 1.6360751699743853E9, 0.0, 2021-11-04 20:19:29.974
93.0, 830.2521803132258, 705.7677403381094, 350.8194453935139, 1070.6641691648401, 0.5120000243186951, 0.49600002355873585, 0.7360000349581242, 0.0, 0.0, 0.0, 0.0, 0.0, 1.6360751699743853E9, 0.0, 2021-11-04 20:19:29.974
94.0, 826.2280479609035, 697.7082559335977, 353.1868020654656, 1046.6577513492666, 0.5120000243186951, 0.49600002355873585, 0.7360000349581242, 0.0, 0.0, 0.0, 0.0, 0.0, 1.6360751699752324E9, 0.0, 2021-11-04 20:19:29.975
94.0, 837.679621625226, 692.2068630987778, 339.89519762294367, 1064.164223041851, 0.5120000243186951, 0.49600002355873585, 0.7360000349581242, 0.0, 0.0, 0.0, 0.0, 0.0, 1.6360751699752324E9, 0.0, 2021-11-04 20:19:29.975
95.0, 841.6102564786561, 689.5590139301494, 348.79615951748565, 1059.5529263964854, 0.5120000243186951, 0.49600002355873585, 0.7360000349581242, 0.0, 0.0, 0.0, 0.0, 0.0, 1.6360751699857707E9, 0.0, 2021-11-04 20:19:29.985
95.0, 831.0263396040536, 688.6876172404736, 332.0376678160392, 1083.147955216933, 0.5120000243186951, 0.49600002355873585, 0.7360000349581242, 0.0, 0.0, 0.0, 0.0, 0.0, 1.6360751699857707E9, 0.0, 2021-11-04 20:19:29.985
96.0, 830.1287636146881, 693.4260704843327, 326.5175754814409, 1070.9222222617827, 0.5120000243186951, 0.49600002355873585, 0.7360000349581242, 0.0, 0.0, 0.0, 0.0, 0.0, 1.6360751700156832E9, 0.0, 2021-11-04 20:19:30.015
96.0, 839.8824226991273, 683.5714341010898, 345.6733430544846, 1073.2671395340003, 0.5120000243186951, 0.49600002355873585, 0.7360000349581242, 0.0, 0.0, 0.0, 0.0, 0.0, 1.6360751700156832E9, 0.0, 2021-11-04 20:19:30.015
97.0, 832.9972668807022, 670.6239004544914, 340.93862971058115, 1065.0131803317927, 0.5120000243186951, 0.49600002355873585, 0.7360000349581242, 0.0, 0.0, 0.0, 0.0, 0.0, 1.636075170033187E9, 0.0, 2021-11-04 20:19:30.033
97.0, 837.7020610249601, 660.9637388689443, 344.08762547327206, 1045.2964277653955, 0.5120000243186951, 0.49600002355873585, 0.7360000349581242, 0.0, 0.0, 0.0, 0.0, 0.0, 1.636075170033187E9, 0.0, 2021-11-04 20:19:30.033
98.0, 839.7440464007668, 674.9883637027815, 334.07965319184586, 1062.5523261609487, 0.5120000243186951, 0.49600002355873585, 0.7360000349581242, 0.0, 0.0, 0.0, 0.0, 0.0, 1.6360751700338128E9, 0.0, 2021-11-04 20:19:30.033
98.0, 848.67866739491, 675.717644194141, 341.821246100124, 1076.16556199966, 0.5120000243186951, 0.49600002355873585, 0.7360000349581242, 0.0, 0.0, 0.0, 0.0, 0.0, 1.6360751700338128E9, 0.0, 2021-11-04 20:19:30.033
3.0, 849.8081171815284, 683.9042851971462, 344.1512037725188, 1084.969286495354, 0.5120000243186951, 0.49600002355873585, 0.7360000349581242, 0.0, 0.0, 0.0, 0.0, 0.0, 1.6360751700344248E9, 0.0, 2021-11-04 20:19:30.034
3.0, 836.6773284371011, 678.6160666598007, 341.9259632988833, 1062.2082553650253, 0.5120000243186951, 0.49600002355873585, 0.7360000349581242, 0.0, 0.0, 0.0, 0.0, 0.0, 1.6360751700344248E9, 0.0, 2021-11-04 20:19:30.034
4.0, 853.0655700429343, 675.7101643942297, 327.8751591653563, 1067.1486632064916, 0.5120000243186951, 0.49600002355873585, 0.7360000349581242, 0.0, 0.0, 0.0, 0.0, 0.0, 1.636075170035186E9, 0.0, 2021-11-04 20:19:30.035
4.0, 851.2778978641145, 689.3645391324535, 331.97782941674814, 1079.2360198632814, 0.5120000243186951, 0.49600002355873585, 0.7360000349581242, 0.0, 0.0, 0.0, 0.0, 0.0, 1.636075170035186E9, 0.0, 2021-11-04 20:19:30.035
5.0, 842.2647389709018, 698.1570439282805, 345.43024955736473, 1072.4331418438815, 0.5120000243186951, 0.49600002355873585, 0.7360000349581242, 0.0, 0.0, 0.0, 0.0, 0.0, 1.636075170046679E9, 0.0, 2021-11-04 20:19:30.046
5.0, 841.4344811807387, 697.5025614360347, 358.7143741999753, 1048.2546886303462, 0.5120000243186951, 0.49600002355873585, 0.7360000349581242, 0.0, 0.0, 0.0, 0.0, 0.0, 1.636075170046679E9, 0.0, 2021-11-04 20:19:30.046
6.0, 849.1648543891497, 679.8764129448682, 346.13335074903443, 1073.9403215260245, 0.5120000243186951, 0.49600002355873585, 0.7360000349581242, 0.0, 0.0, 0.0, 0.0, 0.0, 1.636075170047389E9, 0.0, 2021-11-04 20:19:30.047
6.0, 858.3724880800582, 691.9001913024113, 373.9806458191015, 1087.1795673691668, 0.5120000243186951, 0.49600002355873585, 0.7360000349581242, 0.0, 0.0, 0.0, 0.0, 0.0, 1.636075170047389E9, 0.0, 2021-11-04 20:19:30.047
9.0, 852.1567743537016, 696.6423844462261, 373.36730222636834, 1087.6694942633621, 0.5120000243186951, 0.49600002355873585, 0.7360000349581242, 0.0, 0.0, 0.0, 0.0, 0.0, 1.6360751700480733E9, 0.0, 2021-11-04 20:19:30.048
9.0, 847.1004296136089, 678.6946045588702, 357.3418309162371, 1079.1874011638574, 0.5120000243186951, 0.49600002355873585, 0.7360000349581242, 0.0, 0.0, 0.0, 0.0, 0.0, 1.6360751700480733E9, 0.0, 2021-11-04 20:19:30.048
10.0, 851.6892868592404, 679.5847007483244, 383.7642241031863, 1089.348709343467, 0.5120000243186951, 0.49600002355873585, 0.7520000357180834, 0.0, 0.0, 0.0, 0.0, 0.0, 1.6360751700602703E9, 0.0, 2021-11-04 20:19:30.060
10.0, 844.9013684396632, 664.1725730309263, 367.4246011967771, 1049.5449541150592, 0.5120000243186951, 0.49600002355873585, 0.7520000357180834, 0.0, 0.0, 0.0, 0.0, 0.0, 1.6360751700602703E9, 0.0, 2021-11-04 20:19:30.060
11.0, 842.3096177703701, 678.010202866979, 363.385509244632, 1067.62737040082, 0.5120000243186951, 0.49600002355873585, 0.7520000357180834, 0.0, 0.0, 0.0, 0.0, 0.0, 1.6360751700770156E9, 0.0, 2021-11-04 20:19:30.077
11.0, 844.8116108407266, 671.9366053389385, 368.8195838802494, 1091.6599675160833, 0.5120000243186951, 0.49600002355873585, 0.7520000357180834, 0.0, 0.0, 0.0, 0.0, 0.0, 1.6360751700770156E9, 0.0, 2021-11-04 20:19:30.077
12.0, 842.455473868642, 666.3753741048276, 347.3974369340576, 1080.242052951362, 0.5120000243186951, 0.49600002355873585, 0.7520000357180834, 0.0, 0.0, 0.0, 0.0, 0.0, 1.6360751700914855E9, 0.0, 2021-11-04 20:19:30.091
12.0, 859.8647081623785, 664.7522575240582, 373.4645396252163, 1083.3985285139643, 0.5120000243186951, 0.49600002355873585, 0.7520000357180834, 0.0, 0.0, 0.0, 0.0, 0.0, 1.6360751700914855E9, 0.0, 2021-11-04 20:19:30.091
13.0, 862.2245850344189, 682.4906030138955, 388.85796784283593, 1072.7435535402037, 0.5120000243186951, 0.49600002355873585, 0.7520000357180834, 0.0, 0.0, 0.0, 0.0, 0.0, 1.6360751701066644E9, 0.0, 2021-11-04 20:19:30.106
13.0, 857.1271013948135, 687.8573594503105, 390.78401632001624, 1067.1000445070677, 0.5120000243186951, 0.49600002355873585, 0.7520000357180834, 0.0, 0.0, 0.0, 0.0, 0.0, 1.6360751701066644E9, 0.0, 2021-11-04 20:19:30.106
14.0, 861.6636000410654, 671.098867748864, 383.62584780482575, 1081.7043538340367, 0.5120000243186951, 0.49600002355873585, 0.7520000357180834, 0.0, 0.0, 0.0, 0.0, 0.0, 1.6360751701386492E9, 0.0, 2021-11-04 20:19:30.138
14.0, 866.8134422800504, 669.8983598630875, 390.97101131780073, 1092.7632380030118, 0.5120000243186951, 0.49600002355873585, 0.7520000357180834, 0.0, 0.0, 0.0, 0.0, 0.0, 1.6360751701386492E9, 0.0, 2021-11-04 20:19:30.138
15.0, 860.1564203589223, 671.7757896408439, 392.8297415957786, 1088.5969894523732, 0.5120000243186951, 0.49600002355873585, 0.7520000357180834, 0.0, 0.0, 0.0, 0.0, 0.0, 1.6360751701394124E9, 0.0, 2021-11-04 20:19:30.139
15.0, 857.0672629955225, 655.8625153293833, 367.42834109673277, 1065.1104177306406, 0.5120000243186951, 0.49600002355873585, 0.7520000357180834, 0.0, 0.0, 0.0, 0.0, 0.0, 1.6360751701394124E9, 0.0, 2021-11-04 20:19:30.139
16.0, 867.0303564774804, 651.7748046778142, 387.8332352549769, 1056.8414989286102, 0.5120000243186951, 0.49600002355873585, 0.7520000357180834, 0.0, 0.0, 0.0, 0.0, 0.0, 1.636075170140143E9, 0.0, 2021-11-04 20:19:30.140
16.0, 867.6960586695932, 675.6802451945841, 380.0205842475407, 1101.3911872007884, 0.5120000243186951, 0.49600002355873585, 0.7520000357180834, 0.0, 0.0, 0.0, 0.0, 0.0, 1.636075170140143E9, 0.0, 2021-11-04 20:19:30.140
17.0, 857.4599524908699, 675.2987753991038, 383.1920194099657, 1097.344615448732, 0.5120000243186951, 0.49600002355873585, 0.7520000357180834, 0.0, 0.0, 0.0, 0.0, 0.0, 1.6360751701408968E9, 0.0, 2021-11-04 20:19:30.140
17.0, 857.6058085891418, 669.483230968006, 380.28985704435036, 1083.2788517153822, 0.5120000243186951, 0.49600002355873585, 0.7520000357180834, 0.0, 0.0, 0.0, 0.0, 0.0, 1.6360751701408968E9, 0.0, 2021-11-04 20:19:30.140
18.0, 847.8035308052786, 657.1864399136975, 387.5677023581229, 1089.1579744457267, 0.5120000243186951, 0.49600002355873585, 0.7520000357180834, 0.0, 0.0, 0.0, 0.0, 0.0, 1.6360751701509116E9, 0.0, 2021-11-04 20:19:30.150
18.0, 853.405900938902, 665.7171517126262, 393.1775522916578, 1088.5670702527277, 0.5120000243186951, 0.49600002355873585, 0.7520000357180834, 0.0, 0.0, 0.0, 0.0, 0.0, 1.6360751701509116E9, 0.0, 2021-11-04 20:19:30.150
19.0, 852.3624688512646, 670.7061782535166, 396.274189454969, 1082.5832303236239, 0.5120000243186951, 0.49600002355873585, 0.7520000357180834, 0.0, 0.0, 0.0, 0.0, 0.0, 1.636075170151698E9, 0.0, 2021-11-04 20:19:30.151
19.0, 863.1483403234743, 671.1886253478006, 393.9442317825742, 1080.4776666485704, 0.5120000243186951, 0.49600002355873585, 0.7520000357180834, 0.0, 0.0, 0.0, 0.0, 0.0, 1.636075170151698E9, 0.0, 2021-11-04 20:19:30.151
20.0, 865.2913029980846, 667.7030385890976, 379.9345665485598, 1087.3441229672171, 0.5120000243186951, 0.49600002355873585, 0.7520000357180834, 0.0, 0.0, 0.0, 0.0, 0.0, 1.6360751701979687E9, 0.0, 2021-11-04 20:19:30.197
20.0, 865.9570051901974, 648.087263321504, 399.34090741863474, 1049.283161118161, 0.5120000243186951, 0.49600002355873585, 0.7520000357180834, 0.0, 0.0, 0.0, 0.0, 0.0, 1.6360751701979687E9, 0.0, 2021-11-04 20:19:30.197
21.0, 863.8103026156314, 678.601107059978, 387.4891644590534, 1093.9562660888769, 0.5120000243186951, 0.49600002355873585, 0.7520000357180834, 0.0, 0.0, 0.0, 0.0, 0.0, 1.6360751701987283E9, 0.0, 2021-11-04 20:19:30.198
21.0, 879.3458470315672, 689.128925435245, 395.8067019605078, 1105.471418052446, 0.5120000243186951, 0.49600002355873585, 0.7520000357180834, 0.0, 0.0, 0.0, 0.0, 0.0, 1.6360751701987283E9, 0.0, 2021-11-04 20:19:30.198
22.0, 882.737936291378, 681.8398604216054, 401.59606709191576, 1092.5612834054045, 0.5120000243186951, 0.49600002355873585, 0.7520000357180834, 0.0, 0.0, 0.0, 0.0, 0.0, 1.636075170199463E9, 0.0, 2021-11-04 20:19:30.199
22.0, 879.4430844304152, 683.1862244056538, 415.2953206296079, 1107.3825069298036, 0.5120000243186951, 0.49600002355873585, 0.7520000357180834, 0.0, 0.0, 0.0, 0.0, 0.0, 1.636075170199463E9, 0.0, 2021-11-04 20:19:30.199
23.0, 882.3901255954988, 682.7000374114141, 419.24091508286074, 1109.8097020010464, 0.5120000243186951, 0.49600002355873585, 0.7520000357180834, 0.0, 0.0, 0.0, 0.0, 0.0, 1.6360751702002072E9, 0.0, 2021-11-04 20:19:30.200
23.0, 872.3746735141613, 682.8832925092429, 403.66797166736796, 1105.5611756513827, 0.5120000243186951, 0.49600002355873585, 0.7520000357180834, 0.0, 0.0, 0.0, 0.0, 0.0, 1.6360751702002072E9, 0.0, 2021-11-04 20:19:30.200
24.0, 869.2630767510273, 676.1776518886909, 394.8418077719398, 1083.125515817199, 0.5120000243186951, 0.49600002355873585, 0.7520000357180834, 0.0, 0.0, 0.0, 0.0, 0.0, 1.636075170226415E9, 0.0, 2021-11-04 20:19:30.226
24.0, 870.2504103393294, 673.5971209192649, 414.9213306340389, 1106.0548424455337, 0.5120000243186951, 0.49600002355873585, 0.7520000357180834, 0.0, 0.0, 0.0, 0.0, 0.0, 1.636075170226415E9, 0.0, 2021-11-04 20:19:30.226
25.0, 865.7064318931662, 669.1055010724813, 410.57182698557153, 1090.2238459330983, 0.5120000243186951, 0.49600002355873585, 0.7520000357180834, 0.0, 0.0, 0.0, 0.0, 0.0, 1.636075170227061E9, 0.0, 2021-11-04 20:19:30.227
25.0, 867.2771898745559, 676.4843236850575, 407.82674041809514, 1085.5302714887075, 0.5120000243186951, 0.49600002355873585, 0.7520000357180834, 0.0, 0.0, 0.0, 0.0, 0.0, 1.636075170227061E9, 0.0, 2021-11-04 20:19:30.227
26.0, 869.0648620533757, 677.9503644676879, 405.01059575146064, 1095.1904330742545, 0.5120000243186951, 0.49600002355873585, 0.7520000357180834, 0.0, 0.0, 0.0, 0.0, 0.0, 1.6360751702423851E9, 0.0, 2021-11-04 20:19:30.242
26.0, 870.4448851370253, 682.363446415402, 417.9543894981034, 1117.5587747092359, 0.5120000243186951, 0.49600002355873585, 0.7520000357180834, 0.0, 0.0, 0.0, 0.0, 0.0, 1.6360751702423851E9, 0.0, 2021-11-04 20:19:30.242
27.0, 858.4659855789505, 689.1850239345804, 397.3886796417646, 1096.3124030609615, 0.5120000243186951, 0.49600002355873585, 0.7520000357180834, 0.0, 0.0, 0.0, 0.0, 0.0, 1.6360751702431772E9, 0.0, 2021-11-04 20:19:30.243
27.0, 862.355481532868, 679.7567361462861, 391.8424080074765, 1083.7351195099764, 0.5120000243186951, 0.49600002355873585, 0.7520000357180834, 0.0, 0.0, 0.0, 0.0, 0.0, 1.6360751702431772E9, 0.0, 2021-11-04 20:19:30.243
28.0, 869.809102144558, 670.5827615549788, 375.4242472019978, 1097.19875935046, 0.5120000243186951, 0.49600002355873585, 0.7520000357180834, 0.0, 0.0, 0.0, 0.0, 0.0, 1.6360751702437756E9, 0.0, 2021-11-04 20:19:30.243
28.0, 867.8082556682639, 654.5498104449362, 401.8354206890799, 1104.6187208625488, 0.5120000243186951, 0.49600002355873585, 0.7520000357180834, 0.0, 0.0, 0.0, 0.0, 0.0, 1.6360751702437756E9, 0.0, 2021-11-04 20:19:30.243
29.0, 859.0718493717723, 670.2499104589224, 398.4395915293135, 1084.5017990008928, 0.5120000243186951, 0.49600002355873585, 0.7520000357180834, 0.0, 0.0, 0.0, 0.0, 0.0, 1.6360751702445793E9, 0.0, 2021-11-04 20:19:30.244
29.0, 858.2453314815648, 684.19599739369, 418.9940816857852, 1097.6849463446997, 0.5120000243186951, 0.49600002355873585, 0.7520000357180834, 0.0, 0.0, 0.0, 0.0, 0.0, 1.6360751702445793E9, 0.0, 2021-11-04 20:19:30.244
30.0, 863.5784288183786, 699.1555972164497, 419.5101878796704, 1074.2095943228342, 0.5120000243186951, 0.49600002355873585, 0.7520000357180834, 0.0, 0.0, 0.0, 0.0, 0.0, 1.636075170272239E9, 0.0, 2021-11-04 20:19:30.272
30.0, 856.2033461057581, 677.0191293787211, 409.5433544977568, 1101.7801367961802, 0.5120000243186951, 0.49600002355873585, 0.7520000357180834, 0.0, 0.0, 0.0, 0.0, 0.0, 1.636075170272239E9, 0.0, 2021-11-04 20:19:30.272
31.0, 859.8684480623342, 666.4464322039858, 394.52017637575045, 1093.4214603952132, 0.5120000243186951, 0.49600002355873585, 0.7520000357180834, 0.0, 0.0, 0.0, 0.0, 0.0, 1.6360751702730064E9, 0.0, 2021-11-04 20:19:30.273
31.0, 859.6141348653473, 685.2730885809287, 399.55782161606476, 1098.9265931299888, 0.5120000243186951, 0.49600002355873585, 0.7520000357180834, 0.0, 0.0, 0.0, 0.0, 0.0, 1.6360751702730064E9, 0.0, 2021-11-04 20:19:30.273
32.0, 856.4800987024792, 678.1597988652065, 404.0157823632471, 1073.4129956322722, 0.5120000243186951, 0.49600002355873585, 0.7520000357180834, 0.0, 0.0, 0.0, 0.0, 0.0, 1.636075170273796E9, 0.0, 2021-11-04 20:19:30.273
32.0, 851.8351429575123, 672.0076634380966, 389.4189528361894, 1088.237959056627, 0.5120000243186951, 0.49600002355873585, 0.7520000357180834, 0.0, 0.0, 0.0, 0.0, 0.0, 1.636075170273796E9, 0.0, 2021-11-04 20:19:30.273
33.0, 851.1470013656653, 673.8626538161188, 394.03398938151076, 1093.6757735922001, 0.5120000243186951, 0.49600002355873585, 0.7520000357180834, 0.0, 0.0, 0.0, 0.0, 0.0, 1.6360751702854989E9, 0.0, 2021-11-04 20:19:30.285
33.0, 856.2519648051821, 652.8070170655847, 416.98201550962403, 1101.0321568050422, 0.5120000243186951, 0.49600002355873585, 0.7520000357180834, 0.0, 0.0, 0.0, 0.0, 0.0, 1.6360751702854989E9, 0.0, 2021-11-04 20:19:30.285
34.0, 855.4553661146201, 669.711364865303, 409.04594780365005, 1089.1953734452836, 0.5120000243186951, 0.49600002355873585, 0.7520000357180834, 0.0, 0.0, 0.0, 0.0, 0.0, 1.6360751703313272E9, 0.0, 2021-11-04 20:19:30.331
34.0, 849.052657390479, 694.5555202709511, 423.42960303323343, 1079.3070779624395, 0.5120000243186951, 0.49600002355873585, 0.7520000357180834, 0.0, 0.0, 0.0, 0.0, 0.0, 1.6360751703313272E9, 0.0, 2021-11-04 20:19:30.331
35.0, 854.2211991292424, 701.2649007914588, 416.0358208208345, 1110.6885784906335, 0.5120000243186951, 0.49600002355873585, 0.7520000357180834, 0.0, 0.0, 0.0, 0.0, 0.0, 1.6360751703321257E9, 0.0, 2021-11-04 20:19:30.332
35.0, 851.6705873594619, 678.7656626580283, 405.8034545420669, 1097.5577897462063, 0.5120000243186951, 0.49600002355873585, 0.7520000357180834, 0.0, 0.0, 0.0, 0.0, 0.0, 1.6360751703321257E9, 0.0, 2021-11-04 20:19:30.332
36.0, 851.1657008654438, 676.7947353813797, 426.98250799113885, 1100.0971818161197, 0.5120000243186951, 0.49600002355873585, 0.7520000357180834, 0.0, 0.0, 0.0, 0.0, 0.0, 1.636075170363003E9, 0.0, 2021-11-04 20:19:30.363
36.0, 844.5722572435625, 684.4241312909871, 421.7765672528185, 1099.431479624007, 0.5120000243186951, 0.49600002355873585, 0.7520000357180834, 0.0, 0.0, 0.0, 0.0, 0.0, 1.636075170363003E9, 0.0, 2021-11-04 20:19:30.363
37.0, 833.2852391772904, 677.0266091786325, 422.819999340456, 1079.1126031647436, 0.5120000243186951, 0.49600002355873585, 0.7520000357180834, 0.0, 0.0, 0.0, 0.0, 0.0, 1.6360751703637633E9, 0.0, 2021-11-04 20:19:30.363
37.0, 828.3373515359126, 666.7531040003523, 427.0348665905185, 1079.3930956614204, 0.5120000243186951, 0.49600002355873585, 0.7520000357180834, 0.0, 0.0, 0.0, 0.0, 0.0, 1.6360751703637633E9, 0.0, 2021-11-04 20:19:30.363
38.0, 827.4472553464584, 695.0117880655453, 438.7370135518722, 1063.7004754473455, 0.5120000243186951, 0.49600002355873585, 0.7520000357180834, 0.0, 0.0, 0.0, 0.0, 0.0, 1.636075170364561E9, 0.0, 2021-11-04 20:19:30.364
38.0, 832.9561279811896, 702.0091408826411, 447.4098415491171, 1077.3024915861897, 0.5120000243186951, 0.49600002355873585, 0.7520000357180834, 0.0, 0.0, 0.0, 0.0, 0.0, 1.636075170364561E9, 0.0, 2021-11-04 20:19:30.364
39.0, 838.16206871951, 712.1031308630481, 449.47426632465795, 1058.834865604993, 0.5120000243186951, 0.49600002355873585, 0.7520000357180834, 0.0, 0.0, 0.0, 0.0, 0.0, 1.6360751703652866E9, 0.0, 2021-11-04 20:19:30.365
39.0, 839.3812761050649, 731.0532039385289, 450.5251782122068, 1081.9362276312895, 0.5120000243186951, 0.49600002355873585, 0.7520000357180834, 0.0, 0.0, 0.0, 0.0, 0.0, 1.6360751703652866E9, 0.0, 2021-11-04 20:19:30.365
40.0, 842.4966127681546, 744.4121265802532, 437.8169981627725, 1090.9381668246351, 0.5120000243186951, 0.49600002355873585, 0.7520000357180834, 0.0, 0.0, 0.0, 0.0, 0.0, 1.63607517040573E9, 0.0, 2021-11-04 20:19:30.405
40.0, 864.3787674088962, 751.8507875921205, 454.40345446625724, 1091.409394219052, 0.5120000243186951, 0.49600002355873585, 0.7520000357180834, 0.0, 0.0, 0.0, 0.0, 0.0, 1.63607517040573E9, 0.0, 2021-11-04 20:19:30.405
41.0, 867.1201140764169, 763.302361256443, 460.88470108946785, 1075.6008371063508, 0.5120000243186951, 0.49600002355873585, 0.7520000357180834, 0.0, 0.0, 0.0, 0.0, 0.0, 1.636075170423473E9, 0.0, 2021-11-04 20:19:30.423
41.0, 868.1373668643646, 791.9537348169833, 464.9013536418788, 1087.6807139632292, 0.5120000243186951, 0.49600002355873585, 0.7520000357180834, 0.0, 0.0, 0.0, 0.0, 0.0, 1.636075170423473E9, 0.0, 2021-11-04 20:19:30.423
42.0, 867.191172175575, 810.3839617986232, 471.30032246606424, 1064.8149656341411, 0.5120000243186951, 0.49600002355873585, 0.7520000357180834, 0.0, 0.0, 0.0, 0.0, 0.0, 1.6360751704241636E9, 0.0, 2021-11-04 20:19:30.424
42.0, 864.1132345120423, 813.8732884572819, 478.9970365748741, 1066.613857512828, 0.5120000243186951, 0.49600002355873585, 0.7520000357180834, 0.0, 0.0, 0.0, 0.0, 0.0, 1.6360751704241636E9, 0.0, 2021-11-04 20:19:30.424
43.0, 881.0549813113175, 815.5225843377411, 495.931303574238, 1065.8733573216014, 0.5120000243186951, 0.49600002355873585, 0.7520000357180834, 0.0, 0.0, 0.0, 0.0, 0.0, 1.636075170424927E9, 0.0, 2021-11-04 20:19:30.424
43.0, 865.6802525934763, 807.8183904290199, 490.5421077380888, 1092.4939652062021, 0.5120000243186951, 0.49600002355873585, 0.7520000357180834, 0.0, 0.0, 0.0, 0.0, 0.0, 1.636075170424927E9, 0.0, 2021-11-04 20:19:30.424
44.0, 864.4049467085861, 825.4108798205853, 471.8089488600381, 1078.0205523776822, 0.5120000243186951, 0.49600002355873585, 0.7520000357180834, 0.0, 0.0, 0.0, 0.0, 0.0, 1.6360751704256732E9, 0.0, 2021-11-04 20:19:30.425
44.0, 875.3254545792006, 809.9463935038075, 478.6155667793937, 1063.3190056518652, 0.5120000243186951, 0.49600002355873585, 0.7520000357180834, 0.0, 0.0, 0.0, 0.0, 0.0, 1.6360751704256732E9, 0.0, 2021-11-04 20:19:30.425
45.0, 873.4181056017987, 811.797643981874, 490.6543047367595, 1080.4851464484818, 0.5120000243186951, 0.49600002355873585, 0.7520000357180834, 0.0, 0.0, 0.0, 0.0, 0.0, 1.6360751704957516E9, 0.0, 2021-11-04 20:19:30.495
45.0, 871.0881479294039, 838.7436231626198, 479.51688266871497, 1072.6014373418875, 0.5120000243186951, 0.49600002355873585, 0.7520000357180834, 0.0, 0.0, 0.0, 0.0, 0.0, 1.6360751704957516E9, 0.0, 2021-11-04 20:19:30.495
46.0, 871.787509221118, 843.9907028004527, 471.7640700605698, 1070.170502370689, 0.5120000243186951, 0.49600002355873585, 0.7520000357180834, 0.0, 0.0, 0.0, 0.0, 0.0, 1.6360751705287144E9, 0.0, 2021-11-04 20:19:30.528
46.0, 876.2566896681674, 838.2873553680256, 487.63994537247345, 1075.6419760058634, 0.5120000243186951, 0.49600002355873585, 0.7520000357180834, 0.0, 0.0, 0.0, 0.0, 0.0, 1.6360751705287144E9, 0.0, 2021-11-04 20:19:30.528
47.0, 862.3405219330452, 814.3145966520533, 476.0612151096575, 1068.4164892914705, 0.5120000243186951, 0.49600002355873585, 0.7520000357180834, 0.0, 0.0, 0.0, 0.0, 0.0, 1.6360751705294259E9, 0.0, 2021-11-04 20:19:30.529
47.0, 854.0716031310149, 814.7858240464702, 469.22467799065635, 1069.231787481811, 0.5120000243186951, 0.49600002355873585, 0.7520000357180834, 0.0, 0.0, 0.0, 0.0, 0.0, 1.6360751705294259E9, 0.0, 2021-11-04 20:19:30.529
48.0, 858.3911875798367, 798.1320495437831, 441.6690951171331, 1058.9844616032206, 0.5120000243186951, 0.49600002355873585, 0.7520000357180834, 0.0, 0.0, 0.0, 0.0, 0.0, 1.636075170530124E9, 0.0, 2021-11-04 20:19:30.530
48.0, 856.9513260968961, 806.8385366406292, 458.26303122052923, 1058.5842923079617, 0.5120000243186951, 0.49600002355873585, 0.7520000357180834, 0.0, 0.0, 0.0, 0.0, 0.0, 1.636075170530124E9, 0.0, 2021-11-04 20:19:30.530
49.0, 855.806916710455, 785.4126497944817, 437.24479346955195, 1060.6823761831038, 0.5120000243186951, 0.49600002355873585, 0.7520000357180834, 0.0, 0.0, 0.0, 0.0, 0.0, 1.6360751705407054E9, 0.0, 2021-11-04 20:19:30.540
49.0, 847.5267782085575, 768.826193490997, 425.50524750864133, 1078.0205523776822, 0.5120000243186951, 0.49600002355873585, 0.7520000357180834, 0.0, 0.0, 0.0, 0.0, 0.0, 1.6360751705407054E9, 0.0, 2021-11-04 20:19:30.540
50.0, 849.7258393825032, 765.9464705251157, 408.5448012095876, 1077.9607139783911, 0.5120000243186951, 0.49600002355873585, 0.7520000357180834, 0.0, 0.0, 0.0, 0.0, 0.0, 1.6360751705736508E9, 0.0, 2021-11-04 20:19:30.573
50.0, 841.2774053825997, 772.1023458521813, 404.6179062561132, 1060.1176512897946, 0.5120000243186951, 0.49600002355873585, 0.7520000357180834, 0.0, 0.0, 0.0, 0.0, 0.0, 1.6360751705736508E9, 0.0, 2021-11-04 20:19:30.573
51.0, 838.9586674100719, 744.90953327436, 383.984878200572, 1063.7827532463707, 0.5120000243186951, 0.49600002355873585, 0.7520000357180834, 0.0, 0.0, 0.0, 0.0, 0.0, 1.6360751705744812E9, 0.0, 2021-11-04 20:19:30.574
51.0, 838.5884173144586, 727.4666398810223, 400.2833622074686, 1070.8287247628905, 0.5120000243186951, 0.49600002355873585, 0.7520000357180834, 0.0, 0.0, 0.0, 0.0, 0.0, 1.6360751705744812E9, 0.0, 2021-11-04 20:19:30.574
55.0, 846.3823688221164, 718.6367360856384, 397.1007073451765, 1088.540890953038, 0.5120000243186951, 0.49600002355873585, 0.7520000357180834, 0.0, 0.0, 0.0, 0.0, 0.0, 1.6360751705751061E9, 0.0, 2021-11-04 20:19:30.575
55.0, 839.4186751046218, 702.0876787817106, 385.2489643855952, 1088.7652849503793, 0.5120000243186951, 0.49600002355873585, 0.7520000357180834, 0.0, 0.0, 0.0, 0.0, 0.0, 1.6360751705751061E9, 0.0, 2021-11-04 20:19:30.575
58.0, 847.4183211098425, 687.1729577584192, 388.70089204469696, 1118.3628531997092, 0.5120000243186951, 0.49600002355873585, 0.7520000357180834, 0.0, 0.0, 0.0, 0.0, 0.0, 1.636075170575905E9, 0.0, 2021-11-04 20:19:30.575
58.0, 841.7224534773268, 690.9839158132672, 381.88679432542995, 1126.4634765037335, 0.5120000243186951, 0.49600002355873585, 0.7520000357180834, 0.0, 0.0, 0.0, 0.0, 0.0, 1.636075170575905E9, 0.0, 2021-11-04 20:19:30.575
59.0, 842.4180748690851, 681.8622998213395, 357.2520733173005, 1135.0465469020419, 0.5120000243186951, 0.49600002355873585, 0.7520000357180834, 0.0, 0.0, 0.0, 0.0, 0.0, 1.6360751705859375E9, 0.0, 2021-11-04 20:19:30.585
59.0, 848.5290713966824, 680.7365899346769, 384.7889566910453, 1150.3950963201933, 0.5120000243186951, 0.49600002355873585, 0.7520000357180834, 0.0, 0.0, 0.0, 0.0, 0.0, 1.6360751705859375E9, 0.0, 2021-11-04 20:19:30.585
60.0, 838.9960664096288, 674.5283560082316, 390.00237722927704, 1137.8140728692524, 0.5120000243186951, 0.49600002355873585, 0.7360000349581242, 0.0, 0.0, 0.0, 0.0, 0.0, 1.6360751706007311E9, 0.0, 2021-11-04 20:19:30.600
60.0, 858.1593137825839, 687.8162205507979, 376.7593914861791, 1133.3374126222916, 0.5120000243186951, 0.49600002355873585, 0.7360000349581242, 0.0, 0.0, 0.0, 0.0, 0.0, 1.6360751706007311E9, 0.0, 2021-11-04 20:19:30.600
61.0, 864.3525881092064, 679.685678047128, 382.7918501147069, 1117.8018682063557, 0.5120000243186951, 0.49600002355873585, 0.7360000349581242, 0.0, 0.0, 0.0, 0.0, 0.0, 1.6360751706193233E9, 0.0, 2021-11-04 20:19:30.619
61.0, 861.873034438584, 696.8368592439219, 404.535628457088, 1116.616319920402, 0.5120000243186951, 0.49600002355873585, 0.7360000349581242, 0.0, 0.0, 0.0, 0.0, 0.0, 1.6360751706193233E9, 0.0, 2021-11-04 20:19:30.619
63.0, 867.445485372562, 705.8948969366029, 432.5250397254713, 1127.592926290352, 0.5120000243186951, 0.49600002355873585, 0.7360000349581242, 0.0, 0.0, 0.0, 0.0, 0.0, 1.6360751706198409E9, 0.0, 2021-11-04 20:19:30.619
63.0, 867.4080863730051, 697.2781674386933, 447.7052936456166, 1110.4492248934694, 0.5120000243186951, 0.49600002355873585, 0.7360000349581242, 0.0, 0.0, 0.0, 0.0, 0.0, 1.6360751706198409E9, 0.0, 2021-11-04 20:19:30.619
64.0, 875.4750505774282, 688.8708723383024, 436.0405456838198, 1126.1904638069682, 0.5120000243186951, 0.49600002355873585, 0.7360000349581242, 0.0, 0.0, 0.0, 0.0, 0.0, 1.6360751706206367E9, 0.0, 2021-11-04 20:19:30.620
64.0, 869.1433999524452, 702.7758203735575, 448.4495337367989, 1142.5039074136876, 0.5120000243186951, 0.49600002355873585, 0.7360000349581242, 0.0, 0.0, 0.0, 0.0, 0.0, 1.6360751706206367E9, 0.0, 2021-11-04 20:19:30.620
65.0, 854.8943811212666, 706.6316572278738, 451.54243100015447, 1113.4598443577997, 0.5120000243186951, 0.49600002355873585, 0.7360000349581242, 0.0, 0.0, 0.0, 0.0, 0.0, 1.6360751706213844E9, 0.0, 2021-11-04 20:19:30.621
65.0, 861.6972591406666, 702.2410146798939, 458.0199377234094, 1096.3049232610501, 0.5120000243186951, 0.49600002355873585, 0.7360000349581242, 0.0, 0.0, 0.0, 0.0, 0.0, 1.6360751706213844E9, 0.0, 2021-11-04 20:19:30.621
66.0, 874.7270705862902, 699.2827538149431, 450.02777151810005, 1123.890425334219, 0.5120000243186951, 0.49600002355873585, 0.7360000349581242, 0.0, 0.0, 0.0, 0.0, 0.0, 1.636075170675852E9, 0.0, 2021-11-04 20:19:30.675
66.0, 876.4100255663507, 708.1874556094408, 452.62326208734885, 1148.7719797394238, 0.5120000243186951, 0.49600002355873585, 0.7360000349581242, 0.0, 0.0, 0.0, 0.0, 0.0, 1.636075170675852E9, 0.0, 2021-11-04 20:19:30.675
67.0, 867.6698793699034, 701.8034463850781, 454.1192220696248, 1136.890317580197, 0.5120000243186951, 0.49600002355873585, 0.7360000349581242, 0.0, 0.0, 0.0, 0.0, 0.0, 1.6360751706930218E9, 0.0, 2021-11-04 20:19:30.693
67.0, 865.0818686005659, 686.0696872714907, 440.6668019290082, 1130.8578589516692, 0.5120000243186951, 0.49600002355873585, 0.7360000349581242, 0.0, 0.0, 0.0, 0.0, 0.0, 1.6360751706930218E9, 0.0, 2021-11-04 20:19:30.693
68.0, 867.4380055726506, 690.6510647172108, 430.924362544436, 1138.7415680582635, 0.5120000243186951, 0.49600002355873585, 0.7360000349581242, 0.0, 0.0, 0.0, 0.0, 0.0, 1.6360751706938305E9, 0.0, 2021-11-04 20:19:30.693
68.0, 864.3825073088519, 711.7889792667702, 449.5191451241262, 1135.9553425912745, 0.5120000243186951, 0.49600002355873585, 0.7360000349581242, 0.0, 0.0, 0.0, 0.0, 0.0, 1.6360751706938305E9, 0.0, 2021-11-04 20:19:30.693
69.0, 872.0306027182378, 708.6138042043895, 494.5811996902339, 1126.4485169039108, 0.5120000243186951, 0.49600002355873585, 0.7360000349581242, 0.0, 0.0, 0.0, 0.0, 0.0, 1.6360751706943755E9, 0.0, 2021-11-04 20:19:30.694
69.0, 860.3920340561308, 689.7385291280225, 487.2547356770374, 1112.6108870678581, 0.5120000243186951, 0.49600002355873585, 0.7360000349581242, 0.0, 0.0, 0.0, 0.0, 0.0, 1.6360751706943755E9, 0.0, 2021-11-04 20:19:30.694
70.0, 857.9124803855084, 714.0628384398296, 483.07726742653176, 1151.7152810045518, 0.5120000243186951, 0.49600002355873585, 0.7360000349581242, 0.0, 0.0, 0.0, 0.0, 0.0, 1.636075170695135E9, 0.0, 2021-11-04 20:19:30.695
70.0, 860.9417993496172, 704.5373132526875, 473.29368914244696, 1120.9134649694897, 0.5120000243186951, 0.49600002355873585, 0.7360000349581242, 0.0, 0.0, 0.0, 0.0, 0.0, 1.636075170695135E9, 0.0, 2021-11-04 20:19:30.695
71.0, 865.0108105014078, 699.1892563160509, 461.29982998454943, 1146.8122721626423, 0.5120000243186951, 0.49600002355873585, 0.7360000349581242, 0.0, 0.0, 0.0, 0.0, 0.0, 1.6360751707065704E9, 0.0, 2021-11-04 20:19:30.706
71.0, 860.4107335559092, 691.3167669093236, 478.5819076797925, 1144.9872009842657, 0.5120000243186951, 0.49600002355873585, 0.7360000349581242, 0.0, 0.0, 0.0, 0.0, 0.0, 1.6360751707065704E9, 0.0, 2021-11-04 20:19:30.706
72.0, 866.9667781782337, 681.7052240232006, 476.59602080332115, 1134.6650771065615, 0.5120000243186951, 0.49600002355873585, 0.7360000349581242, 0.0, 0.0, 0.0, 0.0, 0.0, 1.6360751707074192E9, 0.0, 2021-11-04 20:19:30.707
72.0, 858.0471167839132, 693.9608761779964, 469.4191527883522, 1123.2097635422833, 0.5120000243186951, 0.49600002355873585, 0.7360000349581242, 0.0, 0.0, 0.0, 0.0, 0.0, 1.6360751707074192E9, 0.0, 2021-11-04 20:19:30.707
75.0, 854.8345427219756, 718.1767283910885, 491.63789842510596, 1130.9102175510488, 0.5120000243186951, 0.49600002355873585, 0.7360000349581242, 0.0, 0.0, 0.0, 0.0, 0.0, 1.6360751707081363E9, 0.0, 2021-11-04 20:19:30.708
75.0, 855.3506489158608, 710.7081481795758, 483.74670951860026, 1151.5170663069002, 0.5120000243186951, 0.49600002355873585, 0.7360000349581242, 0.0, 0.0, 0.0, 0.0, 0.0, 1.6360751707081363E9, 0.0, 2021-11-04 20:19:30.708
76.0, 859.2364049698226, 691.6346584055573, 493.8780984985642, 1153.0092863892205, 0.5120000243186951, 0.49600002355873585, 0.7360000349581242, 0.0, 0.0, 0.0, 0.0, 0.0, 1.6360751707365966E9, 0.0, 2021-11-04 20:19:30.736
76.0, 849.6398216835223, 695.6064321585, 505.6026848596521, 1138.2254618643783, 0.5120000243186951, 0.49600002355873585, 0.7360000349581242, 0.0, 0.0, 0.0, 0.0, 0.0, 1.6360751707365966E9, 0.0, 2021-11-04 20:19:30.736
77.0, 835.0392522565089, 708.2024152092636, 482.3891258346848, 1136.5425068843178, 0.5120000243186951, 0.49600002355873585, 0.7360000349581242, 0.0, 0.0, 0.0, 0.0, 0.0, 1.6360751707373605E9, 0.0, 2021-11-04 20:19:30.737
77.0, 828.5954046328552, 670.7061782535166, 471.52471646340564, 1138.928563056048, 0.5120000243186951, 0.49600002355873585, 0.7360000349581242, 0.0, 0.0, 0.0, 0.0, 0.0, 1.6360751707373605E9, 0.0, 2021-11-04 20:19:30.737
78.0, 827.1667628497817, 691.5112417070195, 481.08764065010473, 1137.3278858750127, 0.5120000243186951, 0.49600002355873585, 0.7360000349581242, 0.0, 0.0, 0.0, 0.0, 0.0, 1.6360751707381012E9, 0.0, 2021-11-04 20:19:30.738
78.0, 826.4000833588652, 698.0523267295212, 450.7832313091494, 1114.9932033396326, 0.5120000243186951, 0.49600002355873585, 0.7360000349581242, 0.0, 0.0, 0.0, 0.0, 0.0, 1.6360751707381012E9, 0.0, 2021-11-04 20:19:30.738
79.0, 811.4255239362828, 677.4492178736255, 466.85358141874894, 1120.8536265701987, 0.5120000243186951, 0.49600002355873585, 0.7360000349581242, 0.0, 0.0, 0.0, 0.0, 0.0, 1.636075170797076E9, 0.0, 2021-11-04 20:19:30.797
79.0, 818.8267859485932, 673.993550314568, 481.56634784443304, 1124.2008370305412, 0.5120000243186951, 0.49600002355873585, 0.7360000349581242, 0.0, 0.0, 0.0, 0.0, 0.0, 1.636075170797076E9, 0.0, 2021-11-04 20:19:30.797
80.0, 811.6536578335799, 687.4833694547415, 473.2114113434218, 1092.725839003455, 0.5120000243186951, 0.49600002355873585, 0.7360000349581242, 0.0, 0.0, 0.0, 0.0, 0.0, 1.636075170797835E9, 0.0, 2021-11-04 20:19:30.797
80.0, 817.5477401637472, 670.9081328511238, 474.5876945271157, 1118.3104946003295, 0.5120000243186951, 0.49600002355873585, 0.7360000349581242, 0.0, 0.0, 0.0, 0.0, 0.0, 1.636075170797835E9, 0.0, 2021-11-04 20:19:30.797
81.0, 824.6460702796467, 650.4321805937216, 463.379214359913, 1134.3060467108153, 0.5120000243186951, 0.49600002355873585, 0.7360000349581242, 0.0, 0.0, 0.0, 0.0, 0.0, 1.6360751707986715E9, 0.0, 2021-11-04 20:19:30.798
81.0, 808.504662070889, 666.2856165058911, 472.08196155680344, 1146.1615295703523, 0.5120000243186951, 0.49600002355873585, 0.7360000349581242, 0.0, 0.0, 0.0, 0.0, 0.0, 1.6360751707986715E9, 0.0, 2021-11-04 20:19:30.798
82.0, 808.5495408703573, 669.7300643650815, 453.59189617587253, 1132.5183745319955, 0.5120000243186951, 0.49600002355873585, 0.7360000349581242, 0.0, 0.0, 0.0, 0.0, 0.0, 1.6360751708119388E9, 0.0, 2021-11-04 20:19:30.811
82.0, 832.9112491817214, 682.4045853149146, 458.5622232169844, 1108.549355715979, 0.5120000243186951, 0.49600002355873585, 0.7360000349581242, 0.0, 0.0, 0.0, 0.0, 0.0, 1.6360751708119388E9, 0.0, 2021-11-04 20:19:30.811
83.0, 842.5115723679774, 708.4492486063391, 484.0646010148339, 1127.0768200964667, 0.5120000243186951, 0.49600002355873585, 0.7360000349581242, 0.0, 0.0, 0.0, 0.0, 0.0, 1.6360751708264363E9, 0.0, 2021-11-04 20:19:30.826
83.0, 846.4796062209643, 709.1186906984076, 475.9564979108982, 1130.704523053486, 0.5120000243186951, 0.49600002355873585, 0.7360000349581242, 0.0, 0.0, 0.0, 0.0, 0.0, 1.6360751708264363E9, 0.0, 2021-11-04 20:19:30.826
84.0, 838.1695485194214, 701.7697872854769, 475.6610458143987, 1122.3869855520315, 0.5120000243186951, 0.49600002355873585, 0.7360000349581242, 0.0, 0.0, 0.0, 0.0, 0.0, 1.6360751708417408E9, 0.0, 2021-11-04 20:19:30.841
84.0, 848.1775208008476, 711.5907645691186, 502.5995451952331, 1147.1600828585215, 0.5120000243186951, 0.49600002355873585, 0.7360000349581242, 0.0, 0.0, 0.0, 0.0, 0.0, 1.6360751708417408E9, 0.0, 2021-11-04 20:19:30.841
85.0, 834.470787463244, 701.5005144886672, 514.0997375589795, 1163.2117334683426, 0.5120000243186951, 0.49600002355873585, 0.7360000349581242, 0.0, 0.0, 0.0, 0.0, 0.0, 1.6360751708880525E9, 0.0, 2021-11-04 20:19:30.888
85.0, 832.7242541839369, 679.8689331449568, 497.2514882585965, 1140.929409532342, 0.5120000243186951, 0.49600002355873585, 0.7360000349581242, 0.0, 0.0, 0.0, 0.0, 0.0, 1.6360751708880525E9, 0.0, 2021-11-04 20:19:30.888
86.0, 851.4723726618104, 693.0745198884979, 482.9463709280826, 1124.9824761212803, 0.5120000243186951, 0.49600002355873585, 0.7360000349581242, 0.0, 0.0, 0.0, 0.0, 0.0, 1.636075170888799E9, 0.0, 2021-11-04 20:19:30.888
86.0, 848.9180209920742, 712.140529862605, 494.82803308730945, 1140.6788362353109, 0.5120000243186951, 0.49600002355873585, 0.7360000349581242, 0.0, 0.0, 0.0, 0.0, 0.0, 1.636075170888799E9, 0.0, 2021-11-04 20:19:30.888
87.0, 835.4581210515462, 700.0344737060368, 463.2483178614639, 1119.813934382517, 0.5120000243186951, 0.49600002355873585, 0.7360000349581242, 0.0, 0.0, 0.0, 0.0, 0.0, 1.636075170889475E9, 0.0, 2021-11-04 20:19:30.889
87.0, 835.3347043530084, 698.4113571252674, 451.1198223051615, 1142.451548814308, 0.5120000243186951, 0.49600002355873585, 0.7360000349581242, 0.0, 0.0, 0.0, 0.0, 0.0, 1.636075170889475E9, 0.0, 2021-11-04 20:19:30.889
88.0, 828.0979979387484, 680.8899258328602, 478.07702118577436, 1138.2703406638466, 0.5120000243186951, 0.49600002355873585, 0.7360000349581242, 0.0, 0.0, 0.0, 0.0, 0.0, 1.6360751708902743E9, 0.0, 2021-11-04 20:19:30.890
88.0, 826.4524419582449, 671.5401759436354, 493.67240400100127, 1147.5677319536917, 0.5120000243186951, 0.49600002355873585, 0.7360000349581242, 0.0, 0.0, 0.0, 0.0, 0.0, 1.6360751708902743E9, 0.0, 2021-11-04 20:19:30.890
89.0, 816.6352045745589, 689.0877865357324, 484.401192010846, 1135.6636303947307, 0.5120000243186951, 0.49600002355873585, 0.7360000349581242, 0.0, 0.0, 0.0, 0.0, 0.0, 1.6360751709768014E9, 0.0, 2021-11-04 20:19:30.976
89.0, 818.4939348525368, 687.5506876539439, 481.2035775487311, 1136.7295018821023, 0.5120000243186951, 0.49600002355873585, 0.7360000349581242, 0.0, 0.0, 0.0, 0.0, 0.0, 1.6360751709768014E9, 0.0, 2021-11-04 20:19:30.976
90.0, 829.3994831233285, 698.8900643195957, 482.6097799320705, 1109.850840900559, 0.5120000243186951, 0.49600002355873585, 0.7360000349581242, 0.0, 0.0, 0.0, 0.0, 0.0, 1.636075170992306E9, 0.0, 2021-11-04 20:19:30.992
90.0, 827.656689743977, 694.8023536680266, 473.0954744447954, 1124.7356427242048, 0.5120000243186951, 0.49600002355873585, 0.7360000349581242, 0.0, 0.0, 0.0, 0.0, 0.0, 1.636075170992306E9, 0.0, 2021-11-04 20:19:30.992
91.0, 818.6510106506757, 706.5905183283612, 492.01188842067495, 1116.9865700160153, 0.5120000243186951, 0.49600002355873585, 0.7360000349581242, 0.0, 0.0, 0.0, 0.0, 0.0, 1.636075170993229E9, 0.0, 2021-11-04 20:19:30.993
91.0, 821.9122034120373, 690.7071632165462, 490.19803694216534, 1137.047393378336, 0.5120000243186951, 0.49600002355873585, 0.7360000349581242, 0.0, 0.0, 0.0, 0.0, 0.0, 1.636075170993229E9, 0.0, 2021-11-04 20:19:30.993
94.0, 826.4449621583335, 688.0854933476076, 488.3916652635671, 1110.1238535973243, 0.5120000243186951, 0.49600002355873585, 0.7360000349581242, 0.0, 0.0, 0.0, 0.0, 0.0, 1.6360751710073504E9, 0.0, 2021-11-04 20:19:31.007
94.0, 834.4670475632884, 705.3002528436482, 481.34569374704733, 1155.8478704555891, 0.5120000243186951, 0.49600002355873585, 0.7360000349581242, 0.0, 0.0, 0.0, 0.0, 0.0, 1.6360751710073504E9, 0.0, 2021-11-04 20:19:31.007
95.0, 833.0832845796831, 714.3508107364178, 498.5941123426892, 1153.7460466804914, 0.5120000243186951, 0.49600002355873585, 0.7360000349581242, 0.0, 0.0, 0.0, 0.0, 0.0, 1.6360751710223296E9, 0.0, 2021-11-04 20:19:31.022
95.0, 843.2445927592926, 686.1856241701171, 505.8794374563731, 1144.52345338976, 0.5120000243186951, 0.49600002355873585, 0.7360000349581242, 0.0, 0.0, 0.0, 0.0, 0.0, 1.6360751710223296E9, 0.0, 2021-11-04 20:19:31.022
96.0, 841.0417916853912, 691.4252240080386, 503.83745208056644, 1142.6273241122253, 0.5120000243186951, 0.49600002355873585, 0.7360000349581242, 0.0, 0.0, 0.0, 0.0, 0.0, 1.6360751710371208E9, 0.0, 2021-11-04 20:19:31.037
96.0, 850.2868243758567, 716.9313417058438, 514.9150357493199, 1165.5977896400727, 0.5120000243186951, 0.49600002355873585, 0.7360000349581242, 0.0, 0.0, 0.0, 0.0, 0.0, 1.6360751710371208E9, 0.0, 2021-11-04 20:19:31.037
97.0, 825.4277093703859, 719.3024382777512, 499.94795612664893, 1154.4416680722497, 0.5120000243186951, 0.49600002355873585, 0.7360000349581242, 0.0, 0.0, 0.0, 0.0, 0.0, 1.6360751710378156E9, 0.0, 2021-11-04 20:19:31.037
97.0, 838.9287482104264, 682.9805299080908, 458.47994541795924, 1147.0890247593634, 0.5120000243186951, 0.49600002355873585, 0.7360000349581242, 0.0, 0.0, 0.0, 0.0, 0.0, 1.6360751710378156E9, 0.0, 2021-11-04 20:19:31.037
3.0, 843.8878555516712, 690.8791986145079, 475.90039941156283, 1138.591972060036, 0.5120000243186951, 0.49600002355873585, 0.7360000349581242, 0.0, 0.0, 0.0, 0.0, 0.0, 1.6360751710385845E9, 0.0, 2021-11-04 20:19:31.038
3.0, 843.0052391621284, 683.3171209041029, 483.6158130201511, 1121.7362429597415, 0.5120000243186951, 0.49600002355873585, 0.7360000349581242, 0.0, 0.0, 0.0, 0.0, 0.0, 1.6360751710385845E9, 0.0, 2021-11-04 20:19:31.038
4.0, 833.9397216695361, 675.7737426934764, 447.3051243503578, 1128.4680628799833, 0.5120000243186951, 0.49600002355873585, 0.7360000349581242, 0.0, 0.0, 0.0, 0.0, 0.0, 1.6360751710520868E9, 0.0, 2021-11-04 20:19:31.052
4.0, 837.5150660271756, 677.479137073271, 472.5831081508659, 1131.848932439927, 0.5120000243186951, 0.49600002355873585, 0.7360000349581242, 0.0, 0.0, 0.0, 0.0, 0.0, 1.6360751710520868E9, 0.0, 2021-11-04 20:19:31.052
5.0, 846.0233384263702, 701.0218072943389, 483.810287817847, 1102.386000589002, 0.5120000243186951, 0.49600002355873585, 0.7360000349581242, 0.0, 0.0, 0.0, 0.0, 0.0, 1.6360751710528321E9, 0.0, 2021-11-04 20:19:31.052
5.0, 841.2325265831314, 691.9600297017023, 468.9741046936251, 1119.7316565834917, 0.5120000243186951, 0.49600002355873585, 0.7360000349581242, 0.0, 0.0, 0.0, 0.0, 0.0, 1.6360751710528321E9, 0.0, 2021-11-04 20:19:31.052
6.0, 838.4313415163197, 693.3961512846872, 483.4699569218792, 1145.7688400750048, 0.5120000243186951, 0.49600002355873585, 0.7360000349581242, 0.0, 0.0, 0.0, 0.0, 0.0, 1.6360751710535867E9, 0.0, 2021-11-04 20:19:31.053
6.0, 852.9945119437762, 688.8334733387455, 487.621245872695, 1133.513187920209, 0.5120000243186951, 0.49600002355873585, 0.7360000349581242, 0.0, 0.0, 0.0, 0.0, 0.0, 1.6360751710535867E9, 0.0, 2021-11-04 20:19:31.053
7.0, 845.507232232485, 699.0957588171586, 474.48297732835636, 1125.6481783133931, 0.5120000243186951, 0.49600002355873585, 0.7360000349581242, 0.0, 0.0, 0.0, 0.0, 0.0, 1.636075171067414E9, 0.0, 2021-11-04 20:19:31.067
7.0, 846.5394446202554, 690.6473248172551, 483.2493028244935, 1151.4011294082738, 0.5120000243186951, 0.49600002355873585, 0.7360000349581242, 0.0, 0.0, 0.0, 0.0, 0.0, 1.636075171067414E9, 0.0, 2021-11-04 20:19:31.067
9.0, 852.7775977463461, 710.2855394845828, 510.7151280990802, 1165.268678443972, 0.5120000243186951, 0.49600002355873585, 0.7360000349581242, 0.0, 0.0, 0.0, 0.0, 0.0, 1.6360751710681825E9, 0.0, 2021-11-04 20:19:31.068
9.0, 851.4349736622535, 686.1781443702057, 509.4847010136582, 1160.7060004980303, 0.5120000243186951, 0.49600002355873585, 0.7360000349581242, 0.0, 0.0, 0.0, 0.0, 0.0, 1.6360751710681825E9, 0.0, 2021-11-04 20:19:31.068
10.0, 837.0700179324485, 670.6799989538267, 497.1505109597929, 1147.6537496526726, 0.5120000243186951, 0.49600002355873585, 0.7360000349581242, 0.0, 0.0, 0.0, 0.0, 0.0, 1.636075171068859E9, 0.0, 2021-11-04 20:19:31.068
10.0, 852.0707566547208, 687.0757203595713, 497.704016153235, 1123.1574049429037, 0.5120000243186951, 0.49600002355873585, 0.7360000349581242, 0.0, 0.0, 0.0, 0.0, 0.0, 1.636075171068859E9, 0.0, 2021-11-04 20:19:31.068
11.0, 854.6176285245456, 679.6146199479699, 494.6260784897022, 1141.2510409285314, 0.5120000243186951, 0.49600002355873585, 0.7360000349581242, 0.0, 0.0, 0.0, 0.0, 0.0, 1.6360751710695832E9, 0.0, 2021-11-04 20:19:31.069
11.0, 844.8452699403279, 681.3798527270555, 487.3893720754422, 1131.486162144225, 0.5120000243186951, 0.49600002355873585, 0.7360000349581242, 0.0, 0.0, 0.0, 0.0, 0.0, 1.6360751710695832E9, 0.0, 2021-11-04 20:19:31.069
12.0, 858.5594830778427, 661.5621228618547, 475.14867952046916, 1134.889471103903, 0.5120000243186951, 0.49600002355873585, 0.7360000349581242, 0.0, 0.0, 0.0, 0.0, 0.0, 1.636075171080302E9, 0.0, 2021-11-04 20:19:31.080
12.0, 856.8840078976937, 689.8395064268261, 493.0328811085783, 1169.3713486953638, 0.5120000243186951, 0.49600002355873585, 0.7360000349581242, 0.0, 0.0, 0.0, 0.0, 0.0, 1.636075171080302E9, 0.0, 2021-11-04 20:19:31.080
13.0, 851.3900948627852, 706.8186522256583, 488.15605156635866, 1159.299798114691, 0.5120000243186951, 0.49600002355873585, 0.7360000349581242, 0.0, 0.0, 0.0, 0.0, 0.0, 1.6360751710953264E9, 0.0, 2021-11-04 20:19:31.095
13.0, 863.6607066174038, 685.3142274804413, 496.1369980718009, 1149.8864699262194, 0.5120000243186951, 0.49600002355873585, 0.7360000349581242, 0.0, 0.0, 0.0, 0.0, 0.0, 1.6360751710953264E9, 0.0, 2021-11-04 20:19:31.095
14.0, 859.9956046608277, 679.408925450407, 504.08802537759766, 1156.162022051867, 0.5120000243186951, 0.49600002355873585, 0.7360000349581242, 0.0, 0.0, 0.0, 0.0, 0.0, 1.6360751711264894E9, 0.0, 2021-11-04 20:19:31.126
14.0, 860.4817916550674, 671.7533502411097, 498.75866794073954, 1158.2451463271864, 0.5120000243186951, 0.49600002355873585, 0.7360000349581242, 0.0, 0.0, 0.0, 0.0, 0.0, 1.6360751711264894E9, 0.0, 2021-11-04 20:19:31.126
15.0, 864.0870552123524, 674.9509647032246, 484.16183841368183, 1149.7929724273272, 0.5120000243186951, 0.49600002355873585, 0.7360000349581242, 0.0, 0.0, 0.0, 0.0, 0.0, 1.6360751711272144E9, 0.0, 2021-11-04 20:19:31.127
15.0, 860.9941579489969, 669.2999758701771, 488.960130056832, 1112.046162174549, 0.5120000243186951, 0.49600002355873585, 0.7360000349581242, 0.0, 0.0, 0.0, 0.0, 0.0, 1.6360751711272144E9, 0.0, 2021-11-04 20:19:31.127
16.0, 853.828509633895, 674.259083211422, 482.5462016328238, 1165.751125538256, 0.5120000243186951, 0.49600002355873585, 0.7360000349581242, 0.0, 0.0, 0.0, 0.0, 0.0, 1.6360751711580367E9, 0.0, 2021-11-04 20:19:31.158
16.0, 861.3195292451419, 686.4511570669711, 474.5016768281348, 1157.5906638349406, 0.5120000243186951, 0.49600002355873585, 0.7360000349581242, 0.0, 0.0, 0.0, 0.0, 0.0, 1.6360751711580367E9, 0.0, 2021-11-04 20:19:31.158
17.0, 855.866755109746, 679.2668092520908, 485.2127503012307, 1153.6974279810674, 0.5120000243186951, 0.49600002355873585, 0.7360000349581242, 0.0, 0.0, 0.0, 0.0, 0.0, 1.6360751711587412E9, 0.0, 2021-11-04 20:19:31.158
17.0, 863.5410298188217, 682.423284814693, 490.5795067376457, 1156.644469146151, 0.5120000243186951, 0.49600002355873585, 0.7360000349581242, 0.0, 0.0, 0.0, 0.0, 0.0, 1.6360751711587412E9, 0.0, 2021-11-04 20:19:31.158
18.0, 847.8596293046139, 685.4900027783588, 485.257629100699, 1142.8105792100541, 0.5120000243186951, 0.49600002355873585, 0.7360000349581242, 0.0, 0.0, 0.0, 0.0, 0.0, 1.6360751711594684E9, 0.0, 2021-11-04 20:19:31.159
18.0, 859.6926727644168, 662.1829462544993, 469.92029938241467, 1145.5930647770874, 0.5120000243186951, 0.49600002355873585, 0.7360000349581242, 0.0, 0.0, 0.0, 0.0, 0.0, 1.6360751711594684E9, 0.0, 2021-11-04 20:19:31.159
19.0, 870.1756123402156, 676.8134348811582, 489.34159985231236, 1152.0406523006968, 0.5120000243186951, 0.49600002355873585, 0.7360000349581242, 0.0, 0.0, 0.0, 0.0, 0.0, 1.6360751711602287E9, 0.0, 2021-11-04 20:19:31.160
19.0, 863.2754969219677, 657.7436850070953, 483.9449242162518, 1150.0697250240482, 0.5120000243186951, 0.49600002355873585, 0.7360000349581242, 0.0, 0.0, 0.0, 0.0, 0.0, 1.6360751711602287E9, 0.0, 2021-11-04 20:19:31.160
20.0, 880.5351352174766, 680.3887792387977, 480.60519355582073, 1132.499675032217, 0.5120000243186951, 0.49600002355873585, 0.7360000349581242, 0.0, 0.0, 0.0, 0.0, 0.0, 1.6360751711714869E9, 0.0, 2021-11-04 20:19:31.171
20.0, 870.82261503255, 687.139298658818, 487.7222231714986, 1148.8018989390694, 0.5120000243186951, 0.49600002355873585, 0.7360000349581242, 0.0, 0.0, 0.0, 0.0, 0.0, 1.6360751711714869E9, 0.0, 2021-11-04 20:19:31.171
21.0, 879.6001602285542, 681.8585599213839, 483.56719432072714, 1171.0767430751584, 0.5120000243186951, 0.49600002355873585, 0.7360000349581242, 0.0, 0.0, 0.0, 0.0, 0.0, 1.6360751712479763E9, 0.0, 2021-11-04 20:19:31.247
21.0, 876.8288943613879, 697.3604452377185, 506.0701723541133, 1162.7143267742358, 0.5120000243186951, 0.49600002355873585, 0.7360000349581242, 0.0, 0.0, 0.0, 0.0, 0.0, 1.6360751712479763E9, 0.0, 2021-11-04 20:19:31.247
22.0, 878.5829074406065, 676.6339196832851, 515.8238314385526, 1172.7634379551746, 0.5120000243186951, 0.49600002355873585, 0.7360000349581242, 0.0, 0.0, 0.0, 0.0, 0.0, 1.6360751712488143E9, 0.0, 2021-11-04 20:19:31.248
22.0, 889.6230921098031, 686.0023690722883, 515.1880484460853, 1169.0945960986428, 0.5120000243186951, 0.49600002355873585, 0.7360000349581242, 0.0, 0.0, 0.0, 0.0, 0.0, 1.6360751712488143E9, 0.0, 2021-11-04 20:19:31.248
23.0, 888.6320186215453, 679.4276249501854, 499.34583223378286, 1171.7312255674042, 0.5120000243186951, 0.49600002355873585, 0.7360000349581242, 0.0, 0.0, 0.0, 0.0, 0.0, 1.6360751712494876E9, 0.0, 2021-11-04 20:19:31.249
23.0, 888.1720109269954, 678.3393140630797, 472.78506274847314, 1156.2816988504492, 0.5120000243186951, 0.49600002355873585, 0.7360000349581242, 0.0, 0.0, 0.0, 0.0, 0.0, 1.6360751712494876E9, 0.0, 2021-11-04 20:19:31.249
24.0, 894.8776515475474, 682.7000374114141, 490.9834159328602, 1145.2078550816514, 0.5120000243186951, 0.49600002355873585, 0.7360000349581242, 0.0, 0.0, 0.0, 0.0, 0.0, 1.6360751712502348E9, 0.0, 2021-11-04 20:19:31.250
24.0, 904.1862625372596, 681.192857729271, 493.1338584073819, 1161.7905714851804, 0.5120000243186951, 0.49600002355873585, 0.7360000349581242, 0.0, 0.0, 0.0, 0.0, 0.0, 1.6360751712502348E9, 0.0, 2021-11-04 20:19:31.250
25.0, 888.4076246242039, 683.8369669979438, 491.8398530227132, 1162.2094402802177, 0.5120000243186951, 0.49600002355873585, 0.7360000349581242, 0.0, 0.0, 0.0, 0.0, 0.0, 1.63607517126077E9, 0.0, 2021-11-04 20:19:31.260
25.0, 901.3888173704036, 702.7159819742665, 513.1872019697912, 1194.8737264932133, 0.5120000243186951, 0.49600002355873585, 0.7360000349581242, 0.0, 0.0, 0.0, 0.0, 0.0, 1.63607517126077E9, 0.0, 2021-11-04 20:19:31.260
26.0, 899.1822763965465, 704.3540581548586, 525.0501646292396, 1185.7820297009312, 0.5120000243186951, 0.49600002355873585, 0.7360000349581242, 0.0, 0.0, 0.0, 0.0, 0.0, 1.6360751712917044E9, 0.0, 2021-11-04 20:19:31.291
26.0, 899.055119798053, 694.4059242727235, 516.3511573323049, 1184.5628223153763, 0.5120000243186951, 0.49600002355873585, 0.7360000349581242, 0.0, 0.0, 0.0, 0.0, 0.0, 1.6360751712917044E9, 0.0, 2021-11-04 20:19:31.291
27.0, 895.606932038907, 696.8592986436561, 522.1966209630482, 1188.3588207704015, 0.5120000243186951, 0.49600002355873585, 0.7360000349581242, 0.0, 0.0, 0.0, 0.0, 0.0, 1.6360751713207035E9, 0.0, 2021-11-04 20:19:31.320
27.0, 900.6632767789997, 711.9684944646433, 522.065724464599, 1184.1963121197186, 0.5120000243186951, 0.49600002355873585, 0.7360000349581242, 0.0, 0.0, 0.0, 0.0, 0.0, 1.6360751713207035E9, 0.0, 2021-11-04 20:19:31.320
30.0, 906.4414222105406, 714.6836618324742, 523.7598991445266, 1160.7658388973214, 0.5120000243186951, 0.49600002355873585, 0.7360000349581242, 0.0, 0.0, 0.0, 0.0, 0.0, 1.6360751713381317E9, 0.0, 2021-11-04 20:19:31.338
30.0, 897.7124957139604, 717.0285791046917, 549.3744739410467, 1178.2236918904819, 0.5120000243186951, 0.49600002355873585, 0.7360000349581242, 0.0, 0.0, 0.0, 0.0, 0.0, 1.6360751713381317E9, 0.0, 2021-11-04 20:19:31.338
31.0, 904.6238308320753, 715.1137503273785, 575.2545816344209, 1189.8622605525889, 0.5120000243186951, 0.49600002355873585, 0.7360000349581242, 0.0, 0.0, 0.0, 0.0, 0.0, 1.6360751713388574E9, 0.0, 2021-11-04 20:19:31.338
31.0, 906.6770359077491, 721.8567899474874, 592.3384446320124, 1186.470171292778, 0.5120000243186951, 0.49600002355873585, 0.7360000349581242, 0.0, 0.0, 0.0, 0.0, 0.0, 1.6360751713388574E9, 0.0, 2021-11-04 20:19:31.338
32.0, 903.5018608453684, 718.3412839891389, 571.6306185773574, 1187.1844921843149, 0.5120000243186951, 0.49600002355873585, 0.7360000349581242, 0.0, 0.0, 0.0, 0.0, 0.0, 1.6360751713394718E9, 0.0, 2021-11-04 20:19:31.339
32.0, 905.9552352163009, 739.2473247414455, 600.798098331783, 1190.5429223445244, 0.5120000243186951, 0.49600002355873585, 0.7360000349581242, 0.0, 0.0, 0.0, 0.0, 0.0, 1.6360751713394718E9, 0.0, 2021-11-04 20:19:31.339
33.0, 898.3258393066935, 737.2763974647969, 620.8551817941479, 1198.2695556529798, 0.5120000243186951, 0.49600002355873585, 0.7360000349581242, 0.0, 0.0, 0.0, 0.0, 0.0, 1.6360751713402295E9, 0.0, 2021-11-04 20:19:31.340
33.0, 897.6115184151568, 730.1070092497393, 627.5683022146113, 1197.300921564456, 0.5120000243186951, 0.49600002355873585, 0.7360000349581242, 0.0, 0.0, 0.0, 0.0, 0.0, 1.6360751713402295E9, 0.0, 2021-11-04 20:19:31.340
34.0, 892.5327342753299, 752.3893331857398, 628.1554665076546, 1196.9792901682667, 0.5120000243186951, 0.49600002355873585, 0.7360000349581242, 0.0, 0.0, 0.0, 0.0, 0.0, 1.6360751713514132E9, 0.0, 2021-11-04 20:19:31.351
34.0, 878.2425765446387, 743.1555201951414, 631.70837146556, 1187.5360427801497, 0.5120000243186951, 0.49600002355873585, 0.7360000349581242, 0.0, 0.0, 0.0, 0.0, 0.0, 1.6360751713514132E9, 0.0, 2021-11-04 20:19:31.351
35.0, 880.8717262134887, 745.6238541658968, 629.9431386864744, 1199.2718488411047, 0.5120000243186951, 0.49600002355873585, 0.7360000349581242, 0.0, 0.0, 0.0, 0.0, 0.0, 1.6360751713676164E9, 0.0, 2021-11-04 20:19:31.367
35.0, 899.1673167967238, 746.3755740569904, 675.3043852490373, 1213.7789207692258, 0.5120000243186951, 0.49600002355873585, 0.7360000349581242, 0.0, 0.0, 0.0, 0.0, 0.0, 1.6360751713676164E9, 0.0, 2021-11-04 20:19:31.367
39.0, 905.5625457209535, 738.8920342456549, 651.6195988296531, 1212.8514255802147, 0.5120000243186951, 0.49600002355873585, 0.7360000349581242, 0.0, 0.0, 0.0, 0.0, 0.0, 1.6360751713680823E9, 0.0, 2021-11-04 20:19:31.368
39.0, 905.6710028196685, 718.2851854898036, 642.9879097319208, 1219.721621798817, 0.5120000243186951, 0.49600002355873585, 0.7360000349581242, 0.0, 0.0, 0.0, 0.0, 0.0, 1.6360751713680823E9, 0.0, 2021-11-04 20:19:31.368
40.0, 893.7220224612392, 707.2599604204297, 629.0754818967544, 1164.775011649821, 0.5120000243186951, 0.49600002355873585, 0.7360000349581242, 0.0, 0.0, 0.0, 0.0, 0.0, 1.6360751713808136E9, 0.0, 2021-11-04 20:19:31.380
40.0, 895.4236769410782, 687.0981597593054, 600.7270402326249, 1199.0324952439405, 0.5120000243186951, 0.49600002355873585, 0.7360000349581242, 0.0, 0.0, 0.0, 0.0, 0.0, 1.6360751713808136E9, 0.0, 2021-11-04 20:19:31.380
41.0, 888.5235615228303, 694.6452778698877, 589.7092949631624, 1229.2808060855605, 0.5120000243186951, 0.49600002355873585, 0.7360000349581242, 0.0, 0.0, 0.0, 0.0, 0.0, 1.6360751714436884E9, 0.0, 2021-11-04 20:19:31.443
41.0, 897.7012760140933, 699.9447161071002, 594.4701876067556, 1234.3558503254317, 0.5120000243186951, 0.49600002355873585, 0.7360000349581242, 0.0, 0.0, 0.0, 0.0, 0.0, 1.6360751714436884E9, 0.0, 2021-11-04 20:19:31.443
42.0, 889.3201602133922, 685.5124421780929, 611.4044546061195, 1224.9649615366943, 0.5120000243186951, 0.49600002355873585, 0.7360000349581242, 0.0, 0.0, 0.0, 0.0, 0.0, 1.636075171444446E9, 0.0, 2021-11-04 20:19:31.444
42.0, 888.7965742195956, 685.415204779245, 602.6007301104255, 1213.3600519741885, 0.5120000243186951, 0.49600002355873585, 0.7360000349581242, 0.0, 0.0, 0.0, 0.0, 0.0, 1.636075171444446E9, 0.0, 2021-11-04 20:19:31.444
43.0, 893.146077868063, 679.4799835495651, 592.3459244319238, 1209.9866622141562, 0.5120000243186951, 0.49600002355873585, 0.7360000349581242, 0.0, 0.0, 0.0, 0.0, 0.0, 1.6360751714451373E9, 0.0, 2021-11-04 20:19:31.445
43.0, 896.6279247268103, 663.1590601429343, 567.486809426453, 1221.700028875377, 0.5120000243186951, 0.49600002355873585, 0.7360000349581242, 0.0, 0.0, 0.0, 0.0, 0.0, 1.6360751714451373E9, 0.0, 2021-11-04 20:19:31.445
44.0, 896.2614145311527, 665.9378058100119, 574.2822076459415, 1210.5513871074654, 0.5120000243186951, 0.49600002355873585, 0.7360000349581242, 0.0, 0.0, 0.0, 0.0, 0.0, 1.6360751714572492E9, 0.0, 2021-11-04 20:19:31.457
44.0, 890.1242387038656, 663.1515803430229, 557.2282638479955, 1199.2755887410603, 0.5120000243186951, 0.49600002355873585, 0.7360000349581242, 0.0, 0.0, 0.0, 0.0, 0.0, 1.6360751714572492E9, 0.0, 2021-11-04 20:19:31.457
45.0, 889.2079632147215, 660.31673617661, 555.5901876674034, 1210.6000058068894, 0.5120000243186951, 0.49600002355873585, 0.7360000349581242, 0.0, 0.0, 0.0, 0.0, 0.0, 1.636075171457867E9, 0.0, 2021-11-04 20:19:31.457
45.0, 889.1855238149874, 649.8487562006339, 546.9697182695381, 1218.5622528125532, 0.5120000243186951, 0.49600002355873585, 0.7360000349581242, 0.0, 0.0, 0.0, 0.0, 0.0, 1.636075171457867E9, 0.0, 2021-11-04 20:19:31.457
46.0, 883.328840484377, 649.2241929080337, 563.5000760736875, 1212.002468290273, 0.5120000243186951, 0.49600002355873585, 0.7360000349581242, 0.0, 0.0, 0.0, 0.0, 0.0, 1.636075171458624E9, 0.0, 2021-11-04 20:19:31.458
46.0, 880.2097639213316, 653.5998758561909, 542.7698106192984, 1209.8370662159286, 0.5120000243186951, 0.49600002355873585, 0.7360000349581242, 0.0, 0.0, 0.0, 0.0, 0.0, 1.636075171458624E9, 0.0, 2021-11-04 20:19:31.458
47.0, 894.4176438529976, 657.3696950115263, 527.638175398577, 1222.2497941688634, 0.5120000243186951, 0.49600002355873585, 0.7360000349581242, 0.0, 0.0, 0.0, 0.0, 0.0, 1.6360751714728253E9, 0.0, 2021-11-04 20:19:31.472
47.0, 889.9671629057266, 655.8812148291618, 541.3823077357374, 1227.8484244025312, 0.5120000243186951, 0.49600002355873585, 0.7360000349581242, 0.0, 0.0, 0.0, 0.0, 0.0, 1.6360751714728253E9, 0.0, 2021-11-04 20:19:31.472
49.0, 903.7561740423553, 664.0005376329646, 565.6879175477661, 1269.6305867074989, 0.5120000243186951, 0.49600002355873585, 0.7360000349581242, 0.0, 0.0, 0.0, 0.0, 0.0, 1.636075171473526E9, 0.0, 2021-11-04 20:19:31.473
49.0, 889.7165896086954, 678.2420766642317, 549.8195220357738, 1288.479682484176, 0.5120000243186951, 0.49600002355873585, 0.7360000349581242, 0.0, 0.0, 0.0, 0.0, 0.0, 1.636075171473526E9, 0.0, 2021-11-04 20:19:31.473
50.0, 889.2416223143227, 678.7768823578954, 527.4549203007482, 1279.2720487932675, 0.5120000243186951, 0.49600002355873585, 0.7520000357180834, 0.0, 0.0, 0.0, 0.0, 0.0, 1.6360751714742064E9, 0.0, 2021-11-04 20:19:31.474
50.0, 904.3096792357974, 677.8680866686627, 536.4232003944926, 1279.9452307852916, 0.5120000243186951, 0.49600002355873585, 0.7520000357180834, 0.0, 0.0, 0.0, 0.0, 0.0, 1.6360751714742064E9, 0.0, 2021-11-04 20:19:31.474
51.0, 913.0760047319345, 678.0924806660041, 502.4424693970941, 1282.4210445559584, 0.5120000243186951, 0.49600002355873585, 0.7520000357180834, 0.0, 0.0, 0.0, 0.0, 0.0, 1.636075171487768E9, 0.0, 2021-11-04 20:19:31.487
51.0, 921.7637923290022, 682.7187369111925, 536.804670189973, 1266.9341188394465, 0.5120000243186951, 0.49600002355873585, 0.7520000357180834, 0.0, 0.0, 0.0, 0.0, 0.0, 1.636075171487768E9, 0.0, 2021-11-04 20:19:31.487
52.0, 916.4905333914794, 685.6021997770295, 550.1635928316973, 1211.677096994128, 0.5120000243186951, 0.49600002355873585, 0.7520000357180834, 0.0, 0.0, 0.0, 0.0, 0.0, 1.636075171488642E9, 0.0, 2021-11-04 20:19:31.488
52.0, 925.5036922846921, 695.7335887569934, 541.0606763395481, 1278.3146344046108, 0.5120000243186951, 0.49600002355873585, 0.7520000357180834, 0.0, 0.0, 0.0, 0.0, 0.0, 1.636075171488642E9, 0.0, 2021-11-04 20:19:31.488
53.0, 918.0986903724261, 692.5808530943468, 527.6531349983998, 1279.8180741867982, 0.5120000243186951, 0.49600002355873585, 0.7520000357180834, 0.0, 0.0, 0.0, 0.0, 0.0, 1.636075171500786E9, 0.0, 2021-11-04 20:19:31.500
53.0, 923.7833383050747, 683.1263860063627, 529.4856859766878, 1278.2734955050983, 0.5120000243186951, 0.49600002355873585, 0.7520000357180834, 0.0, 0.0, 0.0, 0.0, 0.0, 1.636075171500786E9, 0.0, 2021-11-04 20:19:31.500
