%OpenBCI Raw EEG Data
%Number of channels = 4
%Sample Rate = 200 Hz
%Board = OpenBCI_GUI$BoardGanglionBLE
Sample Index, EXG Channel 0, EXG Channel 1, EXG Channel 2, EXG Channel 3, Accel Channel 0, Accel Channel 1, Accel Channel 2, Other, Other, Other, Other, Other, Timestamp, Other, Timestamp (Formatted)
0.0, 857.6450775386766, 656.7320420690812, 400.94158459967, 1047.5048386892304, 0.0, 0.0, 0.0, 0.0, 0.0, 0.0, 0.0, 0.0, 1.6360750598556595E9, 0.0, 2021-11-04 20:17:39.855
1.0, 857.4543426409364, 679.8259242954664, 406.82444722997025, 1048.4398136781529, 0.0, 0.17600000835955143, 0.0, 0.0, 0.0, 0.0, 0.0, 0.0, 1.6360750598563905E9, 0.0, 2021-11-04 20:17:39.856
1.0, 878.1659085955471, 676.4824537350796, 394.0115499817766, 1047.0485708946362, 0.0, 0.17600000835955143, 0.0, 0.0, 0.0, 0.0, 0.0, 0.0, 1.6360750598563905E9, 0.0, 2021-11-04 20:17:39.856
2.0, 859.9151968117803, 680.7272401847877, 424.966701915022, 1038.2448463989422, 0.25600001215934753, 0.17600000835955143, 0.0, 0.0, 0.0, 0.0, 0.0, 0.0, 1.6360750598881307E9, 0.0, 2021-11-04 20:17:39.888
2.0, 854.7952737724409, 673.80094546685, 409.8014075946994, 1010.8164201239124, 0.25600001215934753, 0.17600000835955143, 0.0, 0.0, 0.0, 0.0, 0.0, 0.0, 1.6360750598881307E9, 0.0, 2021-11-04 20:17:39.888
3.0, 858.8568051243201, 683.7303798492067, 425.7483410057612, 1057.5464700702578, 0.25600001215934753, 0.17600000835955143, 0.0, 0.0, 0.0, 0.0, 0.0, 0.0, 1.6360750598896449E9, 0.0, 2021-11-04 20:17:39.889
3.0, 857.8283326365054, 697.7325652833097, 427.9661016794853, 1045.7994443094358, 0.25600001215934753, 0.17600000835955143, 0.0, 0.0, 0.0, 0.0, 0.0, 0.0, 1.6360750598896449E9, 0.0, 2021-11-04 20:17:39.889
4.0, 865.3530113473535, 708.619414054323, 452.5746433879249, 1022.4587286859751, 0.25600001215934753, 0.17600000835955143, 0.0, 0.0, 0.0, 0.0, 0.0, 0.0, 1.6360750598901954E9, 0.0, 2021-11-04 20:17:39.890
4.0, 874.8299178350717, 717.5951739479788, 466.1018615276553, 1047.3365431912243, 0.25600001215934753, 0.17600000835955143, 0.0, 0.0, 0.0, 0.0, 0.0, 0.0, 1.6360750598901954E9, 0.0, 2021-11-04 20:17:39.890
5.0, 865.334311847575, 732.9474632660858, 479.66647866694257, 1045.5713104121387, 0.25600001215934753, 0.17600000835955143, 0.0, 0.0, 0.0, 0.0, 0.0, 0.0, 1.6360750599158819E9, 0.0, 2021-11-04 20:17:39.915
5.0, 868.0046004159376, 750.6222304566763, 511.4518883903511, 1047.5422376887873, 0.25600001215934753, 0.17600000835955143, 0.0, 0.0, 0.0, 0.0, 0.0, 0.0, 1.6360750599158819E9, 0.0, 2021-11-04 20:17:39.915
6.0, 864.152503461577, 754.6388830090873, 498.98306193808094, 1044.2436459278688, 0.25600001215934753, 0.17600000835955143, 0.0, 0.0, 0.0, 0.0, 0.0, 0.0, 1.6360750599322605E9, 0.0, 2021-11-04 20:17:39.932
6.0, 866.5348197333515, 773.3084635878913, 495.12348518380895, 1042.033365054056, 0.25600001215934753, 0.17600000835955143, 0.0, 0.0, 0.0, 0.0, 0.0, 0.0, 1.6360750599322605E9, 0.0, 2021-11-04 20:17:39.932
7.0, 881.1802679598331, 766.4607067690231, 503.0258937901817, 1047.052310794592, 0.25600001215934753, 0.17600000835955143, 0.0, 0.0, 0.0, 0.0, 0.0, 0.0, 1.6360750599329717E9, 0.0, 2021-11-04 20:17:39.932
7.0, 864.5003141574562, 747.0693254987709, 515.5508187417872, 1036.4122954206541, 0.25600001215934753, 0.17600000835955143, 0.0, 0.0, 0.0, 0.0, 0.0, 0.0, 1.6360750599329717E9, 0.0, 2021-11-04 20:17:39.932
8.0, 876.8120648115873, 763.446347404737, 513.467694466468, 1020.6934959068894, 0.25600001215934753, 0.17600000835955143, 0.0, 0.0, 0.0, 0.0, 0.0, 0.0, 1.6360750599337764E9, 0.0, 2021-11-04 20:17:39.933
8.0, 843.1155662108213, 774.1013223784976, 508.8937968206592, 1008.3742654528469, 0.25600001215934753, 0.17600000835955143, 0.0, 0.0, 0.0, 0.0, 0.0, 0.0, 1.6360750599337764E9, 0.0, 2021-11-04 20:17:39.933
9.0, 854.9785288702697, 776.532257349696, 518.9167287019081, 1021.2844000998884, 0.25600001215934753, 0.17600000835955143, 0.0, 0.0, 0.0, 0.0, 0.0, 0.0, 1.6360750599454155E9, 0.0, 2021-11-04 20:17:39.945
9.0, 875.5554584264755, 754.8296179068275, 494.2894874936901, 1062.6065547103062, 0.25600001215934753, 0.17600000835955143, 0.0, 0.0, 0.0, 0.0, 0.0, 0.0, 1.6360750599454155E9, 0.0, 2021-11-04 20:17:39.945
10.0, 882.0928035490215, 741.2500411677174, 503.7663939814083, 1053.1969664217904, 0.25600001215934753, 0.17600000835955143, 0.3840000182390213, 0.0, 0.0, 0.0, 0.0, 0.0, 1.6360750599461672E9, 0.0, 2021-11-04 20:17:39.946
10.0, 871.6697023725137, 725.5574209536426, 483.30166142387316, 1048.2266393806785, 0.25600001215934753, 0.17600000835955143, 0.3840000182390213, 0.0, 0.0, 0.0, 0.0, 0.0, 1.6360750599461672E9, 0.0, 2021-11-04 20:17:39.946
11.0, 860.1470706090331, 705.5040773912333, 448.53929133573547, 1038.7572126928717, 0.25600001215934753, 0.2400000113993883, 0.3840000182390213, 0.0, 0.0, 0.0, 0.0, 0.0, 1.636075059960436E9, 0.0, 2021-11-04 20:17:39.960
11.0, 862.4471090817824, 691.1166822616942, 441.8112113154493, 1036.1542423237115, 0.25600001215934753, 0.2400000113993883, 0.3840000182390213, 0.0, 0.0, 0.0, 0.0, 0.0, 1.636075059960436E9, 0.0, 2021-11-04 20:17:39.960
12.0, 863.0043541751802, 688.3715956942178, 433.06358531909063, 1024.9756813561544, 0.3840000182390213, 0.2400000113993883, 0.3840000182390213, 0.0, 0.0, 0.0, 0.0, 0.0, 1.636075059961171E9, 0.0, 2021-11-04 20:17:39.961
12.0, 867.3164588240907, 672.69019518001, 409.2927812007256, 998.5757275689393, 0.3840000182390213, 0.2400000113993883, 0.3840000182390213, 0.0, 0.0, 0.0, 0.0, 0.0, 1.636075059961171E9, 0.0, 2021-11-04 20:17:39.961
13.0, 844.3160740965977, 667.2972594439052, 423.64277733070776, 1012.4470165045932, 0.3840000182390213, 0.2400000113993883, 0.3840000182390213, 0.0, 0.0, 0.0, 0.0, 0.0, 1.6360750599747157E9, 0.0, 2021-11-04 20:17:39.974
13.0, 856.7362818494439, 665.7190216626041, 418.4330966924317, 1002.7344963196665, 0.3840000182390213, 0.2400000113993883, 0.3840000182390213, 0.0, 0.0, 0.0, 0.0, 0.0, 1.6360750599747157E9, 0.0, 2021-11-04 20:17:39.974
14.0, 856.68766315002, 671.6205837926827, 418.61261189030483, 1007.4093712642789, 0.3840000182390213, 0.2400000113993883, 0.3840000182390213, 0.0, 0.0, 0.0, 0.0, 0.0, 1.6360750600078437E9, 0.0, 2021-11-04 20:17:40.007
14.0, 836.6156200878322, 655.4903952837922, 397.44103824114427, 995.9316183002666, 0.3840000182390213, 0.2400000113993883, 0.3840000182390213, 0.0, 0.0, 0.0, 0.0, 0.0, 1.6360750600078437E9, 0.0, 2021-11-04 20:17:40.007
15.0, 846.7470090677962, 654.3609454971738, 401.0687411981635, 989.0352427819744, 0.3840000182390213, 0.2400000113993883, 0.3840000182390213, 0.0, 0.0, 0.0, 0.0, 0.0, 1.6360750600085359E9, 0.0, 2021-11-04 20:17:40.008
15.0, 821.8841541623697, 657.6221382585354, 405.8071944420226, 968.3461162270978, 0.3840000182390213, 0.2400000113993883, 0.3840000182390213, 0.0, 0.0, 0.0, 0.0, 0.0, 1.6360750600085359E9, 0.0, 2021-11-04 20:17:40.008
16.0, 839.1325727580115, 640.4634772618301, 398.78740222519264, 983.8218222437426, 0.3840000182390213, 0.2400000113993883, 0.3840000182390213, 0.0, 0.0, 0.0, 0.0, 0.0, 1.63607506000931E9, 0.0, 2021-11-04 20:17:40.009
16.0, 832.8944196319208, 634.8723268280737, 380.36839494341984, 1006.8521261708811, 0.3840000182390213, 0.2400000113993883, 0.3840000182390213, 0.0, 0.0, 0.0, 0.0, 0.0, 1.63607506000931E9, 0.0, 2021-11-04 20:17:40.009
17.0, 808.8319033170119, 643.563854325097, 377.0511036827229, 994.9704640116543, 0.3840000182390213, 0.2400000113993883, 0.3840000182390213, 0.0, 0.0, 0.0, 0.0, 0.0, 1.6360750600208197E9, 0.0, 2021-11-04 20:17:40.020
17.0, 826.4356124084443, 635.2799759232439, 368.0005457899533, 996.9825301878154, 0.3840000182390213, 0.2400000113993883, 0.3840000182390213, 0.0, 0.0, 0.0, 0.0, 0.0, 1.6360750600208197E9, 0.0, 2021-11-04 20:17:40.020
18.0, 812.3174900757149, 611.2997374073602, 366.17173471162096, 982.9167664544657, 0.3840000182390213, 0.2400000113993883, 0.3840000182390213, 0.0, 0.0, 0.0, 0.0, 0.0, 1.6360750600516732E9, 0.0, 2021-11-04 20:17:40.051
18.0, 809.8454162050039, 605.3645161776803, 358.83405099855736, 982.1089480640367, 0.3840000182390213, 0.2400000113993883, 0.3840000182390213, 0.0, 0.0, 0.0, 0.0, 0.0, 1.6360750600516732E9, 0.0, 2021-11-04 20:17:40.051
19.0, 811.0160048911348, 621.7751971832477, 370.06123066553846, 973.8961277613416, 0.3840000182390213, 0.2400000113993883, 0.3840000182390213, 0.0, 0.0, 0.0, 0.0, 0.0, 1.6360750600523753E9, 0.0, 2021-11-04 20:17:40.052
19.0, 807.9679864272475, 610.506878616754, 358.40022260369733, 977.0675629237667, 0.3840000182390213, 0.2400000113993883, 0.3840000182390213, 0.0, 0.0, 0.0, 0.0, 0.0, 1.6360750600523753E9, 0.0, 2021-11-04 20:17:40.052
20.0, 809.2432923121378, 613.8578289770521, 364.76927222823724, 978.8290558028966, 0.3840000182390213, 0.2400000113993883, 0.5600000265985727, 0.0, 0.0, 0.0, 0.0, 0.0, 1.6360750600531619E9, 0.0, 2021-11-04 20:17:40.053
20.0, 818.020837508142, 605.9666400705464, 365.7192068169825, 992.307655243203, 0.3840000182390213, 0.2400000113993883, 0.5600000265985727, 0.0, 0.0, 0.0, 0.0, 0.0, 1.6360750600531619E9, 0.0, 2021-11-04 20:17:40.053
21.0, 821.3867474682629, 592.8657705257647, 330.9082180294208, 992.3861931422725, 0.3840000182390213, 0.35200001671910286, 0.5600000265985727, 0.0, 0.0, 0.0, 0.0, 0.0, 1.6360750600539496E9, 0.0, 2021-11-04 20:17:40.053
21.0, 809.5387444086373, 596.2242006859742, 354.02453965554014, 991.8102485490963, 0.3840000182390213, 0.35200001671910286, 0.5600000265985727, 0.0, 0.0, 0.0, 0.0, 0.0, 1.6360750600539496E9, 0.0, 2021-11-04 20:17:40.053
22.0, 823.4249929441139, 615.776397654321, 368.03046498959884, 972.0747964829206, 0.4480000212788582, 0.35200001671910286, 0.5600000265985727, 0.0, 0.0, 0.0, 0.0, 0.0, 1.636075060064662E9, 0.0, 2021-11-04 20:17:40.064
22.0, 813.8097101580352, 625.8629078348167, 368.06038418924436, 971.0201446954161, 0.4480000212788582, 0.35200001671910286, 0.5600000265985727, 0.0, 0.0, 0.0, 0.0, 0.0, 1.636075060064662E9, 0.0, 2021-11-04 20:17:40.064
23.0, 831.9257855433971, 627.3962668166496, 359.2566596935503, 1008.277028053999, 0.4480000212788582, 0.35200001671910286, 0.5600000265985727, 0.0, 0.0, 0.0, 0.0, 0.0, 1.6360750601280432E9, 0.0, 2021-11-04 20:17:40.128
23.0, 815.9264935329556, 618.2821306246333, 366.4223080086522, 1039.1536420881748, 0.4480000212788582, 0.35200001671910286, 0.5600000265985727, 0.0, 0.0, 0.0, 0.0, 0.0, 1.6360750601280432E9, 0.0, 2021-11-04 20:17:40.128
24.0, 840.4677170421928, 614.4711725697853, 355.5952976369299, 1021.1048849020153, 0.4480000212788582, 0.35200001671910286, 0.5600000265985727, 0.0, 0.0, 0.0, 0.0, 0.0, 1.6360750601287453E9, 0.0, 2021-11-04 20:17:40.128
24.0, 853.0263010933995, 631.0838081729598, 353.97966085607186, 1031.711241176352, 0.4480000212788582, 0.35200001671910286, 0.5600000265985727, 0.0, 0.0, 0.0, 0.0, 0.0, 1.6360750601287453E9, 0.0, 2021-11-04 20:17:40.128
25.0, 854.6568974740803, 623.0318035683595, 355.87953003356233, 1035.6568356296048, 0.4480000212788582, 0.35200001671910286, 0.5600000265985727, 0.0, 0.0, 0.0, 0.0, 0.0, 1.6360750601294868E9, 0.0, 2021-11-04 20:17:40.129
25.0, 868.8909567054361, 637.2284638001584, 371.51605174830183, 1029.5346194021404, 0.4480000212788582, 0.35200001671910286, 0.5600000265985727, 0.0, 0.0, 0.0, 0.0, 0.0, 1.6360750601294868E9, 0.0, 2021-11-04 20:17:40.129
26.0, 858.7745273252949, 635.5230694203638, 361.3734430684708, 1045.9490403076634, 0.4480000212788582, 0.35200001671910286, 0.5600000265985727, 0.0, 0.0, 0.0, 0.0, 0.0, 1.6360750601302705E9, 0.0, 2021-11-04 20:17:40.130
26.0, 872.3466242644936, 628.634173701983, 370.3417231622152, 1039.946500878781, 0.4480000212788582, 0.35200001671910286, 0.5600000265985727, 0.0, 0.0, 0.0, 0.0, 0.0, 1.6360750601302705E9, 0.0, 2021-11-04 20:17:40.130
27.0, 878.0985903963447, 640.0259089670144, 358.7368135997094, 1038.308424698189, 0.4480000212788582, 0.35200001671910286, 0.5600000265985727, 0.0, 0.0, 0.0, 0.0, 0.0, 1.6360750601416948E9, 0.0, 2021-11-04 20:17:40.141
27.0, 868.8572976058349, 623.869541158434, 352.663216071669, 1021.1422839015722, 0.4480000212788582, 0.35200001671910286, 0.5600000265985727, 0.0, 0.0, 0.0, 0.0, 0.0, 1.6360750601416948E9, 0.0, 2021-11-04 20:17:40.141
28.0, 877.6647620014846, 611.6138890036382, 356.13384323054925, 1038.2859852984548, 0.4480000212788582, 0.35200001671910286, 0.5600000265985727, 0.0, 0.0, 0.0, 0.0, 0.0, 1.6360750601424048E9, 0.0, 2021-11-04 20:17:40.142
28.0, 884.9912260146812, 621.2590909893624, 358.50493980245665, 1060.7216451326385, 0.4480000212788582, 0.35200001671910286, 0.5600000265985727, 0.0, 0.0, 0.0, 0.0, 0.0, 1.6360750601424048E9, 0.0, 2021-11-04 20:17:40.142
29.0, 880.0695176729932, 630.9080328750424, 370.39408176159486, 1058.485184959136, 0.4480000212788582, 0.35200001671910286, 0.5600000265985727, 0.0, 0.0, 0.0, 0.0, 0.0, 1.6360750601431625E9, 0.0, 2021-11-04 20:17:40.143
29.0, 873.5546119501814, 643.6461321241222, 356.3021387285553, 1056.7573511796072, 0.4480000212788582, 0.35200001671910286, 0.5600000265985727, 0.0, 0.0, 0.0, 0.0, 0.0, 1.6360750601431625E9, 0.0, 2021-11-04 20:17:40.143
30.0, 882.1264626486227, 648.3247469686903, 371.54223104799166, 1046.3118106033653, 0.4480000212788582, 0.35200001671910286, 0.6560000311583281, 0.0, 0.0, 0.0, 0.0, 0.0, 1.6360750601439908E9, 0.0, 2021-11-04 20:17:40.143
30.0, 880.2265934711322, 638.7319035823457, 371.62824874697253, 1068.4669779408723, 0.4480000212788582, 0.35200001671910286, 0.6560000311583281, 0.0, 0.0, 0.0, 0.0, 0.0, 1.6360750601439908E9, 0.0, 2021-11-04 20:17:40.143
31.0, 873.0422456562519, 626.2032387307845, 359.4062556917779, 1057.5128109706566, 0.4480000212788582, 0.41600001975893974, 0.6560000311583281, 0.0, 0.0, 0.0, 0.0, 0.0, 1.6360750601546495E9, 0.0, 2021-11-04 20:17:40.154
31.0, 901.2560509219766, 634.326301434543, 349.6264173076488, 1064.0875550927594, 0.4480000212788582, 0.41600001975893974, 0.6560000311583281, 0.0, 0.0, 0.0, 0.0, 0.0, 1.6360750601546495E9, 0.0, 2021-11-04 20:17:40.154
32.0, 880.7015607655048, 654.2898873980157, 369.46658657258376, 1058.7581976559013, 0.4800000227987766, 0.41600001975893974, 0.6560000311583281, 0.0, 0.0, 0.0, 0.0, 0.0, 1.63607506018576E9, 0.0, 2021-11-04 20:17:40.185
32.0, 889.7745580580086, 651.6756973289885, 364.88146922690794, 1051.2783977445215, 0.4800000227987766, 0.41600001975893974, 0.6560000311583281, 0.0, 0.0, 0.0, 0.0, 0.0, 1.63607506018576E9, 0.0, 2021-11-04 20:17:40.185
33.0, 892.8375361217186, 640.9459243561141, 384.7178985918872, 1069.6263469271362, 0.4800000227987766, 0.41600001975893974, 0.6560000311583281, 0.0, 0.0, 0.0, 0.0, 0.0, 1.6360750602017457E9, 0.0, 2021-11-04 20:17:40.201
33.0, 889.2098331646994, 655.299660386052, 394.4715576763265, 1073.0633149864152, 0.4800000227987766, 0.41600001975893974, 0.6560000311583281, 0.0, 0.0, 0.0, 0.0, 0.0, 1.6360750602017457E9, 0.0, 2021-11-04 20:17:40.201
34.0, 881.580437255092, 659.6042852350511, 368.32591708609834, 1065.4713180763647, 0.4800000227987766, 0.41600001975893974, 0.6560000311583281, 0.0, 0.0, 0.0, 0.0, 0.0, 1.636075060202449E9, 0.0, 2021-11-04 20:17:40.202
34.0, 873.5994907496497, 638.4588908855803, 370.84660965623334, 1054.902360801585, 0.4800000227987766, 0.41600001975893974, 0.6560000311583281, 0.0, 0.0, 0.0, 0.0, 0.0, 1.636075060202449E9, 0.0, 2021-11-04 20:17:40.202
35.0, 876.0491252206266, 638.619706583675, 360.09065738366917, 1026.344484739937, 0.4800000227987766, 0.41600001975893974, 0.6560000311583281, 0.0, 0.0, 0.0, 0.0, 0.0, 1.6360750602031708E9, 0.0, 2021-11-04 20:17:40.203
35.0, 881.7524726530537, 642.4044853388332, 363.75949924020097, 1064.1997520914301, 0.4800000227987766, 0.41600001975893974, 0.6560000311583281, 0.0, 0.0, 0.0, 0.0, 0.0, 1.6360750602031708E9, 0.0, 2021-11-04 20:17:40.203
36.0, 857.1439309446141, 629.5841082907282, 346.39140384597704, 1056.9069471778348, 0.4800000227987766, 0.41600001975893974, 0.6560000311583281, 0.0, 0.0, 0.0, 0.0, 0.0, 1.6360750602039852E9, 0.0, 2021-11-04 20:17:40.203
36.0, 867.63809022028, 622.5044776746072, 347.27028033556417, 1046.9363738959655, 0.4800000227987766, 0.41600001975893974, 0.6560000311583281, 0.0, 0.0, 0.0, 0.0, 0.0, 1.6360750602039852E9, 0.0, 2021-11-04 20:17:40.203
37.0, 882.2199601475149, 631.4839774682187, 356.46669432660565, 1068.2388440435752, 0.4800000227987766, 0.41600001975893974, 0.6560000311583281, 0.0, 0.0, 0.0, 0.0, 0.0, 1.6360750602306852E9, 0.0, 2021-11-04 20:17:40.230
37.0, 872.2306873658672, 633.9971902384423, 370.65213485853747, 1063.4031534008682, 0.4800000227987766, 0.41600001975893974, 0.6560000311583281, 0.0, 0.0, 0.0, 0.0, 0.0, 1.6360750602306852E9, 0.0, 2021-11-04 20:17:40.230
38.0, 856.7886404488236, 631.4615380684845, 371.3739355499856, 1055.0930956993252, 0.4800000227987766, 0.41600001975893974, 0.6560000311583281, 0.0, 0.0, 0.0, 0.0, 0.0, 1.636075060231412E9, 0.0, 2021-11-04 20:17:40.231
38.0, 865.6110644442961, 629.6888254894875, 367.2263864991255, 1039.7034073816612, 0.4800000227987766, 0.41600001975893974, 0.6560000311583281, 0.0, 0.0, 0.0, 0.0, 0.0, 1.636075060231412E9, 0.0, 2021-11-04 20:17:40.231
39.0, 872.354104064405, 621.5283637861721, 351.84043808141723, 1026.2285478413105, 0.4800000227987766, 0.41600001975893974, 0.6560000311583281, 0.0, 0.0, 0.0, 0.0, 0.0, 1.6360750602452917E9, 0.0, 2021-11-04 20:17:40.245
39.0, 875.5778978262097, 619.2694642129354, 352.50614027353004, 1048.0209448831156, 0.4800000227987766, 0.41600001975893974, 0.6560000311583281, 0.0, 0.0, 0.0, 0.0, 0.0, 1.6360750602452917E9, 0.0, 2021-11-04 20:17:40.245
40.0, 867.5258932216093, 631.2969824704342, 344.5064942683093, 1056.723692080006, 0.4800000227987766, 0.41600001975893974, 0.7040000334382057, 0.0, 0.0, 0.0, 0.0, 0.0, 1.6360750602460551E9, 0.0, 2021-11-04 20:17:40.246
40.0, 859.6945427143946, 625.7245315364562, 341.8474253998138, 1060.7440845323727, 0.4800000227987766, 0.41600001975893974, 0.7040000334382057, 0.0, 0.0, 0.0, 0.0, 0.0, 1.6360750602460551E9, 0.0, 2021-11-04 20:17:40.246
41.0, 861.3700178945437, 611.3034773073159, 342.9132968871854, 1046.47262630146, 0.4800000227987766, 0.4480000212788582, 0.7040000334382057, 0.0, 0.0, 0.0, 0.0, 0.0, 1.6360750602607584E9, 0.0, 2021-11-04 20:17:40.260
41.0, 858.0153276342899, 610.4732195171528, 345.02260046219453, 1037.885816003196, 0.4800000227987766, 0.4480000212788582, 0.7040000334382057, 0.0, 0.0, 0.0, 0.0, 0.0, 1.6360750602607584E9, 0.0, 2021-11-04 20:17:40.260
42.0, 845.6773976804689, 616.5954357446171, 351.84043808141723, 1047.1495481934398, 0.49600002355873585, 0.4480000212788582, 0.7040000334382057, 0.0, 0.0, 0.0, 0.0, 0.0, 1.63607506032242E9, 0.0, 2021-11-04 20:17:40.322
42.0, 860.6743965027854, 635.7025846182369, 356.38815642753616, 1048.2303792806342, 0.49600002355873585, 0.4480000212788582, 0.7040000334382057, 0.0, 0.0, 0.0, 0.0, 0.0, 1.63607506032242E9, 0.0, 2021-11-04 20:17:40.322
43.0, 875.465700827539, 624.774596947711, 346.46246194513515, 1049.7375589627773, 0.49600002355873585, 0.4480000212788582, 0.7040000334382057, 0.0, 0.0, 0.0, 0.0, 0.0, 1.6360750603231497E9, 0.0, 2021-11-04 20:17:40.323
43.0, 873.4798139510676, 634.1243468369357, 348.8784373165108, 1022.653203483671, 0.49600002355873585, 0.4480000212788582, 0.7040000334382057, 0.0, 0.0, 0.0, 0.0, 0.0, 1.6360750603231497E9, 0.0, 2021-11-04 20:17:40.323
44.0, 861.0745657980442, 635.7699028174393, 352.5136200734414, 1068.4370587412268, 0.49600002355873585, 0.4480000212788582, 0.7040000334382057, 0.0, 0.0, 0.0, 0.0, 0.0, 1.636075060323927E9, 0.0, 2021-11-04 20:17:40.323
44.0, 858.0564665338024, 640.6018535601906, 352.31914527574554, 1070.6697790147737, 0.49600002355873585, 0.4480000212788582, 0.7040000334382057, 0.0, 0.0, 0.0, 0.0, 0.0, 1.636075060323927E9, 0.0, 2021-11-04 20:17:40.323
45.0, 863.6887558670714, 633.6643391423859, 360.1205765833147, 1058.6123415576294, 0.49600002355873585, 0.4480000212788582, 0.7040000334382057, 0.0, 0.0, 0.0, 0.0, 0.0, 1.636075060324796E9, 0.0, 2021-11-04 20:17:40.324
45.0, 854.503561575897, 640.6616919594817, 364.4551206319593, 1071.642153003253, 0.49600002355873585, 0.4480000212788582, 0.7040000334382057, 0.0, 0.0, 0.0, 0.0, 0.0, 1.636075060324796E9, 0.0, 2021-11-04 20:17:40.324
46.0, 860.1134115094319, 643.937844320666, 361.1228697714396, 1041.0796905653551, 0.49600002355873585, 0.4480000212788582, 0.7040000334382057, 0.0, 0.0, 0.0, 0.0, 0.0, 1.6360750603373983E9, 0.0, 2021-11-04 20:17:40.337
46.0, 851.1488713156432, 637.2957819993608, 368.595189882908, 1056.0879090875387, 0.49600002355873585, 0.4480000212788582, 0.7040000334382057, 0.0, 0.0, 0.0, 0.0, 0.0, 1.6360750603373983E9, 0.0, 2021-11-04 20:17:40.337
47.0, 854.974788970314, 651.8888716264628, 365.9623003141023, 1052.2208525333554, 0.49600002355873585, 0.4480000212788582, 0.7040000334382057, 0.0, 0.0, 0.0, 0.0, 0.0, 1.636075060338178E9, 0.0, 2021-11-04 20:17:40.338
47.0, 870.1064241910353, 663.4077634899877, 368.052904389333, 1039.007785989903, 0.49600002355873585, 0.4480000212788582, 0.7040000334382057, 0.0, 0.0, 0.0, 0.0, 0.0, 1.636075060338178E9, 0.0, 2021-11-04 20:17:40.338
48.0, 867.8811837173998, 654.660137493629, 363.4603072437458, 1065.4002599772066, 0.49600002355873585, 0.4480000212788582, 0.7040000334382057, 0.0, 0.0, 0.0, 0.0, 0.0, 1.6360750603388817E9, 0.0, 2021-11-04 20:17:40.338
48.0, 846.3169205728918, 665.273973567877, 379.21276585711166, 1089.4216373926029, 0.49600002355873585, 0.4480000212788582, 0.7040000334382057, 0.0, 0.0, 0.0, 0.0, 0.0, 1.6360750603388817E9, 0.0, 2021-11-04 20:17:40.338
49.0, 867.5520725212991, 654.6152586941607, 377.84770237328485, 1084.8327801469713, 0.49600002355873585, 0.4480000212788582, 0.7040000334382057, 0.0, 0.0, 0.0, 0.0, 0.0, 1.636075060339651E9, 0.0, 2021-11-04 20:17:40.339
49.0, 860.6818763026968, 660.7711340212263, 384.8338354905136, 1078.7741422187537, 0.49600002355873585, 0.4480000212788582, 0.7040000334382057, 0.0, 0.0, 0.0, 0.0, 0.0, 1.636075060339651E9, 0.0, 2021-11-04 20:17:40.339
50.0, 853.7368820849806, 670.749187103007, 386.2849166733213, 1095.6373511189595, 0.49600002355873585, 0.4480000212788582, 0.7200000341981649, 0.0, 0.0, 0.0, 0.0, 0.0, 1.636075060350345E9, 0.0, 2021-11-04 20:17:40.350
50.0, 852.4690560000017, 657.012534565758, 380.4656323422678, 1087.8433996113017, 0.49600002355873585, 0.4480000212788582, 0.7200000341981649, 0.0, 0.0, 0.0, 0.0, 0.0, 1.636075060350345E9, 0.0, 2021-11-04 20:17:40.350
51.0, 861.6280709914863, 650.0750201479532, 408.3578062118031, 1081.9493172811344, 0.49600002355873585, 0.4640000220388174, 0.7200000341981649, 0.0, 0.0, 0.0, 0.0, 0.0, 1.6360750603510156E9, 0.0, 2021-11-04 20:17:40.351
51.0, 868.3673707116395, 677.6268631215207, 417.46446260390803, 1102.6122645363212, 0.49600002355873585, 0.4640000220388174, 0.7200000341981649, 0.0, 0.0, 0.0, 0.0, 0.0, 1.6360750603510156E9, 0.0, 2021-11-04 20:17:40.351
52.0, 839.3756662551314, 681.0638311807998, 422.2627542470582, 1074.4470779700205, 0.5120000243186951, 0.4640000220388174, 0.7200000341981649, 0.0, 0.0, 0.0, 0.0, 0.0, 1.6360750603808053E9, 0.0, 2021-11-04 20:17:40.380
52.0, 852.1549044037238, 660.5841390234418, 429.35734446300194, 1087.4843692155555, 0.5120000243186951, 0.4640000220388174, 0.7200000341981649, 0.0, 0.0, 0.0, 0.0, 0.0, 1.6360750603808053E9, 0.0, 2021-11-04 20:17:40.380
53.0, 869.8708104938269, 668.7932194261812, 443.62132289400324, 1096.1048386134207, 0.5120000243186951, 0.4640000220388174, 0.7200000341981649, 0.0, 0.0, 0.0, 0.0, 0.0, 1.636075060412433E9, 0.0, 2021-11-04 20:17:40.412
53.0, 873.861283746548, 684.0295718456618, 471.59577456256375, 1091.3177666701376, 0.5120000243186951, 0.4640000220388174, 0.7200000341981649, 0.0, 0.0, 0.0, 0.0, 0.0, 1.636075060412433E9, 0.0, 2021-11-04 20:17:40.412
54.0, 867.4136962229386, 657.289287162479, 456.77829093812034, 1117.8186977561563, 0.5120000243186951, 0.4640000220388174, 0.7200000341981649, 0.0, 0.0, 0.0, 0.0, 0.0, 1.6360750604131863E9, 0.0, 2021-11-04 20:17:40.413
54.0, 851.4779825117439, 649.0951663595624, 421.6344510545023, 1121.0462314179167, 0.5120000243186951, 0.4640000220388174, 0.7200000341981649, 0.0, 0.0, 0.0, 0.0, 0.0, 1.6360750604131863E9, 0.0, 2021-11-04 20:17:40.413
55.0, 856.8222995484248, 651.2493487340398, 424.94800241524354, 1125.3059774674475, 0.5120000243186951, 0.4640000220388174, 0.7200000341981649, 0.0, 0.0, 0.0, 0.0, 0.0, 1.6360750604139097E9, 0.0, 2021-11-04 20:17:40.413
55.0, 855.4235769649968, 657.3715649615042, 444.39548218483105, 1101.7782668462023, 0.5120000243186951, 0.4640000220388174, 0.7200000341981649, 0.0, 0.0, 0.0, 0.0, 0.0, 1.6360750604139097E9, 0.0, 2021-11-04 20:17:40.413
56.0, 843.2689021090046, 649.7346892519854, 443.1089566000737, 1084.342853252776, 0.5120000243186951, 0.4640000220388174, 0.7200000341981649, 0.0, 0.0, 0.0, 0.0, 0.0, 1.636075060414631E9, 0.0, 2021-11-04 20:17:40.414
56.0, 841.2867551324889, 633.3950663455762, 453.17676728079095, 1086.6615912253037, 0.5120000243186951, 0.4640000220388174, 0.7200000341981649, 0.0, 0.0, 0.0, 0.0, 0.0, 1.636075060414631E9, 0.0, 2021-11-04 20:17:40.414
57.0, 838.3509336672723, 637.5762744960375, 447.4210612489842, 1070.9016528120264, 0.5120000243186951, 0.4640000220388174, 0.7200000341981649, 0.0, 0.0, 0.0, 0.0, 0.0, 1.6360750604424095E9, 0.0, 2021-11-04 20:17:40.442
57.0, 842.6854777159169, 621.1768131903373, 426.1559901009314, 1098.8125261813402, 0.5120000243186951, 0.4640000220388174, 0.7200000341981649, 0.0, 0.0, 0.0, 0.0, 0.0, 1.6360750604424095E9, 0.0, 2021-11-04 20:17:40.442
58.0, 842.0085558239371, 662.5625461000018, 433.8527042097412, 1085.1581514431164, 0.5120000243186951, 0.4640000220388174, 0.7200000341981649, 0.0, 0.0, 0.0, 0.0, 0.0, 1.6360750604431367E9, 0.0, 2021-11-04 20:17:40.443
58.0, 851.0291945170611, 661.1675634165294, 436.074204783421, 1111.1429763352498, 0.5120000243186951, 0.4640000220388174, 0.7200000341981649, 0.0, 0.0, 0.0, 0.0, 0.0, 1.6360750604431367E9, 0.0, 2021-11-04 20:17:40.443
59.0, 850.4382903240621, 641.2563360524364, 405.1340124499984, 1095.065146425739, 0.5120000243186951, 0.4640000220388174, 0.7200000341981649, 0.0, 0.0, 0.0, 0.0, 0.0, 1.6360750604438968E9, 0.0, 2021-11-04 20:17:40.443
59.0, 850.4233307242393, 644.0425615194254, 406.60753303254023, 1095.932803215459, 0.5120000243186951, 0.4640000220388174, 0.7200000341981649, 0.0, 0.0, 0.0, 0.0, 0.0, 1.6360750604438968E9, 0.0, 2021-11-04 20:17:40.443
60.0, 852.5027150996029, 646.9970824844204, 403.00226947525516, 1107.6611294765025, 0.5120000243186951, 0.4640000220388174, 0.7360000349581242, 0.0, 0.0, 0.0, 0.0, 0.0, 1.6360750604446032E9, 0.0, 2021-11-04 20:17:40.444
60.0, 842.6555585162714, 647.0644006836228, 429.57425866043195, 1063.4218529006466, 0.5120000243186951, 0.4640000220388174, 0.7360000349581242, 0.0, 0.0, 0.0, 0.0, 0.0, 1.6360750604446032E9, 0.0, 2021-11-04 20:17:40.444
61.0, 846.3879786720499, 639.8763129687868, 416.94461651006714, 1072.8987593883649, 0.5120000243186951, 0.4800000227987766, 0.7360000349581242, 0.0, 0.0, 0.0, 0.0, 0.0, 1.6360750604700797E9, 0.0, 2021-11-04 20:17:40.470
61.0, 833.8256547208875, 634.0308493380435, 393.6226003863849, 1084.499929050915, 0.5120000243186951, 0.4800000227987766, 0.7360000349581242, 0.0, 0.0, 0.0, 0.0, 0.0, 1.6360750604700797E9, 0.0, 2021-11-04 20:17:40.470
62.0, 842.3376670200378, 634.1168670370243, 392.70632489724085, 1107.9117027735338, 0.5120000243186951, 0.4800000227987766, 0.7360000349581242, 0.0, 0.0, 0.0, 0.0, 0.0, 1.6360750604867368E9, 0.0, 2021-11-04 20:17:40.486
62.0, 839.9964896477759, 629.9543583863415, 411.8172136708163, 1052.6397213283926, 0.5120000243186951, 0.4800000227987766, 0.7360000349581242, 0.0, 0.0, 0.0, 0.0, 0.0, 1.6360750604867368E9, 0.0, 2021-11-04 20:17:40.486
63.0, 826.9666782021523, 639.6631386713125, 387.44428565958515, 1091.9685092624277, 0.5120000243186951, 0.4800000227987766, 0.7360000349581242, 0.0, 0.0, 0.0, 0.0, 0.0, 1.6360750604874675E9, 0.0, 2021-11-04 20:17:40.487
63.0, 831.9818840427324, 644.8129809102975, 417.1727504073642, 1101.6473703477532, 0.5120000243186951, 0.4800000227987766, 0.7360000349581242, 0.0, 0.0, 0.0, 0.0, 0.0, 1.6360750604874675E9, 0.0, 2021-11-04 20:17:40.487
64.0, 848.2953276494518, 635.44827142125, 388.4241394479759, 1097.6868162946776, 0.5120000243186951, 0.4800000227987766, 0.7360000349581242, 0.0, 0.0, 0.0, 0.0, 0.0, 1.6360750604882722E9, 0.0, 2021-11-04 20:17:40.488
64.0, 842.2666089208797, 637.0190294026397, 389.66204633330926, 1095.5737728197128, 0.5120000243186951, 0.4800000227987766, 0.7360000349581242, 0.0, 0.0, 0.0, 0.0, 0.0, 1.6360750604882722E9, 0.0, 2021-11-04 20:17:40.488
65.0, 834.0500487182289, 658.8039466445334, 410.9458169811405, 1099.8484784690663, 0.5120000243186951, 0.4800000227987766, 0.7360000349581242, 0.0, 0.0, 0.0, 0.0, 0.0, 1.636075060488958E9, 0.0, 2021-11-04 20:17:40.488
65.0, 853.9986750818789, 659.0769593412988, 414.5211613387801, 1122.3402368025854, 0.5120000243186951, 0.4800000227987766, 0.7360000349581242, 0.0, 0.0, 0.0, 0.0, 0.0, 1.636075060488958E9, 0.0, 2021-11-04 20:17:40.488
66.0, 828.8216685801744, 659.8286792323925, 419.3643317813985, 1135.2578512495384, 0.5120000243186951, 0.4800000227987766, 0.7360000349581242, 0.0, 0.0, 0.0, 0.0, 0.0, 1.63607506049971E9, 0.0, 2021-11-04 20:17:40.499
66.0, 851.9903488056734, 655.1276249880902, 418.63879118999466, 1143.0705022569746, 0.5120000243186951, 0.4800000227987766, 0.7360000349581242, 0.0, 0.0, 0.0, 0.0, 0.0, 1.63607506049971E9, 0.0, 2021-11-04 20:17:40.499
67.0, 848.377605448477, 671.8150585903786, 405.7697954424657, 1153.003676539287, 0.5120000243186951, 0.4800000227987766, 0.7360000349581242, 0.0, 0.0, 0.0, 0.0, 0.0, 1.6360750605146928E9, 0.0, 2021-11-04 20:17:40.514
67.0, 857.4393830411136, 669.0662321229465, 382.7656708150171, 1131.4468931946903, 0.5120000243186951, 0.4800000227987766, 0.7360000349581242, 0.0, 0.0, 0.0, 0.0, 0.0, 1.6360750605146928E9, 0.0, 2021-11-04 20:17:40.514
68.0, 853.792980584316, 691.9207607521676, 416.8025003117509, 1180.3722644150257, 0.5120000243186951, 0.4800000227987766, 0.7360000349581242, 0.0, 0.0, 0.0, 0.0, 0.0, 1.6360750605304132E9, 0.0, 2021-11-04 20:17:40.530
68.0, 827.9353122906759, 667.0541659467854, 409.19554380187765, 1215.4861850989982, 0.5120000243186951, 0.4800000227987766, 0.7360000349581242, 0.0, 0.0, 0.0, 0.0, 0.0, 1.6360750605304132E9, 0.0, 2021-11-04 20:17:40.530
69.0, 826.6899256054312, 703.3573748166673, 424.8844241159968, 1265.4662081068382, 0.5120000243186951, 0.4800000227987766, 0.7360000349581242, 0.0, 0.0, 0.0, 0.0, 0.0, 1.6360750605311203E9, 0.0, 2021-11-04 20:17:40.531
69.0, 835.9985365951434, 739.0771592934616, 401.3978523942642, 1355.5192591398954, 0.5120000243186951, 0.4800000227987766, 0.7360000349581242, 0.0, 0.0, 0.0, 0.0, 0.0, 1.6360750605311203E9, 0.0, 2021-11-04 20:17:40.531
70.0, 945.1774360015988, 778.2563512292691, 466.07568222796544, 1461.0106171900406, 0.5120000243186951, 0.4800000227987766, 0.7360000349581242, 0.0, 0.0, 0.0, 0.0, 0.0, 1.636075060560759E9, 0.0, 2021-11-04 20:17:40.560
70.0, 997.3714797832072, 757.0885174800642, 440.4872867311351, 1401.583606894128, 0.5120000243186951, 0.4800000227987766, 0.7360000349581242, 0.0, 0.0, 0.0, 0.0, 0.0, 1.636075060560759E9, 0.0, 2021-11-04 20:17:40.560
71.0, 941.9835614394397, 681.1423690798692, 370.1921271639876, 1212.026777639985, 0.5120000243186951, 0.4800000227987766, 0.7360000349581242, 0.0, 0.0, 0.0, 0.0, 0.0, 1.636075060561649E9, 0.0, 2021-11-04 20:17:40.561
71.0, 839.211110657081, 627.403746616561, 366.62052270630375, 1064.7607370847836, 0.5120000243186951, 0.4800000227987766, 0.7360000349581242, 0.0, 0.0, 0.0, 0.0, 0.0, 1.636075060561649E9, 0.0, 2021-11-04 20:17:40.561
72.0, 764.532788341865, 599.990279941354, 338.23842194257304, 993.0406756345183, 0.5120000243186951, 0.4800000227987766, 0.7360000349581242, 0.0, 0.0, 0.0, 0.0, 0.0, 1.636075060590817E9, 0.0, 2021-11-04 20:17:40.590
72.0, 738.8957741456106, 586.421922902111, 331.89181171776727, 961.4497407088056, 0.5120000243186951, 0.4800000227987766, 0.7360000349581242, 0.0, 0.0, 0.0, 0.0, 0.0, 1.636075060590817E9, 0.0, 2021-11-04 20:17:40.590
73.0, 760.0149891953915, 583.1719498406164, 328.795174554456, 1011.5382208153605, 0.5120000243186951, 0.4800000227987766, 0.7360000349581242, 0.0, 0.0, 0.0, 0.0, 0.0, 1.6360750605915835E9, 0.0, 2021-11-04 20:17:40.591
73.0, 749.8162820162252, 589.9710879600607, 336.3198532653041, 999.3087479602545, 0.5120000243186951, 0.4800000227987766, 0.7360000349581242, 0.0, 0.0, 0.0, 0.0, 0.0, 1.6360750605915835E9, 0.0, 2021-11-04 20:17:40.591
74.0, 726.0566975977272, 556.6410995549522, 309.0971214878373, 934.428963528946, 0.5120000243186951, 0.4800000227987766, 0.7360000349581242, 0.0, 0.0, 0.0, 0.0, 0.0, 1.6360750606050797E9, 0.0, 2021-11-04 20:17:40.605
74.0, 745.56027586665, 546.4236928760074, 295.76437814580277, 925.9094714298844, 0.5120000243186951, 0.4800000227987766, 0.7360000349581242, 0.0, 0.0, 0.0, 0.0, 0.0, 1.6360750606050797E9, 0.0, 2021-11-04 20:17:40.605
75.0, 736.9772054683417, 550.6310803261586, 321.22935694409534, 927.0015222169459, 0.5120000243186951, 0.4800000227987766, 0.7360000349581242, 0.0, 0.0, 0.0, 0.0, 0.0, 1.6360750606207466E9, 0.0, 2021-11-04 20:17:40.620
75.0, 742.8413685988635, 550.5600222270004, 329.27014184882864, 921.8367203781381, 0.5120000243186951, 0.4800000227987766, 0.7360000349581242, 0.0, 0.0, 0.0, 0.0, 0.0, 1.6360750606207466E9, 0.0, 2021-11-04 20:17:40.620
76.0, 779.3502719663084, 576.073619724717, 326.0239086872898, 976.5701562296599, 0.5120000243186951, 0.4800000227987766, 0.7360000349581242, 0.0, 0.0, 0.0, 0.0, 0.0, 1.636075060637466E9, 0.0, 2021-11-04 20:17:40.637
76.0, 794.3771899882704, 611.363315706607, 363.5276254429482, 989.3082554787397, 0.5120000243186951, 0.4800000227987766, 0.7360000349581242, 0.0, 0.0, 0.0, 0.0, 0.0, 1.636075060637466E9, 0.0, 2021-11-04 20:17:40.637
77.0, 823.6568667413667, 622.964485369157, 390.750357220415, 1056.4731187829748, 0.5120000243186951, 0.4800000227987766, 0.7360000349581242, 0.0, 0.0, 0.0, 0.0, 0.0, 1.6360750606382318E9, 0.0, 2021-11-04 20:17:40.638
77.0, 845.4567435830832, 639.2779289758764, 382.1672868221067, 1061.8810141189024, 0.5120000243186951, 0.4800000227987766, 0.7360000349581242, 0.0, 0.0, 0.0, 0.0, 0.0, 1.6360750606382318E9, 0.0, 2021-11-04 20:17:40.638
78.0, 855.1692637680098, 643.9303645207547, 392.9531582943164, 1057.4305331716314, 0.5120000243186951, 0.4800000227987766, 0.7360000349581242, 0.0, 0.0, 0.0, 0.0, 0.0, 1.6360750606510484E9, 0.0, 2021-11-04 20:17:40.651
78.0, 854.118351880461, 649.9703029491939, 425.61370460735634, 1047.2991441916674, 0.5120000243186951, 0.4800000227987766, 0.7360000349581242, 0.0, 0.0, 0.0, 0.0, 0.0, 1.6360750606510484E9, 0.0, 2021-11-04 20:17:40.651
79.0, 849.4920956352726, 628.3275019056164, 413.71708284830675, 1039.127462788485, 0.5120000243186951, 0.4800000227987766, 0.7360000349581242, 0.0, 0.0, 0.0, 0.0, 0.0, 1.63607506068241E9, 0.0, 2021-11-04 20:17:40.682
79.0, 856.747501549311, 640.1942044650204, 379.9831852479838, 1060.4299329360947, 0.5120000243186951, 0.4800000227987766, 0.7360000349581242, 0.0, 0.0, 0.0, 0.0, 0.0, 1.63607506068241E9, 0.0, 2021-11-04 20:17:40.682
80.0, 854.8700717715546, 649.8506261506118, 391.7937893080525, 1066.383853665553, 0.5120000243186951, 0.4800000227987766, 0.7520000357180834, 0.0, 0.0, 0.0, 0.0, 0.0, 1.6360750606831193E9, 0.0, 2021-11-04 20:17:40.683
80.0, 861.3924572942778, 648.0105953724124, 401.3978523942642, 1071.2494635079056, 0.5120000243186951, 0.4800000227987766, 0.7520000357180834, 0.0, 0.0, 0.0, 0.0, 0.0, 1.6360750606831193E9, 0.0, 2021-11-04 20:17:40.683
81.0, 850.5504873227328, 637.86050689267, 373.58421642379835, 1060.2317182384431, 0.5120000243186951, 0.4800000227987766, 0.7520000357180834, 0.0, 0.0, 0.0, 0.0, 0.0, 1.6360750606838844E9, 0.0, 2021-11-04 20:17:40.683
81.0, 869.1751891020685, 654.7424152926542, 432.8092721221037, 1033.700867952779, 0.5120000243186951, 0.4800000227987766, 0.7520000357180834, 0.0, 0.0, 0.0, 0.0, 0.0, 1.6360750606838844E9, 0.0, 2021-11-04 20:17:40.683
82.0, 870.5477323858067, 652.2553818221204, 409.89116519363597, 1054.7677244031802, 0.5120000243186951, 0.4800000227987766, 0.7520000357180834, 0.0, 0.0, 0.0, 0.0, 0.0, 1.636075060684612E9, 0.0, 2021-11-04 20:17:40.684
82.0, 868.9133961051702, 654.4133040965535, 400.6872714026831, 1046.266931803897, 0.5120000243186951, 0.4800000227987766, 0.7520000357180834, 0.0, 0.0, 0.0, 0.0, 0.0, 1.636075060684612E9, 0.0, 2021-11-04 20:17:40.684
83.0, 866.190748937428, 665.5095872650854, 405.874512641225, 1047.4412603899837, 0.5120000243186951, 0.4800000227987766, 0.7520000357180834, 0.0, 0.0, 0.0, 0.0, 0.0, 1.6360750606958463E9, 0.0, 2021-11-04 20:17:40.695
83.0, 860.2143888082355, 656.758221368771, 395.8814999596216, 1038.5028994958848, 0.5120000243186951, 0.4800000227987766, 0.7520000357180834, 0.0, 0.0, 0.0, 0.0, 0.0, 1.6360750606958463E9, 0.0, 2021-11-04 20:17:40.695
84.0, 844.3946119956672, 643.395558827091, 388.9103264422156, 1050.7323723509908, 0.5120000243186951, 0.4800000227987766, 0.7520000357180834, 0.0, 0.0, 0.0, 0.0, 0.0, 1.6360750606965797E9, 0.0, 2021-11-04 20:17:40.696
84.0, 833.2609298275784, 629.2026384952478, 386.00442417664453, 1059.9624454416335, 0.5120000243186951, 0.4800000227987766, 0.7520000357180834, 0.0, 0.0, 0.0, 0.0, 0.0, 1.6360750606965797E9, 0.0, 2021-11-04 20:17:40.696
85.0, 840.5836539408192, 633.1220536488108, 384.0147974002175, 1047.5908563882113, 0.5120000243186951, 0.4800000227987766, 0.7520000357180834, 0.0, 0.0, 0.0, 0.0, 0.0, 1.63607506071104E9, 0.0, 2021-11-04 20:17:40.711
85.0, 840.0525881471112, 637.9614841914736, 390.11831412790343, 1008.710856448859, 0.5120000243186951, 0.4800000227987766, 0.7520000357180834, 0.0, 0.0, 0.0, 0.0, 0.0, 1.63607506071104E9, 0.0, 2021-11-04 20:17:40.711
86.0, 861.631810891442, 647.6029462772422, 373.1129890293814, 1017.3612450463697, 0.5120000243186951, 0.4800000227987766, 0.7520000357180834, 0.0, 0.0, 0.0, 0.0, 0.0, 1.636075060711768E9, 0.0, 2021-11-04 20:17:40.711
86.0, 854.6456777742133, 648.2499489695765, 371.91248114360496, 979.3937806962058, 0.5120000243186951, 0.4800000227987766, 0.7520000357180834, 0.0, 0.0, 0.0, 0.0, 0.0, 1.636075060711768E9, 0.0, 2021-11-04 20:17:40.711
87.0, 849.8174669314176, 646.3313802923076, 370.73815255751833, 1036.0831842245534, 0.5120000243186951, 0.4800000227987766, 0.7520000357180834, 0.0, 0.0, 0.0, 0.0, 0.0, 1.636075060712525E9, 0.0, 2021-11-04 20:17:40.712
87.0, 830.6429998585954, 635.8073018169962, 341.72400870127603, 1004.6605447968468, 0.5120000243186951, 0.4800000227987766, 0.7520000357180834, 0.0, 0.0, 0.0, 0.0, 0.0, 1.636075060712525E9, 0.0, 2021-11-04 20:17:40.712
88.0, 842.0309952236712, 639.7865553698502, 320.0288490583189, 998.5121492696926, 0.5120000243186951, 0.4800000227987766, 0.7520000357180834, 0.0, 0.0, 0.0, 0.0, 0.0, 1.6360750607246995E9, 0.0, 2021-11-04 20:17:40.724
88.0, 860.3303257068619, 647.8609993741848, 334.7677947836928, 989.0614220816642, 0.5120000243186951, 0.4800000227987766, 0.7520000357180834, 0.0, 0.0, 0.0, 0.0, 0.0, 1.6360750607246995E9, 0.0, 2021-11-04 20:17:40.724
89.0, 884.643415318802, 655.5988523825072, 337.6587374494411, 976.1064086351544, 0.5120000243186951, 0.4800000227987766, 0.7520000357180834, 0.0, 0.0, 0.0, 0.0, 0.0, 1.6360750607873628E9, 0.0, 2021-11-04 20:17:40.787
89.0, 866.0598524389789, 662.379291002173, 312.6088875462301, 979.4498791955411, 0.5120000243186951, 0.4800000227987766, 0.7520000357180834, 0.0, 0.0, 0.0, 0.0, 0.0, 1.6360750607873628E9, 0.0, 2021-11-04 20:17:40.787
90.0, 879.1831613834947, 685.6788677261211, 313.6523196338676, 1008.7632150482386, 0.5120000243186951, 0.4800000227987766, 0.7520000357180834, 0.0, 0.0, 0.0, 0.0, 0.0, 1.6360750607881043E9, 0.0, 2021-11-04 20:17:40.788
90.0, 894.3222764041275, 681.8978288709186, 335.440976775717, 1046.8129571974277, 0.5120000243186951, 0.4800000227987766, 0.7520000357180834, 0.0, 0.0, 0.0, 0.0, 0.0, 1.6360750607881043E9, 0.0, 2021-11-04 20:17:40.788
91.0, 900.1640001349151, 661.4929347126745, 325.5377216930501, 1020.6972358068451, 0.5120000243186951, 0.4800000227987766, 0.7520000357180834, 0.0, 0.0, 0.0, 0.0, 0.0, 1.636075060788885E9, 0.0, 2021-11-04 20:17:40.788
91.0, 880.8062779642642, 666.5978981521912, 319.1013538693078, 1000.6401523444802, 0.5120000243186951, 0.4800000227987766, 0.7520000357180834, 0.0, 0.0, 0.0, 0.0, 0.0, 1.636075060788885E9, 0.0, 2021-11-04 20:17:40.788
92.0, 868.6403834084049, 656.3543121735565, 312.5453092469834, 980.6990057807416, 0.5120000243186951, 0.4800000227987766, 0.7520000357180834, 0.0, 0.0, 0.0, 0.0, 0.0, 1.6360750607895784E9, 0.0, 2021-11-04 20:17:40.789
92.0, 887.4745195852593, 644.8279405101202, 327.553527769167, 1002.2445694254711, 0.5120000243186951, 0.4800000227987766, 0.7520000357180834, 0.0, 0.0, 0.0, 0.0, 0.0, 1.6360750607895784E9, 0.0, 2021-11-04 20:17:40.789
93.0, 879.4636538801715, 665.1505568693392, 321.81652123713866, 1003.2767818132415, 0.5120000243186951, 0.4800000227987766, 0.7520000357180834, 0.0, 0.0, 0.0, 0.0, 0.0, 1.6360750608016918E9, 0.0, 2021-11-04 20:17:40.801
93.0, 876.322137917392, 667.2673402442597, 311.69635195704177, 1002.3679861240089, 0.5120000243186951, 0.4800000227987766, 0.7520000357180834, 0.0, 0.0, 0.0, 0.0, 0.0, 1.6360750608016918E9, 0.0, 2021-11-04 20:17:40.801
94.0, 865.6148043442518, 663.2656472916715, 322.89361242437735, 1009.9263239344582, 0.5120000243186951, 0.4800000227987766, 0.7520000357180834, 0.0, 0.0, 0.0, 0.0, 0.0, 1.636075060802415E9, 0.0, 2021-11-04 20:17:40.802
94.0, 840.2021841453388, 647.0681405835785, 304.29508994473144, 1016.0335805620998, 0.5120000243186951, 0.4800000227987766, 0.7520000357180834, 0.0, 0.0, 0.0, 0.0, 0.0, 1.636075060802415E9, 0.0, 2021-11-04 20:17:40.802
95.0, 845.5614607818425, 664.5633925762959, 315.36519381357357, 1027.9489018209279, 0.5120000243186951, 0.4800000227987766, 0.7520000357180834, 0.0, 0.0, 0.0, 0.0, 0.0, 1.636075060803197E9, 0.0, 2021-11-04 20:17:40.803
95.0, 865.1473168497905, 665.5619458644651, 342.1727966959588, 1009.8590057352558, 0.5120000243186951, 0.4800000227987766, 0.7520000357180834, 0.0, 0.0, 0.0, 0.0, 0.0, 1.636075060803197E9, 0.0, 2021-11-04 20:17:40.803
96.0, 856.8596985479817, 683.9622536464594, 330.5043088342063, 997.5883939806372, 0.5120000243186951, 0.4800000227987766, 0.7520000357180834, 0.0, 0.0, 0.0, 0.0, 0.0, 1.6360750608039017E9, 0.0, 2021-11-04 20:17:40.803
96.0, 861.5682325921953, 673.5316726700403, 339.86527842329815, 982.6100946580991, 0.5120000243186951, 0.4800000227987766, 0.7520000357180834, 0.0, 0.0, 0.0, 0.0, 0.0, 1.6360750608039017E9, 0.0, 2021-11-04 20:17:40.803
97.0, 854.5185211757198, 680.2447930905037, 365.1283026239835, 986.1443001162261, 0.5120000243186951, 0.4800000227987766, 0.7520000357180834, 0.0, 0.0, 0.0, 0.0, 0.0, 1.6360750608473823E9, 0.0, 2021-11-04 20:17:40.847
97.0, 856.156597356312, 672.0843313871883, 345.30683285882697, 1029.0858314074576, 0.5120000243186951, 0.4800000227987766, 0.7520000357180834, 0.0, 0.0, 0.0, 0.0, 0.0, 1.6360750608473823E9, 0.0, 2021-11-04 20:17:40.847
98.0, 847.098559663631, 661.9230232075788, 324.0567213105969, 1030.91464248579, 0.5120000243186951, 0.4800000227987766, 0.7520000357180834, 0.0, 0.0, 0.0, 0.0, 0.0, 1.6360750608480911E9, 0.0, 2021-11-04 20:17:40.848
98.0, 853.5237077875063, 673.1015841751359, 339.8802380231209, 1021.3105793995783, 0.5120000243186951, 0.4800000227987766, 0.7520000357180834, 0.0, 0.0, 0.0, 0.0, 0.0, 1.6360750608480911E9, 0.0, 2021-11-04 20:17:40.848
99.0, 837.3449005791917, 670.423815806862, 349.8208921053447, 1023.4198829745874, 0.5120000243186951, 0.4800000227987766, 0.7520000357180834, 0.0, 0.0, 0.0, 0.0, 0.0, 1.6360750608487885E9, 0.0, 2021-11-04 20:17:40.848
99.0, 837.3336808793247, 662.2072556042112, 341.42855660477653, 1030.432195391506, 0.5120000243186951, 0.4800000227987766, 0.7520000357180834, 0.0, 0.0, 0.0, 0.0, 0.0, 1.6360750608487885E9, 0.0, 2021-11-04 20:17:40.848
100.0, 823.2716570459306, 670.7641467028297, 361.9606073615141, 1026.4080630391836, 0.5120000243186951, 0.4800000227987766, 0.7520000357180834, 0.0, 0.0, 0.0, 0.0, 0.0, 1.636075060877496E9, 0.0, 2021-11-04 20:17:40.877
100.0, 842.7827151147649, 695.8850547051989, 363.65852194139734, 1016.8301792526618, 0.5120000243186951, 0.4800000227987766, 0.7520000357180834, 0.0, 0.0, 0.0, 0.0, 0.0, 1.636075060877496E9, 0.0, 2021-11-04 20:17:40.877
0.0, 859.41218026774, 679.0910339541733, 342.0792991970666, 999.9538807026111, 0.5120000243186951, 0.4800000227987766, 0.7520000357180834, 0.0, 0.0, 0.0, 0.0, 0.0, 1.636075060878228E9, 0.0, 2021-11-04 20:17:40.878
1.0, 861.9964511371218, 680.650572235696, 357.8841164098121, 1006.2817914276384, 0.5120000243186951, 0.4800000227987766, 0.7520000357180834, 0.0, 0.0, 0.0, 0.0, 0.0, 1.636075060878884E9, 0.0, 2021-11-04 20:17:40.878
1.0, 858.2415915816091, 695.3259396618232, 362.1924811587669, 1022.0043308413588, 0.5120000243186951, 0.4800000227987766, 0.7520000357180834, 0.0, 0.0, 0.0, 0.0, 0.0, 1.636075060878884E9, 0.0, 2021-11-04 20:17:40.878
2.0, 860.3471552566625, 697.536220535636, 359.51097289053723, 1020.0446232645772, 0.5120000243186951, 0.4800000227987766, 0.7520000357180834, 0.0, 0.0, 0.0, 0.0, 0.0, 1.6360750608796904E9, 0.0, 2021-11-04 20:17:40.879
2.0, 864.1581133115105, 699.2378750154749, 327.5348282693885, 1032.5732881161384, 0.5120000243186951, 0.4800000227987766, 0.7520000357180834, 0.0, 0.0, 0.0, 0.0, 0.0, 1.6360750608796904E9, 0.0, 2021-11-04 20:17:40.879
3.0, 857.7703641871922, 708.4417688064277, 380.6862864396535, 1037.850286953617, 0.5120000243186951, 0.4800000227987766, 0.7520000357180834, 0.0, 0.0, 0.0, 0.0, 0.0, 1.6360750608900995E9, 0.0, 2021-11-04 20:17:40.890
3.0, 862.3966204323806, 707.5778519166633, 378.7452783626504, 1040.6028533210047, 0.5120000243186951, 0.4800000227987766, 0.7520000357180834, 0.0, 0.0, 0.0, 0.0, 0.0, 1.6360750608900995E9, 0.0, 2021-11-04 20:17:40.890
4.0, 855.432926714886, 693.2951739858836, 376.03759079473093, 1043.2095635901205, 0.5120000243186951, 0.4800000227987766, 0.7520000357180834, 0.0, 0.0, 0.0, 0.0, 0.0, 1.6360750609060943E9, 0.0, 2021-11-04 20:17:40.906
4.0, 862.6097947298549, 700.8497718963772, 375.4616462015547, 1026.5221299878322, 0.5120000243186951, 0.4800000227987766, 0.7520000357180834, 0.0, 0.0, 0.0, 0.0, 0.0, 1.6360750609060943E9, 0.0, 2021-11-04 20:17:40.906
5.0, 862.4489790317602, 705.3002528436482, 372.563223735895, 1047.4506101398729, 0.5120000243186951, 0.4800000227987766, 0.7520000357180834, 0.0, 0.0, 0.0, 0.0, 0.0, 1.6360750609067836E9, 0.0, 2021-11-04 20:17:40.906
5.0, 859.8572283624671, 694.3386060735211, 379.18284665746614, 1045.0308948685415, 0.5120000243186951, 0.4800000227987766, 0.7520000357180834, 0.0, 0.0, 0.0, 0.0, 0.0, 1.6360750609067836E9, 0.0, 2021-11-04 20:17:40.906
6.0, 853.6190752363764, 693.3699719849974, 368.5166519838385, 1058.5992519077845, 0.5120000243186951, 0.4800000227987766, 0.7520000357180834, 0.0, 0.0, 0.0, 0.0, 0.0, 1.6360750609076905E9, 0.0, 2021-11-04 20:17:40.907
6.0, 836.9017224344425, 682.6663783118129, 370.5960363592021, 1031.698151526507, 0.5120000243186951, 0.4800000227987766, 0.7520000357180834, 0.0, 0.0, 0.0, 0.0, 0.0, 1.6360750609076905E9, 0.0, 2021-11-04 20:17:40.907
7.0, 871.2302641277201, 671.0091101499274, 369.4890259723179, 1015.4894251185469, 0.5120000243186951, 0.4800000227987766, 0.7520000357180834, 0.0, 0.0, 0.0, 0.0, 0.0, 1.6360750609196477E9, 0.0, 2021-11-04 20:17:40.919
7.0, 875.6957046748139, 678.5898873601109, 357.43158851517364, 1034.2637228961103, 0.5120000243186951, 0.4800000227987766, 0.7520000357180834, 0.0, 0.0, 0.0, 0.0, 0.0, 1.6360750609196477E9, 0.0, 2021-11-04 20:17:40.919
8.0, 865.6765126935206, 693.3250931855291, 384.33268889645115, 1027.7263777735643, 0.5120000243186951, 0.4800000227987766, 0.7520000357180834, 0.0, 0.0, 0.0, 0.0, 0.0, 1.6360750609354217E9, 0.0, 2021-11-04 20:17:40.935
8.0, 857.2692175931297, 670.025516461581, 370.1210690648295, 1013.5259776418097, 0.5120000243186951, 0.4800000227987766, 0.7520000357180834, 0.0, 0.0, 0.0, 0.0, 0.0, 1.6360750609354217E9, 0.0, 2021-11-04 20:17:40.935
9.0, 858.170533482451, 652.5078250691295, 337.90557084651664, 986.0152735677548, 0.5120000243186951, 0.4800000227987766, 0.7520000357180834, 0.0, 0.0, 0.0, 0.0, 0.0, 1.636075060936124E9, 0.0, 2021-11-04 20:17:40.936
9.0, 844.6246158429421, 641.007632705383, 338.986401933711, 1013.9635459366255, 0.5120000243186951, 0.4800000227987766, 0.7520000357180834, 0.0, 0.0, 0.0, 0.0, 0.0, 1.636075060936124E9, 0.0, 2021-11-04 20:17:40.936
10.0, 845.9709798269905, 648.7679251134396, 332.22466281382367, 1004.5389980482869, 0.5120000243186951, 0.4800000227987766, 0.7520000357180834, 0.0, 0.0, 0.0, 0.0, 0.0, 1.6360750609661894E9, 0.0, 2021-11-04 20:17:40.966
10.0, 841.2400063830428, 640.2185138147324, 327.1757978736423, 985.5328264734708, 0.5120000243186951, 0.4800000227987766, 0.7520000357180834, 0.0, 0.0, 0.0, 0.0, 0.0, 1.6360750609661894E9, 0.0, 2021-11-04 20:17:40.966
11.0, 831.733180695679, 626.4706415776163, 329.19908374967054, 974.8666317998432, 0.5120000243186951, 0.4800000227987766, 0.7520000357180834, 0.0, 0.0, 0.0, 0.0, 0.0, 1.63607506096689E9, 0.0, 2021-11-04 20:17:40.966
11.0, 838.4799602157436, 629.1259705461562, 332.86792560620233, 962.940090841148, 0.5120000243186951, 0.4800000227987766, 0.7520000357180834, 0.0, 0.0, 0.0, 0.0, 0.0, 1.63607506096689E9, 0.0, 2021-11-04 20:17:40.966
12.0, 843.6709413542412, 637.9708339413628, 330.3621926358901, 987.4027764513157, 0.5120000243186951, 0.4800000227987766, 0.7520000357180834, 0.0, 0.0, 0.0, 0.0, 0.0, 1.636075060967652E9, 0.0, 2021-11-04 20:17:40.967
12.0, 832.1707489904948, 620.3259859504178, 311.77488985611126, 998.9702870142646, 0.5120000243186951, 0.4800000227987766, 0.7520000357180834, 0.0, 0.0, 0.0, 0.0, 0.0, 1.636075060967652E9, 0.0, 2021-11-04 20:17:40.967
13.0, 833.879883270245, 630.0048470357433, 326.1435854858719, 991.4194290037267, 0.5120000243186951, 0.4800000227987766, 0.7520000357180834, 0.0, 0.0, 0.0, 0.0, 0.0, 1.6360750609961944E9, 0.0, 2021-11-04 20:17:40.996
13.0, 841.2549659828655, 650.1404683971778, 339.60348542639986, 1002.620429371018, 0.5120000243186951, 0.4800000227987766, 0.7520000357180834, 0.0, 0.0, 0.0, 0.0, 0.0, 1.6360750609961944E9, 0.0, 2021-11-04 20:17:40.996
14.0, 841.0791906849481, 611.8551125507802, 347.8200456290506, 969.6906102611683, 0.5120000243186951, 0.4800000227987766, 0.7520000357180834, 0.0, 0.0, 0.0, 0.0, 0.0, 1.636075060996899E9, 0.0, 2021-11-04 20:17:40.996
14.0, 837.4701872277074, 642.5821305867285, 343.35460508195683, 998.4205217207782, 0.5120000243186951, 0.4800000227987766, 0.7520000357180834, 0.0, 0.0, 0.0, 0.0, 0.0, 1.636075060996899E9, 0.0, 2021-11-04 20:17:40.996
15.0, 843.5737039553933, 621.0814457414672, 338.37679824093357, 991.3446310046129, 0.5120000243186951, 0.4800000227987766, 0.7520000357180834, 0.0, 0.0, 0.0, 0.0, 0.0, 1.6360750609976184E9, 0.0, 2021-11-04 20:17:40.997
15.0, 843.1810144600458, 637.099437251687, 343.90437037544325, 985.0653389790095, 0.5120000243186951, 0.4800000227987766, 0.7520000357180834, 0.0, 0.0, 0.0, 0.0, 0.0, 1.6360750609976184E9, 0.0, 2021-11-04 20:17:40.997
16.0, 839.1157432082109, 644.4857396641746, 355.1091106426902, 1013.5072781420313, 0.5120000243186951, 0.4800000227987766, 0.7520000357180834, 0.0, 0.0, 0.0, 0.0, 0.0, 1.6360750610099564E9, 0.0, 2021-11-04 20:17:41.009
16.0, 832.5522187859751, 641.3143045017496, 331.12139232689515, 1004.4342808495276, 0.5120000243186951, 0.4800000227987766, 0.7520000357180834, 0.0, 0.0, 0.0, 0.0, 0.0, 1.6360750610099564E9, 0.0, 2021-11-04 20:17:41.009
17.0, 856.9251467972063, 631.5120267178863, 355.91692903311923, 988.6369434366934, 0.5120000243186951, 0.4800000227987766, 0.7520000357180834, 0.0, 0.0, 0.0, 0.0, 0.0, 1.6360750610258307E9, 0.0, 2021-11-04 20:17:41.025
17.0, 858.0770359835587, 651.4905722811818, 337.1875100550242, 1010.5901561765932, 0.5120000243186951, 0.4800000227987766, 0.7520000357180834, 0.0, 0.0, 0.0, 0.0, 0.0, 1.6360750610258307E9, 0.0, 2021-11-04 20:17:41.025
18.0, 856.1285481066443, 661.5434233620763, 364.95252732606605, 975.4388364930637, 0.5120000243186951, 0.4800000227987766, 0.7520000357180834, 0.0, 0.0, 0.0, 0.0, 0.0, 1.6360750610408552E9, 0.0, 2021-11-04 20:17:41.040
18.0, 873.6387596991844, 657.9344199048355, 369.8630159678869, 1027.090594781097, 0.5120000243186951, 0.4800000227987766, 0.7520000357180834, 0.0, 0.0, 0.0, 0.0, 0.0, 1.6360750610408552E9, 0.0, 2021-11-04 20:17:41.040
19.0, 893.9688558583148, 651.2699181837961, 365.2704188222997, 1032.0871011218987, 0.5120000243186951, 0.4800000227987766, 0.7520000357180834, 0.0, 0.0, 0.0, 0.0, 0.0, 1.63607506105618E9, 0.0, 2021-11-04 20:17:41.056
19.0, 887.6933037326671, 642.7766053844243, 378.835035961587, 1038.2766355485655, 0.5120000243186951, 0.4800000227987766, 0.7520000357180834, 0.0, 0.0, 0.0, 0.0, 0.0, 1.63607506105618E9, 0.0, 2021-11-04 20:17:41.056
20.0, 903.0792521503754, 673.7055780179799, 387.88933375431225, 1052.5293942796998, 0.5120000243186951, 0.4800000227987766, 0.7520000357180834, 0.0, 0.0, 0.0, 0.0, 0.0, 1.6360750610568912E9, 0.0, 2021-11-04 20:17:41.056
20.0, 893.953896258492, 687.4010916557163, 398.5106496284716, 1054.937889851164, 0.5120000243186951, 0.4800000227987766, 0.7520000357180834, 0.0, 0.0, 0.0, 0.0, 0.0, 1.6360750610568912E9, 0.0, 2021-11-04 20:17:41.056
21.0, 903.2550274482928, 671.1811455478892, 368.3745357855223, 1059.9269163920544, 0.5120000243186951, 0.4800000227987766, 0.7520000357180834, 0.0, 0.0, 0.0, 0.0, 0.0, 1.636075061057639E9, 0.0, 2021-11-04 20:17:41.057
21.0, 899.2084556962363, 674.1842852123082, 403.2565826722421, 1065.4769279262982, 0.5120000243186951, 0.4800000227987766, 0.7520000357180834, 0.0, 0.0, 0.0, 0.0, 0.0, 1.636075061057639E9, 0.0, 2021-11-04 20:17:41.057
22.0, 899.8629381884821, 683.1376057062298, 392.92323909467086, 1035.2248771847226, 0.5120000243186951, 0.4800000227987766, 0.7520000357180834, 0.0, 0.0, 0.0, 0.0, 0.0, 1.6360750610861795E9, 0.0, 2021-11-04 20:17:41.086
22.0, 906.3591444115154, 700.816112796776, 415.12328523164615, 1024.5063239117153, 0.5120000243186951, 0.4800000227987766, 0.7520000357180834, 0.0, 0.0, 0.0, 0.0, 0.0, 1.6360750610861795E9, 0.0, 2021-11-04 20:17:41.086
23.0, 907.7055083955638, 689.502915430814, 401.8055014894344, 1046.1902638548054, 0.5120000243186951, 0.4800000227987766, 0.7520000357180834, 0.0, 0.0, 0.0, 0.0, 0.0, 1.636075061086888E9, 0.0, 2021-11-04 20:17:41.086
23.0, 893.0488404692151, 672.8154818285257, 392.29493590211496, 1057.3613450224511, 0.5120000243186951, 0.4800000227987766, 0.7520000357180834, 0.0, 0.0, 0.0, 0.0, 0.0, 1.636075061086888E9, 0.0, 2021-11-04 20:17:41.086
24.0, 895.7490482372232, 667.3664475930855, 375.51400480093434, 1055.9476628392003, 0.5120000243186951, 0.4800000227987766, 0.7520000357180834, 0.0, 0.0, 0.0, 0.0, 0.0, 1.6360750610876267E9, 0.0, 2021-11-04 20:17:41.087
24.0, 884.7948812670074, 678.4066322622821, 380.48433184204623, 1046.762468548026, 0.5120000243186951, 0.4800000227987766, 0.7520000357180834, 0.0, 0.0, 0.0, 0.0, 0.0, 1.6360750610876267E9, 0.0, 2021-11-04 20:17:41.087
25.0, 880.3630998195149, 671.8805068396032, 389.77050343202427, 1054.7247155536897, 0.5120000243186951, 0.4800000227987766, 0.7520000357180834, 0.0, 0.0, 0.0, 0.0, 0.0, 1.6360750611165357E9, 0.0, 2021-11-04 20:17:41.116
25.0, 879.7684557265602, 673.7728962171823, 381.4604457304813, 1043.1833842904307, 0.5120000243186951, 0.4800000227987766, 0.7520000357180834, 0.0, 0.0, 0.0, 0.0, 0.0, 1.6360750611165357E9, 0.0, 2021-11-04 20:17:41.116
26.0, 865.3661009971984, 676.2935887873173, 379.6802533515729, 1032.3227148191072, 0.5120000243186951, 0.4800000227987766, 0.7520000357180834, 0.0, 0.0, 0.0, 0.0, 0.0, 1.6360750611172931E9, 0.0, 2021-11-04 20:17:41.117
26.0, 850.6047158720903, 666.1808993071318, 384.4299262952991, 1014.0121646360494, 0.5120000243186951, 0.4800000227987766, 0.7520000357180834, 0.0, 0.0, 0.0, 0.0, 0.0, 1.6360750611172931E9, 0.0, 2021-11-04 20:17:41.117
27.0, 860.4705719552003, 664.7971363235265, 349.5890183080919, 999.0488249133341, 0.5120000243186951, 0.4800000227987766, 0.7520000357180834, 0.0, 0.0, 0.0, 0.0, 0.0, 1.6360750611308784E9, 0.0, 2021-11-04 20:17:41.130
27.0, 844.7779517411254, 638.4981598351151, 328.5745204570703, 1027.318728678394, 0.5120000243186951, 0.4800000227987766, 0.7520000357180834, 0.0, 0.0, 0.0, 0.0, 0.0, 1.6360750611308784E9, 0.0, 2021-11-04 20:17:41.130
28.0, 841.2325265831314, 626.7099951747805, 355.8570906338282, 977.5481400680728, 0.5120000243186951, 0.4800000227987766, 0.7520000357180834, 0.0, 0.0, 0.0, 0.0, 0.0, 1.6360750611460998E9, 0.0, 2021-11-04 20:17:41.146
28.0, 822.3011530074291, 626.2761667799205, 341.5183142037131, 1004.0041923546232, 0.5120000243186951, 0.4800000227987766, 0.7520000357180834, 0.0, 0.0, 0.0, 0.0, 0.0, 1.6360750611460998E9, 0.0, 2021-11-04 20:17:41.146
29.0, 815.1093253926374, 626.2873864797875, 331.9591299169697, 984.8559045814909, 0.5120000243186951, 0.4800000227987766, 0.7520000357180834, 0.0, 0.0, 0.0, 0.0, 0.0, 1.6360750611468835E9, 0.0, 2021-11-04 20:17:41.146
29.0, 805.875512402039, 630.7453472269699, 349.67877590702847, 991.2436537058093, 0.5120000243186951, 0.4800000227987766, 0.7520000357180834, 0.0, 0.0, 0.0, 0.0, 0.0, 1.6360750611468835E9, 0.0, 2021-11-04 20:17:41.146
30.0, 793.5188829484396, 610.1833772705868, 352.31914527574554, 993.0014066849835, 0.5120000243186951, 0.4800000227987766, 0.7520000357180834, 0.0, 0.0, 0.0, 0.0, 0.0, 1.6360750611477091E9, 0.0, 2021-11-04 20:17:41.147
30.0, 793.911572443787, 615.7446085046977, 322.60190022783354, 994.0298791727982, 0.5120000243186951, 0.4800000227987766, 0.7520000357180834, 0.0, 0.0, 0.0, 0.0, 0.0, 1.6360750611477091E9, 0.0, 2021-11-04 20:17:41.147
31.0, 800.9051853609271, 618.7365284692496, 309.4150129840709, 994.0336190727539, 0.5120000243186951, 0.4800000227987766, 0.7520000357180834, 0.0, 0.0, 0.0, 0.0, 0.0, 1.6360750611597362E9, 0.0, 2021-11-04 20:17:41.159
31.0, 797.6327728996985, 613.1304184356704, 331.8768521179445, 970.2590750544332, 0.5120000243186951, 0.4800000227987766, 0.7520000357180834, 0.0, 0.0, 0.0, 0.0, 0.0, 1.6360750611597362E9, 0.0, 2021-11-04 20:17:41.159
32.0, 788.1184674124233, 621.7508878335357, 320.29438195517287, 960.2062239735387, 0.5120000243186951, 0.4800000227987766, 0.7520000357180834, 0.0, 0.0, 0.0, 0.0, 0.0, 1.636075061175527E9, 0.0, 2021-11-04 20:17:41.175
32.0, 789.5994677948765, 611.5334811545908, 343.63883747858927, 998.5962970186956, 0.5120000243186951, 0.4800000227987766, 0.7520000357180834, 0.0, 0.0, 0.0, 0.0, 0.0, 1.636075061175527E9, 0.0, 2021-11-04 20:17:41.175
33.0, 784.7525574523024, 615.0153280133381, 336.5928659620695, 995.3164047575556, 0.5120000243186951, 0.4800000227987766, 0.7520000357180834, 0.0, 0.0, 0.0, 0.0, 0.0, 1.6360750611761785E9, 0.0, 2021-11-04 20:17:41.176
33.0, 796.4360049138777, 629.585978240706, 340.8937509111129, 987.2419607532211, 0.5120000243186951, 0.4800000227987766, 0.7520000357180834, 0.0, 0.0, 0.0, 0.0, 0.0, 1.6360750611761785E9, 0.0, 2021-11-04 20:17:41.176
34.0, 790.0332961897366, 625.5992448879406, 349.22624801239, 976.0708795855753, 0.5120000243186951, 0.4800000227987766, 0.7520000357180834, 0.0, 0.0, 0.0, 0.0, 0.0, 1.6360750611897178E9, 0.0, 2021-11-04 20:17:41.189
34.0, 802.1468321462162, 630.8949432251975, 353.3401379636489, 1007.1344886175357, 0.5120000243186951, 0.4800000227987766, 0.7520000357180834, 0.0, 0.0, 0.0, 0.0, 0.0, 1.6360750611897178E9, 0.0, 2021-11-04 20:17:41.189
35.0, 805.0489945118316, 630.8089255262166, 344.98520146263763, 974.1223917086609, 0.5120000243186951, 0.4800000227987766, 0.7520000357180834, 0.0, 0.0, 0.0, 0.0, 0.0, 1.6360750612058797E9, 0.0, 2021-11-04 20:17:41.205
35.0, 801.1707182577811, 634.45906788297, 324.2063173088245, 974.8741115997545, 0.5120000243186951, 0.4800000227987766, 0.7520000357180834, 0.0, 0.0, 0.0, 0.0, 0.0, 1.6360750612058797E9, 0.0, 2021-11-04 20:17:41.205
36.0, 810.1502180513926, 638.6739351330325, 327.11221957439557, 993.2931188815273, 0.5120000243186951, 0.4800000227987766, 0.7520000357180834, 0.0, 0.0, 0.0, 0.0, 0.0, 1.6360750612201557E9, 0.0, 2021-11-04 20:17:41.220
36.0, 808.8262934670784, 616.3766515972093, 338.1374446437694, 1004.8232304449193, 0.5120000243186951, 0.4800000227987766, 0.7520000357180834, 0.0, 0.0, 0.0, 0.0, 0.0, 1.6360750612201557E9, 0.0, 2021-11-04 20:17:41.220
37.0, 815.5618532872759, 634.6722421804443, 369.2608920750208, 1003.4020684617572, 0.5120000243186951, 0.4800000227987766, 0.7520000357180834, 0.0, 0.0, 0.0, 0.0, 0.0, 1.6360750612362056E9, 0.0, 2021-11-04 20:17:41.236
37.0, 833.4497947753407, 660.8889408698305, 374.21251961635426, 969.7354890606366, 0.5120000243186951, 0.4800000227987766, 0.7520000357180834, 0.0, 0.0, 0.0, 0.0, 0.0, 1.6360750612362056E9, 0.0, 2021-11-04 20:17:41.236
38.0, 833.0010067806579, 674.8537273043767, 373.3523426265456, 997.26489263447, 0.5120000243186951, 0.4800000227987766, 0.7520000357180834, 0.0, 0.0, 0.0, 0.0, 0.0, 1.6360750612368574E9, 0.0, 2021-11-04 20:17:41.236
38.0, 835.53291905066, 670.6500797541812, 374.81090360926464, 1007.4822993134148, 0.5120000243186951, 0.4800000227987766, 0.7520000357180834, 0.0, 0.0, 0.0, 0.0, 0.0, 1.6360750612368574E9, 0.0, 2021-11-04 20:17:41.236
39.0, 852.3101102518849, 660.9263398693874, 374.1938201165758, 1019.0535497763194, 0.5120000243186951, 0.4800000227987766, 0.7520000357180834, 0.0, 0.0, 0.0, 0.0, 0.0, 1.6360750612375677E9, 0.0, 2021-11-04 20:17:41.237
39.0, 845.0696639376692, 660.5673094736412, 377.9711190718226, 1050.5210680034943, 0.5120000243186951, 0.4800000227987766, 0.7520000357180834, 0.0, 0.0, 0.0, 0.0, 0.0, 1.6360750612375677E9, 0.0, 2021-11-04 20:17:41.237
40.0, 856.674573500175, 660.1858396781608, 383.67072660429403, 1045.146831767168, 0.5120000243186951, 0.4800000227987766, 0.7520000357180834, 0.0, 0.0, 0.0, 0.0, 0.0, 1.6360750612497227E9, 0.0, 2021-11-04 20:17:41.249
40.0, 871.5406758240424, 671.9403452388942, 387.70233875652775, 1047.2224762425758, 0.5120000243186951, 0.4800000227987766, 0.7520000357180834, 0.0, 0.0, 0.0, 0.0, 0.0, 1.6360750612497227E9, 0.0, 2021-11-04 20:17:41.249
41.0, 863.1558201233856, 672.9949970263988, 377.1184218819253, 1047.6637844373472, 0.5120000243186951, 0.4800000227987766, 0.7520000357180834, 0.0, 0.0, 0.0, 0.0, 0.0, 1.6360750612654157E9, 0.0, 2021-11-04 20:17:41.265
41.0, 877.3749197549187, 670.0479558613151, 380.4207535427995, 1048.8381130234338, 0.5120000243186951, 0.4800000227987766, 0.7520000357180834, 0.0, 0.0, 0.0, 0.0, 0.0, 1.6360750612654157E9, 0.0, 2021-11-04 20:17:41.265
42.0, 872.1166204172187, 679.5921805482358, 396.9436315470375, 1032.8724801125936, 0.5120000243186951, 0.4800000227987766, 0.7520000357180834, 0.0, 0.0, 0.0, 0.0, 0.0, 1.6360750612661972E9, 0.0, 2021-11-04 20:17:41.266
42.0, 889.1107258158736, 662.1231078552082, 409.8724656938575, 996.6328495419584, 0.5120000243186951, 0.4800000227987766, 0.7520000357180834, 0.0, 0.0, 0.0, 0.0, 0.0, 1.6360750612661972E9, 0.0, 2021-11-04 20:17:41.266
43.0, 891.4032844887115, 679.9624306438491, 399.9056323119439, 1032.4199522179551, 0.5120000243186951, 0.4800000227987766, 0.7520000357180834, 0.0, 0.0, 0.0, 0.0, 0.0, 1.6360750613425107E9, 0.0, 2021-11-04 20:17:41.342
43.0, 887.2669551377185, 680.0334887430072, 407.4639701223932, 1068.5249463901855, 0.5120000243186951, 0.4800000227987766, 0.7520000357180834, 0.0, 0.0, 0.0, 0.0, 0.0, 1.6360750613425107E9, 0.0, 2021-11-04 20:17:41.342
44.0, 893.8977977591567, 671.0801682490855, 388.00153075298294, 1052.9819221743383, 0.5120000243186951, 0.4800000227987766, 0.7520000357180834, 0.0, 0.0, 0.0, 0.0, 0.0, 1.6360750613431704E9, 0.0, 2021-11-04 20:17:41.343
44.0, 904.4031767346896, 681.7613225225359, 407.74446261906996, 1070.9446616615169, 0.5120000243186951, 0.4800000227987766, 0.7520000357180834, 0.0, 0.0, 0.0, 0.0, 0.0, 1.6360750613431704E9, 0.0, 2021-11-04 20:17:41.343
45.0, 909.5305795739405, 692.711749592796, 383.5286104059778, 1059.8558582928963, 0.5120000243186951, 0.4800000227987766, 0.7520000357180834, 0.0, 0.0, 0.0, 0.0, 0.0, 1.6360750613439703E9, 0.0, 2021-11-04 20:17:41.343
45.0, 887.6297254334204, 689.6375518292189, 393.3608073894866, 1037.3229610598646, 0.5120000243186951, 0.4800000227987766, 0.7520000357180834, 0.0, 0.0, 0.0, 0.0, 0.0, 1.6360750613439703E9, 0.0, 2021-11-04 20:17:41.343
46.0, 904.4256161344238, 694.6826768694445, 410.8784987819381, 1021.2675705500878, 0.5120000243186951, 0.4800000227987766, 0.7520000357180834, 0.0, 0.0, 0.0, 0.0, 0.0, 1.6360750613447356E9, 0.0, 2021-11-04 20:17:41.344
46.0, 923.4317877092399, 677.8419073689729, 404.27009556023404, 1020.6317875576206, 0.5120000243186951, 0.4800000227987766, 0.7520000357180834, 0.0, 0.0, 0.0, 0.0, 0.0, 1.6360750613447356E9, 0.0, 2021-11-04 20:17:41.344
47.0, 916.8533036871813, 685.2656087810174, 406.45793703431264, 1065.9331957208924, 0.5120000243186951, 0.4800000227987766, 0.7520000357180834, 0.0, 0.0, 0.0, 0.0, 0.0, 1.6360750613568788E9, 0.0, 2021-11-04 20:17:41.356
47.0, 914.384969716426, 680.9048854326829, 376.4564595897682, 1062.5186670613475, 0.5120000243186951, 0.4800000227987766, 0.7520000357180834, 0.0, 0.0, 0.0, 0.0, 0.0, 1.6360750613568788E9, 0.0, 2021-11-04 20:17:41.356
48.0, 930.0177515312098, 682.9842698080465, 407.9875561161898, 1069.665615876671, 0.5120000243186951, 0.4800000227987766, 0.7520000357180834, 0.0, 0.0, 0.0, 0.0, 0.0, 1.6360750613574955E9, 0.0, 2021-11-04 20:17:41.357
48.0, 917.014119385276, 686.9971824605018, 417.7337354007177, 1067.215981405694, 0.5120000243186951, 0.4800000227987766, 0.7520000357180834, 0.0, 0.0, 0.0, 0.0, 0.0, 1.6360750613574955E9, 0.0, 2021-11-04 20:17:41.357
49.0, 909.3660239758901, 693.2577749863267, 418.30594009393826, 1057.2080091242678, 0.5120000243186951, 0.4800000227987766, 0.7520000357180834, 0.0, 0.0, 0.0, 0.0, 0.0, 1.6360750613582652E9, 0.0, 2021-11-04 20:17:41.358
49.0, 908.6068242848851, 671.5738350432366, 400.3656400064938, 1041.2049772138707, 0.5120000243186951, 0.4800000227987766, 0.7520000357180834, 0.0, 0.0, 0.0, 0.0, 0.0, 1.6360750613582652E9, 0.0, 2021-11-04 20:17:41.358
51.0, 913.2891790294088, 671.6374133424833, 400.30206170724705, 1054.2235689596273, 0.5120000243186951, 0.4800000227987766, 0.7520000357180834, 0.0, 0.0, 0.0, 0.0, 0.0, 1.6360750613589792E9, 0.0, 2021-11-04 20:17:41.358
51.0, 923.4729266087525, 661.2517111655325, 406.0241086394526, 1063.4835612499155, 0.5120000243186951, 0.4800000227987766, 0.7520000357180834, 0.0, 0.0, 0.0, 0.0, 0.0, 1.6360750613589792E9, 0.0, 2021-11-04 20:17:41.358
52.0, 890.2252160026692, 678.829240957275, 403.7203302667476, 1021.1254543517716, 0.5120000243186951, 0.4800000227987766, 0.7520000357180834, 0.0, 0.0, 0.0, 0.0, 0.0, 1.6360750614331207E9, 0.0, 2021-11-04 20:17:41.433
52.0, 906.1048312145285, 668.1256472840905, 406.08020713878796, 1031.1970049324445, 0.5120000243186951, 0.4800000227987766, 0.7520000357180834, 0.0, 0.0, 0.0, 0.0, 0.0, 1.6360750614331207E9, 0.0, 2021-11-04 20:17:41.433
53.0, 890.1578978034668, 666.117321007885, 407.9202379169874, 1027.621660574805, 0.5120000243186951, 0.4800000227987766, 0.7520000357180834, 0.0, 0.0, 0.0, 0.0, 0.0, 1.6360750614338338E9, 0.0, 2021-11-04 20:17:41.433
53.0, 896.9645157228224, 662.5008377507329, 400.7358901021071, 1030.624800239224, 0.5120000243186951, 0.4800000227987766, 0.7520000357180834, 0.0, 0.0, 0.0, 0.0, 0.0, 1.6360750614338338E9, 0.0, 2021-11-04 20:17:41.433
54.0, 901.0634460742585, 658.1251548025757, 378.95471276016906, 1003.4132881616242, 0.5120000243186951, 0.4800000227987766, 0.7520000357180834, 0.0, 0.0, 0.0, 0.0, 0.0, 1.636075061434584E9, 0.0, 2021-11-04 20:17:41.434
54.0, 891.5940193864517, 662.414820051752, 404.101800062228, 1024.244530914817, 0.5120000243186951, 0.4800000227987766, 0.7520000357180834, 0.0, 0.0, 0.0, 0.0, 0.0, 1.636075061434584E9, 0.0, 2021-11-04 20:17:41.434
55.0, 885.9879093528725, 646.808217536658, 396.78655574889854, 1045.2590287658386, 0.5120000243186951, 0.4800000227987766, 0.7520000357180834, 0.0, 0.0, 0.0, 0.0, 0.0, 1.6360750614352987E9, 0.0, 2021-11-04 20:17:41.435
55.0, 875.826601173263, 639.8968824185431, 396.30036875465885, 1023.8630611193366, 0.5120000243186951, 0.4800000227987766, 0.7520000357180834, 0.0, 0.0, 0.0, 0.0, 0.0, 1.6360750614352987E9, 0.0, 2021-11-04 20:17:41.435
56.0, 876.1444926694967, 664.718598424457, 396.9885103465058, 1054.2235689596273, 0.5120000243186951, 0.4800000227987766, 0.7520000357180834, 0.0, 0.0, 0.0, 0.0, 0.0, 1.636075061446758E9, 0.0, 2021-11-04 20:17:41.446
56.0, 874.2521032919176, 670.5603221552446, 397.82624793658033, 1054.298366958741, 0.5120000243186951, 0.4800000227987766, 0.7520000357180834, 0.0, 0.0, 0.0, 0.0, 0.0, 1.636075061446758E9, 0.0, 2021-11-04 20:17:41.446
57.0, 864.393727008719, 661.9697719570249, 390.0472560287453, 1034.8247078894638, 0.5120000243186951, 0.4800000227987766, 0.7520000357180834, 0.0, 0.0, 0.0, 0.0, 0.0, 1.6360750614474106E9, 0.0, 2021-11-04 20:17:41.447
57.0, 857.9124803855084, 644.1641082679853, 366.3437701095827, 1009.6215220880695, 0.5120000243186951, 0.4800000227987766, 0.7520000357180834, 0.0, 0.0, 0.0, 0.0, 0.0, 1.6360750614474106E9, 0.0, 2021-11-04 20:17:41.447
58.0, 852.2614915524609, 636.3738966602832, 383.67072660429403, 1036.376766371075, 0.5120000243186951, 0.4800000227987766, 0.7520000357180834, 0.0, 0.0, 0.0, 0.0, 0.0, 1.6360750614481635E9, 0.0, 2021-11-04 20:17:41.448
58.0, 840.9894330860116, 642.7242467850447, 380.36839494341984, 1022.5279168351553, 0.5120000243186951, 0.4800000227987766, 0.7520000357180834, 0.0, 0.0, 0.0, 0.0, 0.0, 1.6360750614481635E9, 0.0, 2021-11-04 20:17:41.448
60.0, 844.2057470479049, 658.5066245980561, 398.7163441260345, 992.103830695618, 0.5120000243186951, 0.4800000227987766, 0.7520000357180834, 0.0, 0.0, 0.0, 0.0, 0.0, 1.6360750614490435E9, 0.0, 2021-11-04 20:17:41.449
60.0, 838.4949198155664, 649.8337966008112, 379.5605765529908, 1028.283622866962, 0.5120000243186951, 0.4800000227987766, 0.7520000357180834, 0.0, 0.0, 0.0, 0.0, 0.0, 1.6360750614490435E9, 0.0, 2021-11-04 20:17:41.449
61.0, 830.2783596129157, 641.4601606000215, 386.29239647323266, 1026.9671780825593, 0.5120000243186951, 0.4800000227987766, 0.7520000357180834, 0.0, 0.0, 0.0, 0.0, 0.0, 1.6360750614596255E9, 0.0, 2021-11-04 20:17:41.459
61.0, 837.5337655269541, 648.4762129168957, 377.3540355791338, 1029.5925878514536, 0.5120000243186951, 0.4800000227987766, 0.7520000357180834, 0.0, 0.0, 0.0, 0.0, 0.0, 1.6360750614596255E9, 0.0, 2021-11-04 20:17:41.459
62.0, 840.1591752958484, 642.4213148886338, 375.51026490097865, 1039.0283554396592, 0.5120000243186951, 0.4800000227987766, 0.7520000357180834, 0.0, 0.0, 0.0, 0.0, 0.0, 1.6360750615058744E9, 0.0, 2021-11-04 20:17:41.505
62.0, 841.116589684505, 644.9943660581484, 368.43811408476904, 1012.3516490557231, 0.5120000243186951, 0.4800000227987766, 0.7520000357180834, 0.0, 0.0, 0.0, 0.0, 0.0, 1.6360750615058744E9, 0.0, 2021-11-04 20:17:41.505
63.0, 851.0048851673491, 653.5998758561909, 376.73321218648925, 1006.9961123191752, 0.5120000243186951, 0.4800000227987766, 0.7520000357180834, 0.0, 0.0, 0.0, 0.0, 0.0, 1.636075061506608E9, 0.0, 2021-11-04 20:17:41.506
63.0, 826.4861010578461, 632.0318728117272, 374.36585551453754, 1008.8585824971087, 0.5120000243186951, 0.4800000227987766, 0.7520000357180834, 0.0, 0.0, 0.0, 0.0, 0.0, 1.636075061506608E9, 0.0, 2021-11-04 20:17:41.506
64.0, 828.1802757377736, 658.0353972036391, 382.5001379181631, 1001.390002285596, 0.5120000243186951, 0.4800000227987766, 0.7520000357180834, 0.0, 0.0, 0.0, 0.0, 0.0, 1.636075061522503E9, 0.0, 2021-11-04 20:17:41.522
64.0, 838.2929652179591, 652.8406761651859, 375.1587143051438, 1032.6443462152965, 0.5120000243186951, 0.4800000227987766, 0.7520000357180834, 0.0, 0.0, 0.0, 0.0, 0.0, 1.636075061522503E9, 0.0, 2021-11-04 20:17:41.522
65.0, 836.1275631436147, 653.6896334551275, 392.51558999950066, 1016.1551273106597, 0.5120000243186951, 0.4800000227987766, 0.7520000357180834, 0.0, 0.0, 0.0, 0.0, 0.0, 1.636075061523318E9, 0.0, 2021-11-04 20:17:41.523
65.0, 833.6106104734354, 638.7375134322792, 382.92274661315605, 1031.3054620311595, 0.5120000243186951, 0.4800000227987766, 0.7520000357180834, 0.0, 0.0, 0.0, 0.0, 0.0, 1.636075061523318E9, 0.0, 2021-11-04 20:17:41.523
66.0, 838.9998063095845, 651.958059775643, 389.617167533841, 1011.1324416701682, 0.5120000243186951, 0.4800000227987766, 0.7520000357180834, 0.0, 0.0, 0.0, 0.0, 0.0, 1.6360750615239787E9, 0.0, 2021-11-04 20:17:41.523
66.0, 838.9661472099833, 639.9492410179228, 375.36066890275106, 1033.3885863064788, 0.5120000243186951, 0.4800000227987766, 0.7520000357180834, 0.0, 0.0, 0.0, 0.0, 0.0, 1.6360750615239787E9, 0.0, 2021-11-04 20:17:41.523
67.0, 843.7382595534436, 653.3156434595585, 377.0473637827672, 1024.0238768174313, 0.5120000243186951, 0.4800000227987766, 0.7520000357180834, 0.0, 0.0, 0.0, 0.0, 0.0, 1.636075061524701E9, 0.0, 2021-11-04 20:17:41.524
67.0, 851.8688020571135, 649.1718343086541, 377.6719270753674, 1023.3806140250526, 0.5120000243186951, 0.4800000227987766, 0.7520000357180834, 0.0, 0.0, 0.0, 0.0, 0.0, 1.636075061524701E9, 0.0, 2021-11-04 20:17:41.524
68.0, 861.9852314372547, 655.7465784307569, 386.25125757372007, 1022.6550734336488, 0.5120000243186951, 0.4800000227987766, 0.7520000357180834, 0.0, 0.0, 0.0, 0.0, 0.0, 1.6360750615519404E9, 0.0, 2021-11-04 20:17:41.551
68.0, 864.442345708143, 669.6477865660563, 389.2730967379175, 991.5540654021315, 0.5120000243186951, 0.4800000227987766, 0.7520000357180834, 0.0, 0.0, 0.0, 0.0, 0.0, 1.6360750615519404E9, 0.0, 2021-11-04 20:17:41.551
69.0, 869.9699178426526, 659.026470691897, 382.66469351621345, 1029.9104793476872, 0.5120000243186951, 0.4800000227987766, 0.7520000357180834, 0.0, 0.0, 0.0, 0.0, 0.0, 1.6360750615525048E9, 0.0, 2021-11-04 20:17:41.552
69.0, 873.0067166066729, 662.9982444448397, 389.351634636987, 1048.2135497308336, 0.5120000243186951, 0.4800000227987766, 0.7520000357180834, 0.0, 0.0, 0.0, 0.0, 0.0, 1.6360750615525048E9, 0.0, 2021-11-04 20:17:41.552
70.0, 870.0634153415449, 670.2087715594098, 406.4766365340911, 1023.6910257213749, 0.5120000243186951, 0.4800000227987766, 0.7520000357180834, 0.0, 0.0, 0.0, 0.0, 0.0, 1.6360750615532534E9, 0.0, 2021-11-04 20:17:41.553
70.0, 897.1776900202967, 669.2214379711077, 395.8291413602419, 1018.7543577798642, 0.5120000243186951, 0.4800000227987766, 0.7520000357180834, 0.0, 0.0, 0.0, 0.0, 0.0, 1.6360750615532534E9, 0.0, 2021-11-04 20:17:41.553
71.0, 903.1166511499323, 669.7338042650372, 364.9226081264205, 1033.7438768022694, 0.5120000243186951, 0.4800000227987766, 0.7520000357180834, 0.0, 0.0, 0.0, 0.0, 0.0, 1.6360750615540679E9, 0.0, 2021-11-04 20:17:41.554
71.0, 899.7544810897671, 675.8597603924572, 402.8339739772491, 1045.662937961053, 0.5120000243186951, 0.4800000227987766, 0.7520000357180834, 0.0, 0.0, 0.0, 0.0, 0.0, 1.6360750615540679E9, 0.0, 2021-11-04 20:17:41.554
72.0, 907.1407835022546, 658.544023597613, 406.2784218364395, 1027.4683246766217, 0.5120000243186951, 0.4800000227987766, 0.7520000357180834, 0.0, 0.0, 0.0, 0.0, 0.0, 1.6360750615801506E9, 0.0, 2021-11-04 20:17:41.580
72.0, 914.7066011126153, 673.077274825424, 382.3131429203786, 1039.249009537045, 0.5120000243186951, 0.4800000227987766, 0.7520000357180834, 0.0, 0.0, 0.0, 0.0, 0.0, 1.6360750615801506E9, 0.0, 2021-11-04 20:17:41.580
73.0, 913.2293406301178, 670.6201605545357, 407.26949532469735, 1041.444330811035, 0.5120000243186951, 0.4800000227987766, 0.7520000357180834, 0.0, 0.0, 0.0, 0.0, 0.0, 1.6360750615965583E9, 0.0, 2021-11-04 20:17:41.596
73.0, 913.6818685247563, 668.0620689848438, 401.04630179842934, 1046.8858852465637, 0.5120000243186951, 0.4800000227987766, 0.7520000357180834, 0.0, 0.0, 0.0, 0.0, 0.0, 1.6360750615965583E9, 0.0, 2021-11-04 20:17:41.596
74.0, 910.8058854588307, 668.1480866838247, 377.80656347377226, 1000.9599137906916, 0.5120000243186951, 0.4800000227987766, 0.7520000357180834, 0.0, 0.0, 0.0, 0.0, 0.0, 1.6360750615972881E9, 0.0, 2021-11-04 20:17:41.597
74.0, 921.5206988318823, 652.0328577747568, 400.45165770547464, 1027.9283323711716, 0.5120000243186951, 0.4800000227987766, 0.7520000357180834, 0.0, 0.0, 0.0, 0.0, 0.0, 1.6360750615972881E9, 0.0, 2021-11-04 20:17:41.597
75.0, 919.6544887539931, 667.5684021906927, 382.87786781368777, 1054.1973896599375, 0.5120000243186951, 0.4800000227987766, 0.7520000357180834, 0.0, 0.0, 0.0, 0.0, 0.0, 1.6360750616105397E9, 0.0, 2021-11-04 20:17:41.610
75.0, 902.3948504584841, 674.9247854035348, 381.36320833163336, 1046.4071780522354, 0.5120000243186951, 0.4800000227987766, 0.7520000357180834, 0.0, 0.0, 0.0, 0.0, 0.0, 1.6360750616105397E9, 0.0, 2021-11-04 20:17:41.610
76.0, 920.8175976402126, 679.0798142543063, 381.6549205281772, 1034.170225397218, 0.5120000243186951, 0.4800000227987766, 0.7520000357180834, 0.0, 0.0, 0.0, 0.0, 0.0, 1.6360750616111903E9, 0.0, 2021-11-04 20:17:41.611
76.0, 923.0652775135823, 675.4857703968883, 395.74312366126105, 1037.2294635609724, 0.5120000243186951, 0.4800000227987766, 0.7520000357180834, 0.0, 0.0, 0.0, 0.0, 0.0, 1.6360750616111903E9, 0.0, 2021-11-04 20:17:41.611
77.0, 918.2183671710081, 664.3520882287994, 388.2371444501914, 1027.9021530714817, 0.5120000243186951, 0.4800000227987766, 0.7520000357180834, 0.0, 0.0, 0.0, 0.0, 0.0, 1.6360750616739645E9, 0.0, 2021-11-04 20:17:41.673
77.0, 914.2391136181541, 657.9755588043481, 391.51329681137577, 1021.8547348431312, 0.5120000243186951, 0.4800000227987766, 0.7520000357180834, 0.0, 0.0, 0.0, 0.0, 0.0, 1.6360750616739645E9, 0.0, 2021-11-04 20:17:41.673
78.0, 928.3983748503961, 661.4574056630954, 394.58749457495287, 990.6452697128989, 0.5120000243186951, 0.4800000227987766, 0.7520000357180834, 0.0, 0.0, 0.0, 0.0, 0.0, 1.6360750616745727E9, 0.0, 2021-11-04 20:17:41.674
78.0, 920.8138577402569, 654.8901413409039, 392.85592089546844, 1017.6585670928471, 0.5120000243186951, 0.4800000227987766, 0.7520000357180834, 0.0, 0.0, 0.0, 0.0, 0.0, 1.6360750616745727E9, 0.0, 2021-11-04 20:17:41.674
79.0, 903.8272321415134, 662.7439312478527, 392.22013790300116, 1044.9598367693834, 0.5120000243186951, 0.4800000227987766, 0.7520000357180834, 0.0, 0.0, 0.0, 0.0, 0.0, 1.636075061675605E9, 0.0, 2021-11-04 20:17:41.675
79.0, 916.3820762927644, 668.1032078843564, 398.37601323006675, 1054.4404831570573, 0.5120000243186951, 0.4800000227987766, 0.7520000357180834, 0.0, 0.0, 0.0, 0.0, 0.0, 1.636075061675605E9, 0.0, 2021-11-04 20:17:41.675
80.0, 913.1096638315357, 683.268502204679, 399.5802610157989, 1021.3872473486699, 0.5120000243186951, 0.4800000227987766, 0.7520000357180834, 0.0, 0.0, 0.0, 0.0, 0.0, 1.636075061676237E9, 0.0, 2021-11-04 20:17:41.676
80.0, 910.0392059679143, 657.0742429150268, 386.4943510708399, 1038.1644385498948, 0.5120000243186951, 0.4800000227987766, 0.7520000357180834, 0.0, 0.0, 0.0, 0.0, 0.0, 1.636075061676237E9, 0.0, 2021-11-04 20:17:41.676
81.0, 907.3315183999948, 657.9119805051014, 374.3022772152908, 1030.8940730360337, 0.5120000243186951, 0.4800000227987766, 0.7520000357180834, 0.0, 0.0, 0.0, 0.0, 0.0, 1.6360750616868892E9, 0.0, 2021-11-04 20:17:41.686
81.0, 892.3083402779885, 651.8907415764406, 395.5860478631221, 1030.695858338382, 0.5120000243186951, 0.4800000227987766, 0.7520000357180834, 0.0, 0.0, 0.0, 0.0, 0.0, 1.6360750616868892E9, 0.0, 2021-11-04 20:17:41.686
82.0, 904.3134191357531, 643.6143429744989, 374.2312191161327, 988.7005217359401, 0.5120000243186951, 0.4800000227987766, 0.7520000357180834, 0.0, 0.0, 0.0, 0.0, 0.0, 1.6360750616875095E9, 0.0, 2021-11-04 20:17:41.687
82.0, 906.4937808099203, 626.7062552748248, 383.4238932072185, 995.2490865583532, 0.5120000243186951, 0.4800000227987766, 0.7520000357180834, 0.0, 0.0, 0.0, 0.0, 0.0, 1.6360750616875095E9, 0.0, 2021-11-04 20:17:41.687
83.0, 886.6835307446308, 637.8025384433568, 386.44199247146025, 1059.2948732995428, 0.5120000243186951, 0.4800000227987766, 0.7520000357180834, 0.0, 0.0, 0.0, 0.0, 0.0, 1.636075061688286E9, 0.0, 2021-11-04 20:17:41.688
83.0, 878.4482710422017, 661.4873248627409, 381.7484180270694, 1031.4288787296973, 0.5120000243186951, 0.4800000227987766, 0.7520000357180834, 0.0, 0.0, 0.0, 0.0, 0.0, 1.636075061688286E9, 0.0, 2021-11-04 20:17:41.688
84.0, 885.8906719540246, 647.556197527796, 363.57998404232785, 1027.9769510705955, 0.5120000243186951, 0.4800000227987766, 0.7520000357180834, 0.0, 0.0, 0.0, 0.0, 0.0, 1.636075061689028E9, 0.0, 2021-11-04 20:17:41.689
84.0, 884.559267569799, 636.5795911578462, 367.58915679482743, 1014.3038768325932, 0.5120000243186951, 0.4800000227987766, 0.7520000357180834, 0.0, 0.0, 0.0, 0.0, 0.0, 1.636075061689028E9, 0.0, 2021-11-04 20:17:41.689
85.0, 879.8170744259842, 642.6831078855321, 376.6845934870653, 1012.5349041535519, 0.5120000243186951, 0.4800000227987766, 0.7520000357180834, 0.0, 0.0, 0.0, 0.0, 0.0, 1.6360750616997025E9, 0.0, 2021-11-04 20:17:41.699
85.0, 878.5679478407837, 644.5493179634213, 378.80511676194146, 1013.6643539401703, 0.5120000243186951, 0.4800000227987766, 0.7520000357180834, 0.0, 0.0, 0.0, 0.0, 0.0, 1.6360750616997025E9, 0.0, 2021-11-04 20:17:41.699
86.0, 867.6549197700806, 640.9515342060477, 379.96448574820533, 964.9147580177523, 0.5120000243186951, 0.4800000227987766, 0.7520000357180834, 0.0, 0.0, 0.0, 0.0, 0.0, 1.6360750617782135E9, 0.0, 2021-11-04 20:17:41.778
86.0, 872.5878478116356, 636.1382829630747, 391.9172060065903, 1016.200006110128, 0.5120000243186951, 0.4800000227987766, 0.7520000357180834, 0.0, 0.0, 0.0, 0.0, 0.0, 1.6360750617782135E9, 0.0, 2021-11-04 20:17:41.778
87.0, 867.2098716753535, 640.2820921139792, 370.9326273552142, 1010.9342269725166, 0.5120000243186951, 0.4800000227987766, 0.7520000357180834, 0.0, 0.0, 0.0, 0.0, 0.0, 1.636075061778926E9, 0.0, 2021-11-04 20:17:41.778
87.0, 860.0928420596756, 635.6146969692782, 343.7772137769498, 1016.2822839091532, 0.5120000243186951, 0.4800000227987766, 0.7520000357180834, 0.0, 0.0, 0.0, 0.0, 0.0, 1.636075061778926E9, 0.0, 2021-11-04 20:17:41.778
88.0, 872.438251813408, 648.8614226123318, 392.8334814957343, 1019.5659160702489, 0.5120000243186951, 0.4800000227987766, 0.7520000357180834, 0.0, 0.0, 0.0, 0.0, 0.0, 1.6360750617796016E9, 0.0, 2021-11-04 20:17:41.779
88.0, 868.1224072645418, 651.9804991753772, 365.7453861166723, 1014.8760815258138, 0.5120000243186951, 0.4800000227987766, 0.7520000357180834, 0.0, 0.0, 0.0, 0.0, 0.0, 1.6360750617796016E9, 0.0, 2021-11-04 20:17:41.779
89.0, 855.9490329087712, 649.6655011028051, 366.8636162034236, 1011.4952119658701, 0.5120000243186951, 0.4800000227987766, 0.7520000357180834, 0.0, 0.0, 0.0, 0.0, 0.0, 1.6360750617803812E9, 0.0, 2021-11-04 20:17:41.780
89.0, 876.8214145614766, 651.9131809761748, 393.9853706820868, 1004.2098868521862, 0.5120000243186951, 0.4800000227987766, 0.7520000357180834, 0.0, 0.0, 0.0, 0.0, 0.0, 1.6360750617803812E9, 0.0, 2021-11-04 20:17:41.780
90.0, 874.3156815911643, 649.003538810648, 380.6152283404954, 1007.8450696091168, 0.5120000243186951, 0.4800000227987766, 0.7520000357180834, 0.0, 0.0, 0.0, 0.0, 0.0, 1.636075061792215E9, 0.0, 2021-11-04 20:17:41.792
90.0, 862.2769436337985, 651.2998373834416, 355.0492722433992, 946.4209527368657, 0.5120000243186951, 0.4800000227987766, 0.7520000357180834, 0.0, 0.0, 0.0, 0.0, 0.0, 1.636075061792215E9, 0.0, 2021-11-04 20:17:41.792
91.0, 878.7399832387455, 662.897267146036, 381.58386242901906, 1038.5197290456854, 0.5120000243186951, 0.4800000227987766, 0.7520000357180834, 0.0, 0.0, 0.0, 0.0, 0.0, 1.6360750617929208E9, 0.0, 2021-11-04 20:17:41.792
91.0, 876.1669320692308, 658.278490700759, 413.45528985140845, 1048.9353504222818, 0.5120000243186951, 0.4800000227987766, 0.7520000357180834, 0.0, 0.0, 0.0, 0.0, 0.0, 1.6360750617929208E9, 0.0, 2021-11-04 20:17:41.792
92.0, 876.791495361831, 670.0068169618025, 394.26586317876354, 1048.8755120229907, 0.5120000243186951, 0.4800000227987766, 0.7520000357180834, 0.0, 0.0, 0.0, 0.0, 0.0, 1.6360750617937117E9, 0.0, 2021-11-04 20:17:41.793
92.0, 891.747355284635, 658.6861397959292, 389.30301593756303, 1042.8019144949503, 0.5120000243186951, 0.4800000227987766, 0.7520000357180834, 0.0, 0.0, 0.0, 0.0, 0.0, 1.6360750617937117E9, 0.0, 2021-11-04 20:17:41.793
94.0, 879.1289328341372, 664.176312930882, 403.27154227206483, 1032.2740961196832, 0.5120000243186951, 0.4800000227987766, 0.7520000357180834, 0.0, 0.0, 0.0, 0.0, 0.0, 1.6360750617944984E9, 0.0, 2021-11-04 20:17:41.794
94.0, 857.8002833868377, 666.0537427086383, 390.0472560287453, 1007.0970896179788, 0.5120000243186951, 0.4800000227987766, 0.7520000357180834, 0.0, 0.0, 0.0, 0.0, 0.0, 1.6360750617944984E9, 0.0, 2021-11-04 20:17:41.794
95.0, 882.0647542993538, 656.0046315276995, 405.9081717408262, 1057.9933881149627, 0.5120000243186951, 0.4800000227987766, 0.7520000357180834, 0.0, 0.0, 0.0, 0.0, 0.0, 1.636075061805436E9, 0.0, 2021-11-04 20:17:41.805
95.0, 891.9829689818434, 648.8202837128192, 387.79583625542, 1028.3172819665633, 0.5120000243186951, 0.4800000227987766, 0.7520000357180834, 0.0, 0.0, 0.0, 0.0, 0.0, 1.636075061805436E9, 0.0, 2021-11-04 20:17:41.805
96.0, 898.4455161052756, 664.9654318215325, 378.0234776712023, 1046.085546656046, 0.5120000243186951, 0.4800000227987766, 0.7520000357180834, 0.0, 0.0, 0.0, 0.0, 0.0, 1.6360750618061705E9, 0.0, 2021-11-04 20:17:41.806
96.0, 877.1355661577545, 662.4073402518407, 372.10321604134515, 1036.1748117734678, 0.5120000243186951, 0.4800000227987766, 0.7520000357180834, 0.0, 0.0, 0.0, 0.0, 0.0, 1.6360750618061705E9, 0.0, 2021-11-04 20:17:41.806
97.0, 887.03134144051, 644.3436234658584, 360.86855657445267, 1038.4374512466602, 0.5120000243186951, 0.4800000227987766, 0.7520000357180834, 0.0, 0.0, 0.0, 0.0, 0.0, 1.636075061866644E9, 0.0, 2021-11-04 20:17:41.866
97.0, 885.2399293617345, 671.3868400454521, 383.2705573090352, 1045.326346965041, 0.5120000243186951, 0.4800000227987766, 0.7520000357180834, 0.0, 0.0, 0.0, 0.0, 0.0, 1.636075061866644E9, 0.0, 2021-11-04 20:17:41.866
98.0, 888.7778747198172, 650.8360897889361, 421.49981465609744, 1044.6681245728396, 0.5120000243186951, 0.4800000227987766, 0.7520000357180834, 0.0, 0.0, 0.0, 0.0, 0.0, 1.6360750618807335E9, 0.0, 2021-11-04 20:17:41.880
98.0, 895.2740809428506, 660.1858396781608, 401.26321599585935, 1017.7408448918723, 0.5120000243186951, 0.4800000227987766, 0.7520000357180834, 0.0, 0.0, 0.0, 0.0, 0.0, 1.6360750618807335E9, 0.0, 2021-11-04 20:17:41.880
99.0, 887.7381825321354, 680.7814687341452, 385.2452244856395, 1048.4454235280864, 0.5120000243186951, 0.4800000227987766, 0.7520000357180834, 0.0, 0.0, 0.0, 0.0, 0.0, 1.6360750618814476E9, 0.0, 2021-11-04 20:17:41.881
99.0, 870.568301835563, 653.1847469611093, 379.58301595272496, 1045.8536728587933, 0.5120000243186951, 0.4800000227987766, 0.7520000357180834, 0.0, 0.0, 0.0, 0.0, 0.0, 1.6360750618814476E9, 0.0, 2021-11-04 20:17:41.881
100.0, 874.75324988598, 649.6879405025393, 383.39771390752867, 1048.643638225738, 0.5120000243186951, 0.4800000227987766, 0.7520000357180834, 0.0, 0.0, 0.0, 0.0, 0.0, 1.636075061898096E9, 0.0, 2021-11-04 20:17:41.898
100.0, 888.056074028369, 664.284770029597, 396.5472021517344, 1048.209809830878, 0.5120000243186951, 0.4800000227987766, 0.7520000357180834, 0.0, 0.0, 0.0, 0.0, 0.0, 1.636075061898096E9, 0.0, 2021-11-04 20:17:41.898
0.0, 868.0046004159376, 690.3574825706892, 414.3266865410842, 1069.2972357310355, 0.5120000243186951, 0.4800000227987766, 0.7520000357180834, 0.0, 0.0, 0.0, 0.0, 0.0, 1.6360750618987806E9, 0.0, 2021-11-04 20:17:41.898
1.0, 876.9018224105239, 682.2605991666205, 407.2769751246087, 1047.0448309946805, 0.5120000243186951, 0.4800000227987766, 0.7520000357180834, 0.0, 0.0, 0.0, 0.0, 0.0, 1.6360750618996058E9, 0.0, 2021-11-04 20:17:41.899
1.0, 861.5345734925941, 671.6355433925055, 396.913712347392, 1048.8811218729243, 0.5120000243186951, 0.4800000227987766, 0.7520000357180834, 0.0, 0.0, 0.0, 0.0, 0.0, 1.6360750618996058E9, 0.0, 2021-11-04 20:17:41.899
2.0, 871.7370205717161, 673.7373671676032, 399.2810690193437, 1052.8267163261771, 0.5120000243186951, 0.4800000227987766, 0.7520000357180834, 0.0, 0.0, 0.0, 0.0, 0.0, 1.636075061900352E9, 0.0, 2021-11-04 20:17:41.900
2.0, 876.8569436110556, 678.7002144088037, 407.82674041809514, 1070.4304254176095, 0.5120000243186951, 0.4800000227987766, 0.7520000357180834, 0.0, 0.0, 0.0, 0.0, 0.0, 1.636075061900352E9, 0.0, 2021-11-04 20:17:41.900
3.0, 854.7354353731498, 684.5307184397243, 400.15246570901945, 1046.6222222996876, 0.5120000243186951, 0.4800000227987766, 0.7520000357180834, 0.0, 0.0, 0.0, 0.0, 0.0, 1.6360750619408553E9, 0.0, 2021-11-04 20:17:41.940
3.0, 861.0633460981771, 687.4964591045864, 406.4803764340468, 1026.1126109426841, 0.5120000243186951, 0.4800000227987766, 0.7520000357180834, 0.0, 0.0, 0.0, 0.0, 0.0, 1.6360750619408553E9, 0.0, 2021-11-04 20:17:41.940
4.0, 859.5786058157682, 684.5007992400788, 409.5396145978011, 1053.4138806192204, 0.5120000243186951, 0.4800000227987766, 0.7520000357180834, 0.0, 0.0, 0.0, 0.0, 0.0, 1.636075061970198E9, 0.0, 2021-11-04 20:17:41.970
4.0, 872.8664703583345, 677.9410147177987, 421.39135755738243, 1052.1385747343302, 0.5120000243186951, 0.4800000227987766, 0.7520000357180834, 0.0, 0.0, 0.0, 0.0, 0.0, 1.636075061970198E9, 0.0, 2021-11-04 20:17:41.970
5.0, 877.7283403007314, 690.5930962678976, 419.56628637900576, 1041.7229533577338, 0.5120000243186951, 0.4800000227987766, 0.7520000357180834, 0.0, 0.0, 0.0, 0.0, 0.0, 1.6360750619851255E9, 0.0, 2021-11-04 20:17:41.985
5.0, 871.1386365788057, 701.3490485404618, 432.0388527312316, 1054.3750349078327, 0.5120000243186951, 0.4800000227987766, 0.7520000357180834, 0.0, 0.0, 0.0, 0.0, 0.0, 1.6360750619851255E9, 0.0, 2021-11-04 20:17:41.985
6.0, 881.8010913524777, 707.003777273465, 449.46678652474657, 1058.7207986563444, 0.5120000243186951, 0.4800000227987766, 0.7520000357180834, 0.0, 0.0, 0.0, 0.0, 0.0, 1.6360750621670804E9, 0.0, 2021-11-04 20:17:42.167
6.0, 882.1414222484455, 716.7349969581701, 461.8271558783017, 1024.7662469586357, 0.5120000243186951, 0.4800000227987766, 0.7520000357180834, 0.0, 0.0, 0.0, 0.0, 0.0, 1.6360750621670804E9, 0.0, 2021-11-04 20:17:42.167
7.0, 886.6143425954506, 732.4126575724222, 446.94609395461157, 1040.960013766773, 0.5120000243186951, 0.4800000227987766, 0.7520000357180834, 0.0, 0.0, 0.0, 0.0, 0.0, 1.6360750621678572E9, 0.0, 2021-11-04 20:17:42.167
7.0, 875.3722033286467, 745.4910877174698, 490.48974913870916, 1048.6230687759817, 0.5120000243186951, 0.4800000227987766, 0.7520000357180834, 0.0, 0.0, 0.0, 0.0, 0.0, 1.6360750621678572E9, 0.0, 2021-11-04 20:17:42.167
8.0, 885.9374207034707, 741.2537810676731, 502.64442399470136, 1005.27388838958, 0.5120000243186951, 0.4800000227987766, 0.7520000357180834, 0.0, 0.0, 0.0, 0.0, 0.0, 1.6360750621685057E9, 0.0, 2021-11-04 20:17:42.168
8.0, 869.3921032994986, 723.4219380789436, 481.9178984402679, 1037.4893866078928, 0.5120000243186951, 0.4800000227987766, 0.7520000357180834, 0.0, 0.0, 0.0, 0.0, 0.0, 1.6360750621685057E9, 0.0, 2021-11-04 20:17:42.168
9.0, 854.7728343727067, 725.6957972520031, 489.2481023534201, 1042.8337036445737, 0.5120000243186951, 0.4800000227987766, 0.7520000357180834, 0.0, 0.0, 0.0, 0.0, 0.0, 1.636075062180133E9, 0.0, 2021-11-04 20:17:42.180
9.0, 855.457236064598, 728.1491716229357, 488.2046702657826, 1042.8524031443521, 0.5120000243186951, 0.4800000227987766, 0.7520000357180834, 0.0, 0.0, 0.0, 0.0, 0.0, 1.636075062180133E9, 0.0, 2021-11-04 20:17:42.180
10.0, 862.7837000777945, 723.6837310758419, 471.472357864026, 991.01738975849, 0.5120000243186951, 0.4800000227987766, 0.7520000357180834, 0.0, 0.0, 0.0, 0.0, 0.0, 1.636075062285772E9, 0.0, 2021-11-04 20:17:42.285
10.0, 874.9121956340969, 725.6396987526678, 476.5848011034541, 1049.5543038649485, 0.5120000243186951, 0.4800000227987766, 0.7520000357180834, 0.0, 0.0, 0.0, 0.0, 0.0, 1.636075062285772E9, 0.0, 2021-11-04 20:17:42.285
13.0, 878.4426611922681, 729.5591139062308, 475.18607852002606, 1094.01423453819, 0.5120000243186951, 0.4800000227987766, 0.7520000357180834, 0.0, 0.0, 0.0, 0.0, 0.0, 1.6360750622865484E9, 0.0, 2021-11-04 20:17:42.286
13.0, 869.4407219989225, 724.3120342683978, 454.743785362225, 1061.0844154283404, 0.5120000243186951, 0.4800000227987766, 0.7520000357180834, 0.0, 0.0, 0.0, 0.0, 0.0, 1.6360750622865484E9, 0.0, 2021-11-04 20:17:42.286
15.0, 865.6634230436757, 717.640052747447, 440.9622540255077, 1065.142206880264, 0.5120000243186951, 0.4800000227987766, 0.7520000357180834, 0.0, 0.0, 0.0, 0.0, 0.0, 1.636075062363136E9, 0.0, 2021-11-04 20:17:42.363
15.0, 858.4865550287068, 698.319729576353, 433.28797931643203, 1067.326308454387, 0.5120000243186951, 0.4800000227987766, 0.7520000357180834, 0.0, 0.0, 0.0, 0.0, 0.0, 1.636075062363136E9, 0.0, 2021-11-04 20:17:42.363
33.0, 874.0968974437565, 678.3449239130132, 420.2918269704096, 1052.7706178268418, 0.5120000243186951, 0.4800000227987766, 0.7520000357180834, 0.0, 0.0, 0.0, 0.0, 0.0, 1.6360750623639612E9, 0.0, 2021-11-04 20:17:42.363
33.0, 854.1370513802394, 664.054766182322, 421.2118423595093, 1047.7217528866604, 0.5120000243186951, 0.4800000227987766, 0.7520000357180834, 0.0, 0.0, 0.0, 0.0, 0.0, 1.6360750623639612E9, 0.0, 2021-11-04 20:17:42.363
34.0, 865.7718801423907, 675.1809685504995, 433.9611613084562, 1047.2580052921548, 0.5120000243186951, 0.4800000227987766, 0.7520000357180834, 0.0, 0.0, 0.0, 0.0, 0.0, 1.6360750623646293E9, 0.0, 2021-11-04 20:17:42.364
34.0, 866.4001833349466, 682.7243467611261, 429.3012459636666, 1044.6064162235707, 0.5120000243186951, 0.4800000227987766, 0.7520000357180834, 0.0, 0.0, 0.0, 0.0, 0.0, 1.6360750623646293E9, 0.0, 2021-11-04 20:17:42.364
35.0, 873.6892483485863, 693.2446853364818, 418.6238315901719, 1037.6838614055887, 0.5120000243186951, 0.4800000227987766, 0.7520000357180834, 0.0, 0.0, 0.0, 0.0, 0.0, 1.6360750623653276E9, 0.0, 2021-11-04 20:17:42.365
35.0, 879.5833306787536, 682.9375210586004, 430.23622095258906, 1065.950025270693, 0.5120000243186951, 0.4800000227987766, 0.7520000357180834, 0.0, 0.0, 0.0, 0.0, 0.0, 1.6360750623653276E9, 0.0, 2021-11-04 20:17:42.365
36.0, 872.5373591622338, 690.0882097738795, 437.4093490676023, 1057.0902022756636, 0.5120000243186951, 0.4800000227987766, 0.7520000357180834, 0.0, 0.0, 0.0, 0.0, 0.0, 1.6360750624358184E9, 0.0, 2021-11-04 20:17:42.435
36.0, 880.5257854675874, 685.2637388310395, 421.82518595224246, 1063.4592519002035, 0.5120000243186951, 0.4800000227987766, 0.7520000357180834, 0.0, 0.0, 0.0, 0.0, 0.0, 1.6360750624358184E9, 0.0, 2021-11-04 20:17:42.435
45.0, 895.425546891056, 667.5066938414238, 391.0869482164271, 1053.8215297143906, 0.5120000243186951, 0.4800000227987766, 0.7520000357180834, 0.0, 0.0, 0.0, 0.0, 0.0, 1.6360750624365556E9, 0.0, 2021-11-04 20:17:42.436
45.0, 885.0099255144596, 672.0805914872326, 394.03398938151076, 1058.1523338630795, 0.5120000243186951, 0.4800000227987766, 0.7520000357180834, 0.0, 0.0, 0.0, 0.0, 0.0, 1.6360750624365556E9, 0.0, 2021-11-04 20:17:42.436
46.0, 889.1724341651425, 679.0555049045943, 426.1185911013745, 1064.7158582853153, 0.5120000243186951, 0.4800000227987766, 0.7520000357180834, 0.0, 0.0, 0.0, 0.0, 0.0, 1.636075062468089E9, 0.0, 2021-11-04 20:17:42.468
46.0, 878.577297590673, 678.1504491153173, 408.55976080941036, 1074.8435073653236, 0.5120000243186951, 0.4800000227987766, 0.7520000357180834, 0.0, 0.0, 0.0, 0.0, 0.0, 1.636075062468089E9, 0.0, 2021-11-04 20:17:42.468
52.0, 884.2731652231887, 673.0380058758892, 417.3934045047499, 1053.1932265218347, 0.5120000243186951, 0.4800000227987766, 0.7520000357180834, 0.0, 0.0, 0.0, 0.0, 0.0, 1.6360750624687822E9, 0.0, 2021-11-04 20:17:42.468
52.0, 887.7811913816258, 681.7033540732227, 419.2558746826835, 1078.5871472209692, 0.5120000243186951, 0.4800000227987766, 0.7520000357180834, 0.0, 0.0, 0.0, 0.0, 0.0, 1.6360750624687822E9, 0.0, 2021-11-04 20:17:42.468
53.0, 866.4188828347251, 697.1304413904436, 422.90227713948116, 1100.81711255759, 0.5120000243186951, 0.4800000227987766, 0.7520000357180834, 0.0, 0.0, 0.0, 0.0, 0.0, 1.6360750624695666E9, 0.0, 2021-11-04 20:17:42.469
53.0, 868.602984408848, 687.5151586043648, 437.4766672668047, 1100.5852387603372, 0.5120000243186951, 0.4800000227987766, 0.7520000357180834, 0.0, 0.0, 0.0, 0.0, 0.0, 1.6360750624695666E9, 0.0, 2021-11-04 20:17:42.469
54.0, 877.2720725061372, 685.2450393312611, 424.5179139203392, 1100.5478397607803, 0.5120000243186951, 0.4800000227987766, 0.7520000357180834, 0.0, 0.0, 0.0, 0.0, 0.0, 1.636075062470308E9, 0.0, 2021-11-04 20:17:42.470
54.0, 870.7646465832368, 680.4504875880666, 421.4399762568064, 1093.5729263434187, 0.5120000243186951, 0.4800000227987766, 0.7520000357180834, 0.0, 0.0, 0.0, 0.0, 0.0, 1.636075062470308E9, 0.0, 2021-11-04 20:17:42.470
55.0, 875.9369282219559, 678.6441159094684, 402.5721809803508, 1054.6181284049526, 0.5120000243186951, 0.4800000227987766, 0.7520000357180834, 0.0, 0.0, 0.0, 0.0, 0.0, 1.6360750626308148E9, 0.0, 2021-11-04 20:17:42.630
55.0, 873.3638770524412, 671.7365206913091, 414.89889123430476, 1101.4304561503232, 0.5120000243186951, 0.4800000227987766, 0.7520000357180834, 0.0, 0.0, 0.0, 0.0, 0.0, 1.6360750626308148E9, 0.0, 2021-11-04 20:17:42.630
60.0, 867.7577670188621, 663.0075941947289, 408.90009170537814, 1062.46443851199, 0.5120000243186951, 0.4800000227987766, 0.7520000357180834, 0.0, 0.0, 0.0, 0.0, 0.0, 1.6360750627210865E9, 0.0, 2021-11-04 20:17:42.721
60.0, 885.5709105078131, 670.4499951065518, 399.6176600153558, 1095.7345885178074, 0.5120000243186951, 0.4800000227987766, 0.7520000357180834, 0.0, 0.0, 0.0, 0.0, 0.0, 1.6360750627210865E9, 0.0, 2021-11-04 20:17:42.721
61.0, 897.5086711663753, 668.9689947240986, 432.09869113052264, 1099.8559582689777, 0.5120000243186951, 0.4800000227987766, 0.7520000357180834, 0.0, 0.0, 0.0, 0.0, 0.0, 1.636075062735123E9, 0.0, 2021-11-04 20:17:42.735
61.0, 899.5730959419161, 675.9775672410615, 417.6252783020027, 1119.8569432320073, 0.5120000243186951, 0.4800000227987766, 0.7520000357180834, 0.0, 0.0, 0.0, 0.0, 0.0, 1.636075062735123E9, 0.0, 2021-11-04 20:17:42.735
63.0, 911.406139401719, 666.2276480565779, 425.39305050997064, 1128.7691248264164, 0.5120000243186951, 0.4800000227987766, 0.7520000357180834, 0.0, 0.0, 0.0, 0.0, 0.0, 1.636075062825804E9, 0.0, 2021-11-04 20:17:42.825
63.0, 914.083907769993, 690.8324498650618, 424.5515730199404, 1126.4915257534012, 0.5120000243186951, 0.4800000227987766, 0.7520000357180834, 0.0, 0.0, 0.0, 0.0, 0.0, 1.636075062825804E9, 0.0, 2021-11-04 20:17:42.825
64.0, 919.7909951023757, 695.219352513086, 455.95551294786856, 1118.5367585476488, 0.5120000243186951, 0.4800000227987766, 0.7520000357180834, 0.0, 0.0, 0.0, 0.0, 0.0, 1.6360750629008307E9, 0.0, 2021-11-04 20:17:42.900
64.0, 924.720183243975, 689.8301566769369, 441.25396622205153, 1122.261698903516, 0.5120000243186951, 0.4800000227987766, 0.7520000357180834, 0.0, 0.0, 0.0, 0.0, 0.0, 1.6360750629008307E9, 0.0, 2021-11-04 20:17:42.900
65.0, 908.9303256310523, 693.9889254276641, 429.5106803611852, 1093.423330345191, 0.5120000243186951, 0.4800000227987766, 0.7520000357180834, 0.0, 0.0, 0.0, 0.0, 0.0, 1.636075062901513E9, 0.0, 2021-11-04 20:17:42.901
65.0, 909.2556969271973, 696.8910877932794, 436.8969827736728, 1107.9827608726919, 0.5120000243186951, 0.4800000227987766, 0.7520000357180834, 0.0, 0.0, 0.0, 0.0, 0.0, 1.636075062901513E9, 0.0, 2021-11-04 20:17:42.901
66.0, 925.1951505383477, 711.6113340188749, 456.673573739361, 1151.5002367570996, 0.5120000243186951, 0.4800000227987766, 0.7520000357180834, 0.0, 0.0, 0.0, 0.0, 0.0, 1.6360750629174197E9, 0.0, 2021-11-04 20:17:42.917
66.0, 923.7104102559388, 698.813396370504, 433.01496661966667, 1148.2540035955608, 0.5120000243186951, 0.4800000227987766, 0.7520000357180834, 0.0, 0.0, 0.0, 0.0, 0.0, 1.6360750629174197E9, 0.0, 2021-11-04 20:17:42.917
79.0, 931.5529804630205, 692.2910108477809, 431.6686026356183, 1152.2033379487693, 0.5120000243186951, 0.4800000227987766, 0.7520000357180834, 0.0, 0.0, 0.0, 0.0, 0.0, 1.636075062918166E9, 0.0, 2021-11-04 20:17:42.918
79.0, 929.8924648826942, 677.454827723559, 447.9035083432682, 1140.1533802915365, 0.5120000243186951, 0.4800000227987766, 0.7520000357180834, 0.0, 0.0, 0.0, 0.0, 0.0, 1.636075062918166E9, 0.0, 2021-11-04 20:17:42.918
88.0, 927.3904718123376, 665.1542967692949, 457.2420385326259, 1148.7027915902436, 0.5120000243186951, 0.4800000227987766, 0.7520000357180834, 0.0, 0.0, 0.0, 0.0, 0.0, 1.6360750629189506E9, 0.0, 2021-11-04 20:17:42.918
88.0, 925.1801909385249, 655.456736184191, 441.13802932342514, 1108.741960563697, 0.5120000243186951, 0.4800000227987766, 0.7520000357180834, 0.0, 0.0, 0.0, 0.0, 0.0, 1.6360750629189506E9, 0.0, 2021-11-04 20:17:42.918
90.0, 915.8042617496103, 650.9239774378948, 428.1044779778458, 1118.2824453506619, 0.5120000243186951, 0.4800000227987766, 0.7520000357180834, 0.0, 0.0, 0.0, 0.0, 0.0, 1.6360750629196613E9, 0.0, 2021-11-04 20:17:42.919
90.0, 898.0023379605263, 650.3106338451616, 445.4127349727787, 1104.2279013171792, 0.5120000243186951, 0.4800000227987766, 0.7520000357180834, 0.0, 0.0, 0.0, 0.0, 0.0, 1.6360750629196613E9, 0.0, 2021-11-04 20:17:42.919
99.0, 890.0625303545967, 651.8477327269502, 456.782030838076, 1092.4771356564015, 0.5120000243186951, 0.4800000227987766, 0.7520000357180834, 0.0, 0.0, 0.0, 0.0, 0.0, 1.6360750630088696E9, 0.0, 2021-11-04 20:17:43.008
99.0, 884.0562510257587, 652.2553818221204, 476.2145510078408, 1105.2713334048167, 0.5120000243186951, 0.4800000227987766, 0.7520000357180834, 0.0, 0.0, 0.0, 0.0, 0.0, 1.6360750630088696E9, 0.0, 2021-11-04 20:17:43.008
6.0, 879.0971436845139, 630.1076942845248, 474.4193990291096, 1095.932803215459, 0.5120000243186951, 0.4800000227987766, 0.7520000357180834, 0.0, 0.0, 0.0, 0.0, 0.0, 1.6360750630095513E9, 0.0, 2021-11-04 20:17:43.009
6.0, 883.2671321351081, 640.1605453654192, 462.9416460650973, 1080.954503892921, 0.5120000243186951, 0.4800000227987766, 0.7520000357180834, 0.0, 0.0, 0.0, 0.0, 0.0, 1.6360750630095513E9, 0.0, 2021-11-04 20:17:43.009
7.0, 889.2322725644335, 650.6135657415725, 488.2906879647635, 1108.1847154702991, 0.5120000243186951, 0.4800000227987766, 0.7520000357180834, 0.0, 0.0, 0.0, 0.0, 0.0, 1.6360750630103595E9, 0.0, 2021-11-04 20:17:43.010
7.0, 886.4684864971787, 663.2095487923361, 482.48262333357707, 1123.17797439266, 0.5120000243186951, 0.4800000227987766, 0.7520000357180834, 0.0, 0.0, 0.0, 0.0, 0.0, 1.6360750630103595E9, 0.0, 2021-11-04 20:17:43.010
8.0, 892.8861548211426, 648.9044314618222, 475.81812161253765, 1104.3774973154068, 0.5120000243186951, 0.4800000227987766, 0.7520000357180834, 0.0, 0.0, 0.0, 0.0, 0.0, 1.636075063011178E9, 0.0, 2021-11-04 20:17:43.011
8.0, 894.0829228069633, 651.5560205304064, 478.40987228183076, 1125.7398058623075, 0.5120000243186951, 0.4800000227987766, 0.7520000357180834, 0.0, 0.0, 0.0, 0.0, 0.0, 1.636075063011178E9, 0.0, 2021-11-04 20:17:43.011
9.0, 899.6965126404539, 656.9265168667771, 494.97762908553705, 1122.3738959021866, 0.5120000243186951, 0.4800000227987766, 0.7520000357180834, 0.0, 0.0, 0.0, 0.0, 0.0, 1.63607506302321E9, 0.0, 2021-11-04 20:17:43.023
9.0, 889.1462548654526, 654.8359127915464, 474.0603686333634, 1117.70276085753, 0.5120000243186951, 0.4800000227987766, 0.7520000357180834, 0.0, 0.0, 0.0, 0.0, 0.0, 1.63607506302321E9, 0.0, 2021-11-04 20:17:43.023
10.0, 891.7080863351002, 671.8748969896697, 508.4150896263309, 1114.3592902971432, 0.5120000243186951, 0.4800000227987766, 0.7520000357180834, 0.0, 0.0, 0.0, 0.0, 0.0, 1.6360750630238957E9, 0.0, 2021-11-04 20:17:43.023
10.0, 899.8947273381054, 656.6684637698345, 506.447902249638, 1139.966385293752, 0.5120000243186951, 0.4800000227987766, 0.7520000357180834, 0.0, 0.0, 0.0, 0.0, 0.0, 1.6360750630238957E9, 0.0, 2021-11-04 20:17:43.023
11.0, 890.7132729468867, 665.3861705665477, 486.71619008341804, 1134.539790458046, 0.5120000243186951, 0.4800000227987766, 0.7520000357180834, 0.0, 0.0, 0.0, 0.0, 0.0, 1.636075063024656E9, 0.0, 2021-11-04 20:17:43.024
11.0, 899.079429147765, 655.6100720823742, 491.7987141232006, 1109.4450617553666, 0.5120000243186951, 0.4800000227987766, 0.7520000357180834, 0.0, 0.0, 0.0, 0.0, 0.0, 1.636075063024656E9, 0.0, 2021-11-04 20:17:43.024
16.0, 905.291402974166, 648.9979289607145, 478.14807928493246, 1147.9435918992385, 0.5120000243186951, 0.4800000227987766, 0.7520000357180834, 0.0, 0.0, 0.0, 0.0, 0.0, 1.636075063025519E9, 0.0, 2021-11-04 20:17:43.025
16.0, 899.4496792433783, 648.003115572501, 488.1373520665802, 1159.7317565595731, 0.5120000243186951, 0.4800000227987766, 0.7520000357180834, 0.0, 0.0, 0.0, 0.0, 0.0, 1.636075063025519E9, 0.0, 2021-11-04 20:17:43.025
17.0, 884.2918647229671, 644.625985912513, 498.64647094206885, 1156.1564122019336, 0.5120000243186951, 0.4800000227987766, 0.7520000357180834, 0.0, 0.0, 0.0, 0.0, 0.0, 1.6360750630995553E9, 0.0, 2021-11-04 20:17:43.099
17.0, 882.8669628398493, 627.1195142199285, 489.9175444454886, 1129.1019759224728, 0.5120000243186951, 0.4800000227987766, 0.7520000357180834, 0.0, 0.0, 0.0, 0.0, 0.0, 1.6360750630995553E9, 0.0, 2021-11-04 20:17:43.099
18.0, 871.8940963698551, 606.3892487655394, 480.1302262614481, 1075.5092095574364, 0.5120000243186951, 0.4800000227987766, 0.7520000357180834, 0.0, 0.0, 0.0, 0.0, 0.0, 1.6360750631002088E9, 0.0, 2021-11-04 20:17:43.100
18.0, 884.6621148185804, 634.3076019347645, 467.7623771079816, 1135.1606138506904, 0.5120000243186951, 0.4800000227987766, 0.7520000357180834, 0.0, 0.0, 0.0, 0.0, 0.0, 1.6360750631002088E9, 0.0, 2021-11-04 20:17:43.100
19.0, 869.784792794846, 633.8700336399488, 462.69855256797746, 1091.8002137644216, 0.5120000243186951, 0.4800000227987766, 0.7520000357180834, 0.0, 0.0, 0.0, 0.0, 0.0, 1.636075063100963E9, 0.0, 2021-11-04 20:17:43.100
19.0, 881.6290559545159, 628.1105877081864, 449.7061401219107, 1151.9602444516495, 0.5120000243186951, 0.4800000227987766, 0.7520000357180834, 0.0, 0.0, 0.0, 0.0, 0.0, 1.636075063100963E9, 0.0, 2021-11-04 20:17:43.100
20.0, 869.7773129949346, 626.7081252248026, 485.1379523021169, 1141.0771355805919, 0.5120000243186951, 0.4800000227987766, 0.7520000357180834, 0.0, 0.0, 0.0, 0.0, 0.0, 1.6360750631016965E9, 0.0, 2021-11-04 20:17:43.101
20.0, 886.6629612948745, 626.1471402314492, 484.89111890504137, 1140.6994056850672, 0.5120000243186951, 0.4800000227987766, 0.7520000357180834, 0.0, 0.0, 0.0, 0.0, 0.0, 1.6360750631016965E9, 0.0, 2021-11-04 20:17:43.101
21.0, 883.304531134665, 636.1438928130083, 490.01478184433654, 1113.469194107689, 0.5120000243186951, 0.4800000227987766, 0.7520000357180834, 0.0, 0.0, 0.0, 0.0, 0.0, 1.6360750631101863E9, 0.0, 2021-11-04 20:17:43.110
21.0, 893.8996677091345, 622.8410686706193, 464.5759823457338, 1110.8325646389276, 0.5120000243186951, 0.4800000227987766, 0.7520000357180834, 0.0, 0.0, 0.0, 0.0, 0.0, 1.6360750631101863E9, 0.0, 2021-11-04 20:17:43.110
22.0, 887.3024841872975, 632.6807454540394, 476.7942355009727, 1082.315827476792, 0.5120000243186951, 0.4800000227987766, 0.7520000357180834, 0.0, 0.0, 0.0, 0.0, 0.0, 1.636075063335815E9, 0.0, 2021-11-04 20:17:43.335
22.0, 876.8943426106125, 614.7628847663291, 485.6203993964009, 1113.6711487052962, 0.5120000243186951, 0.4800000227987766, 0.7520000357180834, 0.0, 0.0, 0.0, 0.0, 0.0, 1.636075063335815E9, 0.0, 2021-11-04 20:17:43.335
23.0, 881.808571152389, 623.8022229592316, 456.95032633608207, 1139.581175598316, 0.5120000243186951, 0.4800000227987766, 0.7520000357180834, 0.0, 0.0, 0.0, 0.0, 0.0, 1.636075063336557E9, 0.0, 2021-11-04 20:17:43.336
23.0, 868.9694946045056, 632.9500182508491, 469.6398068857379, 1129.906054412946, 0.5120000243186951, 0.4800000227987766, 0.7520000357180834, 0.0, 0.0, 0.0, 0.0, 0.0, 1.636075063336557E9, 0.0, 2021-11-04 20:17:43.336
25.0, 867.0247466275468, 633.6344199427404, 459.7515114028938, 1125.276058267802, 0.5120000243186951, 0.4800000227987766, 0.7520000357180834, 0.0, 0.0, 0.0, 0.0, 0.0, 1.6360750633809097E9, 0.0, 2021-11-04 20:17:43.380
25.0, 856.1191983567551, 643.4254780267365, 477.03732899809256, 1114.7631994923577, 0.5120000243186951, 0.4800000227987766, 0.7520000357180834, 0.0, 0.0, 0.0, 0.0, 0.0, 1.6360750633809097E9, 0.0, 2021-11-04 20:17:43.380
26.0, 867.1294638263062, 640.7402298585512, 457.638467927929, 1135.2316719498485, 0.5120000243186951, 0.4800000227987766, 0.7520000357180834, 0.0, 0.0, 0.0, 0.0, 0.0, 1.636075063381629E9, 0.0, 2021-11-04 20:17:43.381
26.0, 886.4610066972673, 652.6742506171577, 460.1367210983299, 1159.3764660637826, 0.5120000243186951, 0.4800000227987766, 0.7520000357180834, 0.0, 0.0, 0.0, 0.0, 0.0, 1.636075063381629E9, 0.0, 2021-11-04 20:17:43.381
27.0, 868.3187520122156, 634.5095565323718, 470.77673647226766, 1178.0497865425423, 0.5120000243186951, 0.4800000227987766, 0.7520000357180834, 0.0, 0.0, 0.0, 0.0, 0.0, 1.63607506356299E9, 0.0, 2021-11-04 20:17:43.562
27.0, 873.5134730506688, 649.1924037584104, 474.2137045315467, 1173.034580701962, 0.5120000243186951, 0.4800000227987766, 0.7520000357180834, 0.0, 0.0, 0.0, 0.0, 0.0, 1.63607506356299E9, 0.0, 2021-11-04 20:17:43.562
28.0, 875.7162741245702, 659.0320805418305, 480.3957591583021, 1160.734049747698, 0.5120000243186951, 0.4800000227987766, 0.7520000357180834, 0.0, 0.0, 0.0, 0.0, 0.0, 1.6360750635635896E9, 0.0, 2021-11-04 20:17:43.563
28.0, 869.6987750958651, 659.6678635342978, 497.01213466143236, 1160.3750193519518, 0.5120000243186951, 0.4800000227987766, 0.7520000357180834, 0.0, 0.0, 0.0, 0.0, 0.0, 1.6360750635635896E9, 0.0, 2021-11-04 20:17:43.563
29.0, 880.1405757721514, 660.4420228251256, 495.08608618425205, 1138.5751425102353, 0.5120000243186951, 0.4800000227987766, 0.7520000357180834, 0.0, 0.0, 0.0, 0.0, 0.0, 1.6360750635644784E9, 0.0, 2021-11-04 20:17:43.564
29.0, 890.6721340473741, 663.0973517936654, 482.6509188315831, 1110.080844747834, 0.5120000243186951, 0.4800000227987766, 0.7520000357180834, 0.0, 0.0, 0.0, 0.0, 0.0, 1.6360750635644784E9, 0.0, 2021-11-04 20:17:43.564
49.0, 903.0699024004862, 661.5789524116553, 487.09018007898703, 1100.5104407612234, 0.5120000243186951, 0.4800000227987766, 0.7520000357180834, 0.0, 0.0, 0.0, 0.0, 0.0, 1.6360750635651932E9, 0.0, 2021-11-04 20:17:43.565
49.0, 911.4098793016747, 666.2800066559575, 465.7203917321749, 1117.339990561828, 0.5120000243186951, 0.4800000227987766, 0.7520000357180834, 0.0, 0.0, 0.0, 0.0, 0.0, 1.6360750635651932E9, 0.0, 2021-11-04 20:17:43.565
50.0, 899.5955353416502, 665.2066553686745, 470.51868337532505, 1108.8429378625005, 0.5120000243186951, 0.4800000227987766, 0.7520000357180834, 0.0, 0.0, 0.0, 0.0, 0.0, 1.6360750635768933E9, 0.0, 2021-11-04 20:17:43.576
50.0, 902.6211144058034, 661.8519651084207, 469.14614009158686, 1109.5684784539044, 0.5120000243186951, 0.4800000227987766, 0.7520000357180834, 0.0, 0.0, 0.0, 0.0, 0.0, 1.6360750635768933E9, 0.0, 2021-11-04 20:17:43.576
54.0, 883.6411221306771, 655.5464937831275, 488.9264709572308, 1120.6498020226136, 0.5120000243186951, 0.4800000227987766, 0.7520000357180834, 0.0, 0.0, 0.0, 0.0, 0.0, 1.6360750635775483E9, 0.0, 2021-11-04 20:17:43.577
54.0, 888.562830472365, 640.332580763381, 473.4208457409404, 1122.9049616958946, 0.5120000243186951, 0.4800000227987766, 0.7520000357180834, 0.0, 0.0, 0.0, 0.0, 0.0, 1.6360750635775483E9, 0.0, 2021-11-04 20:17:43.577
55.0, 879.7142271772027, 648.5267015662976, 447.1143894526176, 1118.0430917534977, 0.5120000243186951, 0.4800000227987766, 0.7520000357180834, 0.0, 0.0, 0.0, 0.0, 0.0, 1.6360750635783267E9, 0.0, 2021-11-04 20:17:43.578
55.0, 897.7255853638053, 648.8034541630186, 506.5825386480428, 1119.9354811310768, 0.5120000243186951, 0.4800000227987766, 0.7520000357180834, 0.0, 0.0, 0.0, 0.0, 0.0, 1.6360750635783267E9, 0.0, 2021-11-04 20:17:43.578
72.0, 908.83682813216, 642.8457935336046, 511.3733504912816, 1159.915011657402, 0.5120000243186951, 0.4800000227987766, 0.7520000357180834, 0.0, 0.0, 0.0, 0.0, 0.0, 1.6360750635790908E9, 0.0, 2021-11-04 20:17:43.579
72.0, 895.2385518932715, 637.9577442915179, 499.3346125339158, 1145.4715180285275, 0.5120000243186951, 0.4800000227987766, 0.7520000357180834, 0.0, 0.0, 0.0, 0.0, 0.0, 1.6360750635790908E9, 0.0, 2021-11-04 20:17:43.579
73.0, 909.1995984278619, 629.2175980950706, 493.20491650654003, 1129.7601983146742, 0.5120000243186951, 0.4800000227987766, 0.7520000357180834, 0.0, 0.0, 0.0, 0.0, 0.0, 1.6360750636538773E9, 0.0, 2021-11-04 20:17:43.653
73.0, 890.4664395498112, 634.4310186333023, 501.68326970608905, 1145.2546038310975, 0.5120000243186951, 0.4800000227987766, 0.7520000357180834, 0.0, 0.0, 0.0, 0.0, 0.0, 1.6360750636538773E9, 0.0, 2021-11-04 20:17:43.653
74.0, 907.7111182454973, 637.2284638001584, 502.4088102974929, 1135.4111871477216, 0.5120000243186951, 0.4800000227987766, 0.7520000357180834, 0.0, 0.0, 0.0, 0.0, 0.0, 1.6360750636546547E9, 0.0, 2021-11-04 20:17:43.654
74.0, 903.8403217913583, 625.847948234994, 479.3523270706646, 1096.5162276085466, 0.5120000243186951, 0.4800000227987766, 0.7520000357180834, 0.0, 0.0, 0.0, 0.0, 0.0, 1.6360750636546547E9, 0.0, 2021-11-04 20:17:43.654
75.0, 893.4583595143631, 618.4728655223735, 471.08340826863423, 1120.174834728241, 0.5120000243186951, 0.4800000227987766, 0.7520000357180834, 0.0, 0.0, 0.0, 0.0, 0.0, 1.6360750636553006E9, 0.0, 2021-11-04 20:17:43.655
75.0, 904.4050466846675, 614.4337735702284, 477.34026089450344, 1113.6449694056064, 0.5120000243186951, 0.4800000227987766, 0.7520000357180834, 0.0, 0.0, 0.0, 0.0, 0.0, 1.6360750636553006E9, 0.0, 2021-11-04 20:17:43.655
76.0, 895.4143271911889, 604.6950740856119, 457.7544048265554, 1132.6997596798465, 0.5120000243186951, 0.4800000227987766, 0.7520000357180834, 0.0, 0.0, 0.0, 0.0, 0.0, 1.6360750636561673E9, 0.0, 2021-11-04 20:17:43.656
76.0, 905.2240847749636, 602.4773134118877, 463.4315729592927, 1147.4761044047773, 0.5120000243186951, 0.4800000227987766, 0.7520000357180834, 0.0, 0.0, 0.0, 0.0, 0.0, 1.6360750636561673E9, 0.0, 2021-11-04 20:17:43.656
77.0, 891.4201140385121, 589.4699413659982, 473.9406918347813, 1138.9865315053612, 0.5120000243186951, 0.4800000227987766, 0.7520000357180834, 0.0, 0.0, 0.0, 0.0, 0.0, 1.6360750638452227E9, 0.0, 2021-11-04 20:17:43.845
77.0, 894.8271628981456, 599.0515650524758, 459.00353141175583, 1115.3204445857555, 0.5120000243186951, 0.4800000227987766, 0.7520000357180834, 0.0, 0.0, 0.0, 0.0, 0.0, 1.6360750638452227E9, 0.0, 2021-11-04 20:17:43.845
78.0, 873.2292406540364, 603.210333803203, 453.3039238792844, 1119.1351425405592, 0.5120000243186951, 0.4800000227987766, 0.7520000357180834, 0.0, 0.0, 0.0, 0.0, 0.0, 1.6360750639067028E9, 0.0, 2021-11-04 20:17:43.906
78.0, 869.6351967966184, 592.8470710259862, 449.35458952607587, 1102.6683630356565, 0.5120000243186951, 0.4800000227987766, 0.7520000357180834, 0.0, 0.0, 0.0, 0.0, 0.0, 1.6360750639067028E9, 0.0, 2021-11-04 20:17:43.906
79.0, 875.2263472303748, 591.5568055412732, 460.96697888849303, 1068.3473011422902, 0.5120000243186951, 0.4800000227987766, 0.7520000357180834, 0.0, 0.0, 0.0, 0.0, 0.0, 1.6360750640252028E9, 0.0, 2021-11-04 20:17:44.025
79.0, 885.1894407123327, 586.6201375997625, 438.68839485244825, 1125.4593133656308, 0.5120000243186951, 0.4800000227987766, 0.7520000357180834, 0.0, 0.0, 0.0, 0.0, 0.0, 1.6360750640252028E9, 0.0, 2021-11-04 20:17:44.025
81.0, 872.9412683574483, 579.5891256830655, 437.787078963127, 1105.4022299032658, 0.5120000243186951, 0.4800000227987766, 0.7520000357180834, 0.0, 0.0, 0.0, 0.0, 0.0, 1.6360750641325147E9, 0.0, 2021-11-04 20:17:44.132
81.0, 875.1104103317484, 571.9298105738126, 415.3925580284558, 1107.571371877566, 0.5120000243186951, 0.4800000227987766, 0.7520000357180834, 0.0, 0.0, 0.0, 0.0, 0.0, 1.6360750641325147E9, 0.0, 2021-11-04 20:17:44.132
82.0, 880.0732575729489, 566.6752511360683, 429.61913745990023, 1107.6386900767684, 0.5120000243186951, 0.4800000227987766, 0.7520000357180834, 0.0, 0.0, 0.0, 0.0, 0.0, 1.6360750641331782E9, 0.0, 2021-11-04 20:17:44.133
82.0, 872.256866665557, 579.7611610810272, 445.73062646901235, 1093.3672318458557, 0.5120000243186951, 0.4800000227987766, 0.7520000357180834, 0.0, 0.0, 0.0, 0.0, 0.0, 1.6360750641331782E9, 0.0, 2021-11-04 20:17:44.133
83.0, 878.1472090957686, 581.8031464568339, 432.1473098299466, 1075.4344115583226, 0.5120000243186951, 0.4800000227987766, 0.7520000357180834, 0.0, 0.0, 0.0, 0.0, 0.0, 1.6360750641339986E9, 0.0, 2021-11-04 20:17:44.133
83.0, 865.1061779502779, 580.3707647738047, 428.7028619707562, 1093.3373126462102, 0.5120000243186951, 0.4800000227987766, 0.7520000357180834, 0.0, 0.0, 0.0, 0.0, 0.0, 1.6360750641339986E9, 0.0, 2021-11-04 20:17:44.133
84.0, 878.6146965902299, 578.437236496713, 438.43034175550565, 1051.7234458392486, 0.5120000243186951, 0.4800000227987766, 0.7520000357180834, 0.0, 0.0, 0.0, 0.0, 0.0, 1.636075064134728E9, 0.0, 2021-11-04 20:17:44.134
84.0, 886.04213790223, 585.842238408979, 415.79272732371464, 1118.8172510443255, 0.5120000243186951, 0.4800000227987766, 0.7520000357180834, 0.0, 0.0, 0.0, 0.0, 0.0, 1.636075064134728E9, 0.0, 2021-11-04 20:17:44.134
100.0, 883.6860009301454, 573.2836543577723, 414.83157303510234, 1110.888663138263, 0.5120000243186951, 0.4800000227987766, 0.7520000357180834, 0.0, 0.0, 0.0, 0.0, 0.0, 1.6360750642065828E9, 0.0, 2021-11-04 20:17:44.206
100.0, 875.6676554251462, 584.6828694227152, 425.7371213058941, 1087.9294173102826, 0.5120000243186951, 0.4800000227987766, 0.7520000357180834, 0.0, 0.0, 0.0, 0.0, 0.0, 1.6360750642065828E9, 0.0, 2021-11-04 20:17:44.206
6.0, 884.9388674153015, 584.3574981265701, 426.0737123019062, 1111.6703022290021, 0.5120000243186951, 0.4800000227987766, 0.7520000357180834, 0.0, 0.0, 0.0, 0.0, 0.0, 1.6360750642072582E9, 0.0, 2021-11-04 20:17:44.207
6.0, 882.122722748667, 577.4274635086767, 447.2976445504464, 1137.4868316231295, 0.5120000243186951, 0.4800000227987766, 0.7520000357180834, 0.0, 0.0, 0.0, 0.0, 0.0, 1.6360750642072582E9, 0.0, 2021-11-04 20:17:44.207
19.0, 861.2204218963161, 573.1826770589687, 426.4851012970321, 1132.1425145864487, 0.5120000243186951, 0.4800000227987766, 0.7520000357180834, 0.0, 0.0, 0.0, 0.0, 0.0, 1.636075064220136E9, 0.0, 2021-11-04 20:17:44.220
19.0, 878.4950197916478, 567.3110341285355, 430.91314284456894, 1115.301745085977, 0.5120000243186951, 0.4800000227987766, 0.7520000357180834, 0.0, 0.0, 0.0, 0.0, 0.0, 1.636075064220136E9, 0.0, 2021-11-04 20:17:44.220
28.0, 877.3169513056055, 566.6453319364227, 422.6704033422284, 1119.1538420403376, 0.5120000243186951, 0.4800000227987766, 0.7520000357180834, 0.0, 0.0, 0.0, 0.0, 0.0, 1.636075064295205E9, 0.0, 2021-11-04 20:17:44.295
28.0, 883.6112029310316, 584.9633619193919, 421.9523425507359, 1117.5157658597454, 0.5120000243186951, 0.4800000227987766, 0.7520000357180834, 0.0, 0.0, 0.0, 0.0, 0.0, 1.636075064295205E9, 0.0, 2021-11-04 20:17:44.295
29.0, 893.7986904103309, 570.3291333927773, 405.8782525411807, 1139.4764583995566, 0.5120000243186951, 0.4800000227987766, 0.7520000357180834, 0.0, 0.0, 0.0, 0.0, 0.0, 1.6360750644001348E9, 0.0, 2021-11-04 20:17:44.400
29.0, 882.7697254410014, 570.018721696455, 400.2048243083991, 1119.789625032805, 0.5120000243186951, 0.4800000227987766, 0.7520000357180834, 0.0, 0.0, 0.0, 0.0, 0.0, 1.6360750644001348E9, 0.0, 2021-11-04 20:17:44.400
30.0, 900.1640001349151, 586.4181830021553, 411.7424156717025, 1138.6835996089503, 0.5120000243186951, 0.4800000227987766, 0.7520000357180834, 0.0, 0.0, 0.0, 0.0, 0.0, 1.6360750645681632E9, 0.0, 2021-11-04 20:17:44.568
30.0, 888.3421763749793, 598.2437466620468, 394.21724447933957, 1126.1586746573448, 0.5120000243186951, 0.4800000227987766, 0.7520000357180834, 0.0, 0.0, 0.0, 0.0, 0.0, 1.6360750645681632E9, 0.0, 2021-11-04 20:17:44.568
31.0, 892.5720032248646, 573.6277251536958, 364.65333532961085, 1122.609509599395, 0.5120000243186951, 0.49600002355873585, 0.7520000357180834, 0.0, 0.0, 0.0, 0.0, 0.0, 1.6360750645688677E9, 0.0, 2021-11-04 20:17:44.568
31.0, 912.7525033857673, 584.1443238290958, 382.2757439208217, 1122.575850499794, 0.5120000243186951, 0.49600002355873585, 0.7520000357180834, 0.0, 0.0, 0.0, 0.0, 0.0, 1.6360750645688677E9, 0.0, 2021-11-04 20:17:44.568
36.0, 906.7686634566635, 573.7586216521449, 368.7896646806039, 1110.7689863396809, 0.5120000243186951, 0.49600002355873585, 0.7520000357180834, 0.0, 0.0, 0.0, 0.0, 0.0, 1.636075064569566E9, 0.0, 2021-11-04 20:17:44.569
