%OpenBCI Raw EEG Data
%Number of channels = 4
%Sample Rate = 200 Hz
%Board = OpenBCI_GUI$BoardGanglionBLE
Sample Index, EXG Channel 0, EXG Channel 1, EXG Channel 2, EXG Channel 3, Accel Channel 0, Accel Channel 1, Accel Channel 2, Other, Other, Other, Other, Other, Timestamp, Other, Timestamp (Formatted)
2.0, -5.161061938852072, -7.550858010537922, -7.154428615234792, -6.911335118114948, -0.288000013679266, 0.0, 0.0, 0.0, 0.0, 0.0, 0.0, 0.0, 1.6480858263441503E9, 0.0, 2022-03-23 20:37:06.344
2.0, -7.816390907391906, -12.349149653688073, -5.867903030477464, -11.836783359758556, -0.288000013679266, 0.0, 0.0, 0.0, 0.0, 0.0, 0.0, 0.0, 1.6480858263441503E9, 0.0, 2022-03-23 20:37:06.344
3.0, -4.701054244302213, -13.542177739553154, -6.84401691891253, -15.008218522183597, -0.288000013679266, 0.0, 0.0, 0.0, 0.0, 0.0, 0.0, 0.0, 1.648085826358679E9, 0.0, 2022-03-23 20:37:06.358
3.0, -3.0480184638872743, -15.973112710751593, -7.292804913595319, -14.215359731577337, -0.288000013679266, 0.0, 0.0, 0.0, 0.0, 0.0, 0.0, 0.0, 1.648085826358679E9, 0.0, 2022-03-23 20:37:06.358
4.0, -1.854990378022194, -10.957906870171428, -5.8978222301229835, -18.703239678405225, -0.288000013679266, 0.0, 0.0, 0.0, 0.0, 0.0, 0.0, 0.0, 1.6480858263594084E9, 0.0, 2022-03-23 20:37:06.359
4.0, 0.7816390907391906, -0.12715659849345684, 5.938961129635572, -8.87852249480784, -0.288000013679266, 0.0, 0.0, 0.0, 0.0, 0.0, 0.0, 0.0, 1.6480858263594084E9, 0.0, 2022-03-23 20:37:06.359
5.0, 6.84775681886822, -1.974667176604271, -0.6170834926888347, -5.030165440402925, -0.288000013679266, 0.0, 0.0, 0.0, 0.0, 0.0, 0.0, 0.0, 1.6480858263729706E9, 0.0, 2022-03-23 20:37:06.372
5.0, 14.241539031267166, 6.85897651873529, 4.81325124297291, -4.573897645808756, -0.288000013679266, 0.0, 0.0, 0.0, 0.0, 0.0, 0.0, 0.0, 1.6480858263729706E9, 0.0, 2022-03-23 20:37:06.372
6.0, 2.098083875142038, -1.2416467852890491, -2.3224778724834323, -10.565217374823987, -0.288000013679266, 0.0, 0.0, 0.0, 0.0, 0.0, 0.0, 0.0, 1.6480858263886428E9, 0.0, 2022-03-23 20:37:06.388
6.0, 12.135975356213748, 2.2663793731480837, 9.761138884350657, -3.6127433571964502, -0.288000013679266, 0.0, 0.0, 0.0, 0.0, 0.0, 0.0, 0.0, 1.6480858263886428E9, 0.0, 2022-03-23 20:37:06.388
7.0, 16.95296649914235, -0.9461946887895465, 9.877075782977045, -0.09349749889224768, -0.288000013679266, 0.0, 0.0, 0.0, 0.0, 0.0, 0.0, 0.0, 1.6480858263894963E9, 0.0, 2022-03-23 20:37:06.389
7.0, -0.7778991907835007, 9.570403986610472, 11.376775665208697, 3.3172912606969476, -0.288000013679266, 0.0, 0.0, 0.0, 0.0, 0.0, 0.0, 0.0, 1.6480858263894963E9, 0.0, 2022-03-23 20:37:06.389
8.0, 10.8943285709247, 5.7332666320726275, 17.820623288862407, 0.923755289055407, -0.288000013679266, 0.0, 0.0, 0.0, 0.0, 0.0, 0.0, 0.0, 1.6480858264029608E9, 0.0, 2022-03-23 20:37:06.402
8.0, 19.600815667770803, 9.046817992813885, 20.633028055541217, 1.9410080770030618, -0.288000013679266, 0.0, 0.0, 0.0, 0.0, 0.0, 0.0, 0.0, 1.6480858264029608E9, 0.0, 2022-03-23 20:37:06.402
9.0, 12.48004615213722, 10.344563277438283, 20.16928046103567, -5.3330973368138075, -0.288000013679266, 0.0, 0.0, 0.0, 0.0, 0.0, 0.0, 0.0, 1.6480858264187207E9, 0.0, 2022-03-23 20:37:06.418
9.0, -3.8520969543606043, 2.9620007649064064, 13.830150036141276, -17.34565599448979, -0.288000013679266, 0.0, 0.0, 0.0, 0.0, 0.0, 0.0, 0.0, 1.6480858264187207E9, 0.0, 2022-03-23 20:37:06.418
10.0, 15.909534411504865, 5.905302030034363, 23.32201612368226, 3.62770295701921, -0.288000013679266, 0.0, 0.9760000463575125, 0.0, 0.0, 0.0, 0.0, 0.0, 1.6480858264193928E9, 0.0, 2022-03-23 20:37:06.419
10.0, 5.912781829945743, 4.472920347005129, 18.96503267530352, -3.137776062823832, -0.288000013679266, 0.0, 0.9760000463575125, 0.0, 0.0, 0.0, 0.0, 0.0, 1.6480858264193928E9, 0.0, 2022-03-23 20:37:06.419
11.0, 10.120169280096889, 13.781531336717308, 22.98542512767017, 1.3014851845800877, -0.288000013679266, 0.0, 0.9760000463575125, 0.0, 0.0, 0.0, 0.0, 0.0, 1.648085826432958E9, 0.0, 2022-03-23 20:37:06.432
11.0, 15.127895320765674, 11.346856465563178, 20.999538251198828, -4.81325124297291, -0.288000013679266, 0.0, 0.9760000463575125, 0.0, 0.0, 0.0, 0.0, 0.0, 1.648085826432958E9, 0.0, 2022-03-23 20:37:06.432
12.0, 12.782978048548102, 6.140915727242827, 9.768618684262037, -11.070103868842125, -0.288000013679266, 0.0, 0.9760000463575125, 0.0, 0.0, 0.0, 0.0, 0.0, 1.6480858264486125E9, 0.0, 2022-03-23 20:37:06.448
12.0, 5.359276636503637, 8.07444400433451, 15.008218522183597, -10.02667178120464, -0.288000013679266, 0.0, 0.9760000463575125, 0.0, 0.0, 0.0, 0.0, 0.0, 1.6480858264486125E9, 0.0, 2022-03-23 20:37:06.448
13.0, -3.0293189641088247, -0.7517198910936713, 13.474859540350735, -19.178206972777843, -0.288000013679266, 0.0, 0.9760000463575125, 0.0, 0.0, 0.0, 0.0, 0.0, 1.6480858264493437E9, 0.0, 2022-03-23 20:37:06.449
13.0, 7.715413608588278, 4.861869942396879, 15.599122715182602, -10.408141576685011, -0.288000013679266, 0.0, 0.9760000463575125, 0.0, 0.0, 0.0, 0.0, 0.0, 1.6480858264493437E9, 0.0, 2022-03-23 20:37:06.449
14.0, -7.764032308012247, 1.4398614829406142, 14.574390127323568, -17.6747671905905, -0.288000013679266, 0.0, 0.9760000463575125, 0.0, 0.0, 0.0, 0.0, 0.0, 1.6480858264630032E9, 0.0, 2022-03-23 20:37:06.463
14.0, -1.5483185816556215, 3.3696498600766063, 13.26916504278779, -27.41346667520702, -0.288000013679266, 0.0, 0.9760000463575125, 0.0, 0.0, 0.0, 0.0, 0.0, 1.6480858264630032E9, 0.0, 2022-03-23 20:37:06.463
15.0, 18.377868382260203, 5.24333973787725, 15.632781814783812, -10.729772972874343, -0.288000013679266, 0.0, 0.9760000463575125, 0.0, 0.0, 0.0, 0.0, 0.0, 1.6480858264786353E9, 0.0, 2022-03-23 20:37:06.478
15.0, 20.54327045660466, 9.398368588648736, 26.848741781897843, -1.2341669853776693, -0.288000013679266, 0.0, 0.9760000463575125, 0.0, 0.0, 0.0, 0.0, 0.0, 1.6480858264786353E9, 0.0, 2022-03-23 20:37:06.478
16.0, 2.131742974743247, 4.3682031482458115, 21.063116550445557, -24.1971527133137, -0.288000013679266, 0.0, 0.9760000463575125, 0.0, 0.0, 0.0, 0.0, 0.0, 1.648085826479367E9, 0.0, 2022-03-23 20:37:06.479
16.0, 5.037645240314305, -1.7240938795730472, 11.186040767468512, -25.502377797849476, -0.288000013679266, 0.0, 0.9760000463575125, 0.0, 0.0, 0.0, 0.0, 0.0, 1.648085826479367E9, 0.0, 2022-03-23 20:37:06.479
17.0, 13.25046554300934, 12.779238148592412, 21.216452448628843, -14.533251227810979, -0.288000013679266, 0.0, 0.9760000463575125, 0.0, 0.0, 0.0, 0.0, 0.0, 1.6480858264929047E9, 0.0, 2022-03-23 20:37:06.492
17.0, 11.058884168975055, 11.066363968886435, 24.18593301344663, -18.57234317995608, -0.288000013679266, 0.0, 0.9760000463575125, 0.0, 0.0, 0.0, 0.0, 0.0, 1.6480858264929047E9, 0.0, 2022-03-23 20:37:06.492
18.0, 16.728572501800954, 18.97999227512628, 31.949965321458876, -16.736052301712334, -0.288000013679266, 0.0, 0.9760000463575125, 0.0, 0.0, 0.0, 0.0, 0.0, 1.6480858265086148E9, 0.0, 2022-03-23 20:37:06.508
18.0, 19.38764137029648, 12.308010754175484, 26.721585183404386, -15.015698322094977, -0.288000013679266, 0.0, 0.9760000463575125, 0.0, 0.0, 0.0, 0.0, 0.0, 1.6480858265086148E9, 0.0, 2022-03-23 20:37:06.508
19.0, 13.074690245091915, 7.3040246134623885, 19.395121170207858, -24.55618310905993, -0.288000013679266, 0.0, 0.9760000463575125, 0.0, 0.0, 0.0, 0.0, 0.0, 1.6480858265094433E9, 0.0, 2022-03-23 20:37:06.509
19.0, 10.150088479742408, 15.887095011770725, 30.371727540157735, -20.51709115691483, -0.288000013679266, 0.0, 0.9760000463575125, 0.0, 0.0, 0.0, 0.0, 0.0, 1.6480858265094433E9, 0.0, 2022-03-23 20:37:06.509
20.0, 14.05828393343836, 15.146594820544124, 29.02162365615368, -16.50791840441525, -0.288000013679266, 0.0, 0.9760000463575125, 0.0, 0.0, 0.0, 0.0, 0.0, 1.648085826523004E9, 0.0, 2022-03-23 20:37:06.523
20.0, 17.65606769081205, 14.08820313308388, 33.92463249806315, -19.469919169321656, -0.288000013679266, 0.0, 0.9760000463575125, 0.0, 0.0, 0.0, 0.0, 0.0, 1.648085826523004E9, 0.0, 2022-03-23 20:37:06.523
21.0, 14.581869927234948, 21.39970754645765, 38.001123449765146, -13.052250845357776, -0.288000013679266, 0.0, 0.9760000463575125, 0.0, 0.0, 0.0, 0.0, 0.0, 1.6480858265387168E9, 0.0, 2022-03-23 20:37:06.538
21.0, 34.67635238915682, 31.246864129789174, 48.19609072897583, 6.84401691891253, -0.288000013679266, 0.0, 0.9760000463575125, 0.0, 0.0, 0.0, 0.0, 0.0, 1.6480858265387168E9, 0.0, 2022-03-23 20:37:06.538
22.0, 38.74536354094744, 34.94936508592218, 49.62473251204938, 6.6607618210837245, -0.288000013679266, 0.0, 0.9760000463575125, 0.0, 0.0, 0.0, 0.0, 0.0, 1.6480858265394087E9, 0.0, 2022-03-23 20:37:06.539
22.0, 25.248064600862563, 32.391273516230285, 48.932851020246744, -1.6829549800604582, -0.288000013679266, 0.0, 0.9760000463575125, 0.0, 0.0, 0.0, 0.0, 0.0, 1.6480858265394087E9, 0.0, 2022-03-23 20:37:06.539
23.0, 31.00377063266933, 31.893866822123528, 50.69434389937669, -6.283031925559044, -0.288000013679266, 0.0, 0.9760000463575125, 0.0, 0.0, 0.0, 0.0, 0.0, 1.648085826553053E9, 0.0, 2022-03-23 20:37:06.553
23.0, 41.613866806961596, 28.292343164794147, 48.79447472188622, -5.288218537345529, -0.288000013679266, 0.0, 0.9760000463575125, 0.0, 0.0, 0.0, 0.0, 0.0, 1.648085826553053E9, 0.0, 2022-03-23 20:37:06.553
24.0, 29.990257744677365, 31.160846430808306, 48.910411620512605, -8.624209297820926, -0.288000013679266, 0.0, 0.9760000463575125, 0.0, 0.0, 0.0, 0.0, 0.0, 1.6480858265686882E9, 0.0, 2022-03-23 20:37:06.568
24.0, 34.414559392258525, 35.78336277604103, 52.71014997549355, -7.180607914924622, -0.288000013679266, 0.0, 0.9760000463575125, 0.0, 0.0, 0.0, 0.0, 0.0, 1.6480858265686882E9, 0.0, 2022-03-23 20:37:06.568
25.0, 39.77009612880647, 32.05842242017388, 48.18113112915307, -6.4176683239638805, -0.288000013679266, 0.0, 0.9760000463575125, 0.0, 0.0, 0.0, 0.0, 0.0, 1.6480858265694733E9, 0.0, 2022-03-23 20:37:06.569
25.0, 24.09243551455438, 23.35941512323916, 43.300561686977744, -15.28123121894896, -0.288000013679266, 0.0, 0.9760000463575125, 0.0, 0.0, 0.0, 0.0, 0.0, 1.6480858265694733E9, 0.0, 2022-03-23 20:37:06.569
26.0, 26.58320888504386, 26.15312039013952, 41.84200070425868, -25.487418198026717, -0.288000013679266, 0.0, 0.9760000463575125, 0.0, 0.0, 0.0, 0.0, 0.0, 1.6480858265829382E9, 0.0, 2022-03-23 20:37:06.582
26.0, 32.21549821831286, 31.280523229390383, 44.71798377018422, -18.06745668593794, -0.288000013679266, 0.0, 0.9760000463575125, 0.0, 0.0, 0.0, 0.0, 0.0, 1.6480858265829382E9, 0.0, 2022-03-23 20:37:06.582
27.0, 27.39102727547288, 27.544363173656166, 49.04130811896175, -8.986979593522847, -0.288000013679266, 0.0, 0.9760000463575125, 0.0, 0.0, 0.0, 0.0, 0.0, 1.6480858265986512E9, 0.0, 2022-03-23 20:37:06.598
27.0, 28.453158862888813, 25.139607502147555, 46.101746753789485, -18.13103498518467, -0.288000013679266, 0.0, 0.9760000463575125, 0.0, 0.0, 0.0, 0.0, 0.0, 1.6480858265986512E9, 0.0, 2022-03-23 20:37:06.598
28.0, 30.94393223337829, 32.11452091950923, 45.3537667626515, -15.29245091881603, -0.288000013679266, 0.0, 0.9760000463575125, 0.0, 0.0, 0.0, 0.0, 0.0, 1.6480858265994513E9, 0.0, 2022-03-23 20:37:06.599
28.0, 48.3943054266274, 38.62942664232105, 48.955290419980884, -0.964894188567996, -0.288000013679266, 0.0, 0.9760000463575125, 0.0, 0.0, 0.0, 0.0, 0.0, 1.6480858265994513E9, 0.0, 2022-03-23 20:37:06.599
29.0, 32.791442811489105, 33.29258940555155, 53.364632467739284, -8.799984595738351, -0.288000013679266, 0.0, 0.9760000463575125, 0.0, 0.0, 0.0, 0.0, 0.0, 1.6480858266129682E9, 0.0, 2022-03-23 20:37:06.612
29.0, 30.831735234707594, 36.6846786653623, 59.801000291481614, -15.505625216290355, -0.288000013679266, 0.0, 0.9760000463575125, 0.0, 0.0, 0.0, 0.0, 0.0, 1.6480858266129682E9, 0.0, 2022-03-23 20:37:06.612
30.0, 41.00052321422845, 32.64184681326151, 49.250742516480386, -9.454467087984085, -0.288000013679266, 0.0, 0.9760000463575125, 0.0, 0.0, 0.0, 0.0, 0.0, 1.6480858266286302E9, 0.0, 2022-03-23 20:37:06.628
30.0, 44.471150373108685, 45.38368596229702, 56.08353973552585, -3.7548595555126667, -0.288000013679266, 0.0, 0.9760000463575125, 0.0, 0.0, 0.0, 0.0, 0.0, 1.6480858266286302E9, 0.0, 2022-03-23 20:37:06.628
31.0, 34.773589788004756, 50.466210002079606, 60.586379282176495, -18.213312784209847, -0.288000013679266, 0.0, 0.9760000463575125, 0.0, 0.0, 0.0, 0.0, 0.0, 1.6480858266293788E9, 0.0, 2022-03-23 20:37:06.629
31.0, 30.786856435239315, 34.28366289380938, 45.73897645808756, -19.122108473442495, -0.288000013679266, 0.0, 0.9760000463575125, 0.0, 0.0, 0.0, 0.0, 0.0, 1.6480858266293788E9, 0.0, 2022-03-23 20:37:06.629
32.0, 26.063362791202962, 29.76212384738028, 44.16447857674211, -16.10400920920074, -0.288000013679266, 0.0, 0.9760000463575125, 0.0, 0.0, 0.0, 0.0, 0.0, 1.6480858266430933E9, 0.0, 2022-03-23 20:37:06.643
32.0, 23.576329320669174, 23.32575602363795, 45.17799146473408, -24.290650212205946, -0.288000013679266, 0.0, 0.9760000463575125, 0.0, 0.0, 0.0, 0.0, 0.0, 1.6480858266430933E9, 0.0, 2022-03-23 20:37:06.643
33.0, 24.50756440963596, 23.73714501876384, 46.442077649757266, -24.61228160839528, -0.288000013679266, 0.0, 0.9760000463575125, 0.0, 0.0, 0.0, 0.0, 0.0, 1.6480858266588213E9, 0.0, 2022-03-23 20:37:06.658
33.0, 29.616267749108374, 23.28835702408105, 44.901238868013024, -17.798183889128268, -0.288000013679266, 0.0, 0.9760000463575125, 0.0, 0.0, 0.0, 0.0, 0.0, 1.6480858266588213E9, 0.0, 2022-03-23 20:37:06.658
34.0, 26.388734087347984, 22.47679873369634, 39.53074253164232, -30.472704838961363, -0.288000013679266, 0.0, 0.9760000463575125, 0.0, 0.0, 0.0, 0.0, 0.0, 1.648085826659439E9, 0.0, 2022-03-23 20:37:06.659
34.0, 26.99833778012544, 30.25205074157566, 40.74247011728585, -24.028857215307653, -0.288000013679266, 0.0, 0.9760000463575125, 0.0, 0.0, 0.0, 0.0, 0.0, 1.648085826659439E9, 0.0, 2022-03-23 20:37:06.659
35.0, 32.776483211666346, 27.82485567033291, 43.711950682103634, -16.216206207871437, -0.288000013679266, 0.0, 0.9760000463575125, 0.0, 0.0, 0.0, 0.0, 0.0, 1.64808582667303E9, 0.0, 2022-03-23 20:37:06.673
35.0, 22.48801843356341, 25.446279298514128, 47.90063863247633, -18.4900653809309, -0.288000013679266, 0.0, 0.9760000463575125, 0.0, 0.0, 0.0, 0.0, 0.0, 1.64808582667303E9, 0.0, 2022-03-23 20:37:06.673
36.0, 27.3835474755615, 28.860807958059013, 54.34822615608573, -18.366648682393134, -0.288000013679266, 0.0, 0.9760000463575125, 0.0, 0.0, 0.0, 0.0, 0.0, 1.6480858266886115E9, 0.0, 2022-03-23 20:37:06.688
36.0, 32.18931891862303, 34.63895338959992, 51.77891488652676, -17.095082697458565, -0.288000013679266, 0.0, 0.9760000463575125, 0.0, 0.0, 0.0, 0.0, 0.0, 1.6480858266886115E9, 0.0, 2022-03-23 20:37:06.688
37.0, 41.47923040855676, 33.995690597221255, 52.59421307686716, -6.155875327065587, -0.288000013679266, 0.0, 0.9760000463575125, 0.0, 0.0, 0.0, 0.0, 0.0, 1.6480858266893256E9, 0.0, 2022-03-23 20:37:06.689
37.0, 34.34350129310042, 34.425779092125595, 56.04240083601326, -10.905548270791769, -0.288000013679266, 0.0, 0.9760000463575125, 0.0, 0.0, 0.0, 0.0, 0.0, 1.6480858266893256E9, 0.0, 2022-03-23 20:37:06.689
38.0, 28.10534816700965, 38.27413614653051, 49.05252781882882, -18.5274643804878, -0.288000013679266, 0.0, 0.9760000463575125, 0.0, 0.0, 0.0, 0.0, 0.0, 1.648085826703013E9, 0.0, 2022-03-23 20:37:06.703
38.0, 28.363401263952255, 26.21295878943056, 40.14034622441977, -21.73255864251405, -0.288000013679266, 0.0, 0.9760000463575125, 0.0, 0.0, 0.0, 0.0, 0.0, 1.648085826703013E9, 0.0, 2022-03-23 20:37:06.703
39.0, 15.528064616024494, 24.48886490985751, 38.96227773837745, -26.09328199084848, -0.288000013679266, 0.0, 0.9760000463575125, 0.0, 0.0, 0.0, 0.0, 0.0, 1.6480858267185893E9, 0.0, 2022-03-23 20:37:06.718
39.0, 26.317675988189876, 24.91521350480616, 42.088834101334214, -24.862854905426502, -0.288000013679266, 0.0, 0.9760000463575125, 0.0, 0.0, 0.0, 0.0, 0.0, 1.6480858267185893E9, 0.0, 2022-03-23 20:37:06.718
40.0, 30.091235043480992, 28.789749858900905, 51.21418999321759, -18.254451683722436, -0.288000013679266, 0.0, 0.9600000455975533, 0.0, 0.0, 0.0, 0.0, 0.0, 1.6480858267193644E9, 0.0, 2022-03-23 20:37:06.719
40.0, 34.784809487871826, 33.90967289824039, 52.61291257664561, -18.703239678405225, -0.288000013679266, 0.0, 0.9600000455975533, 0.0, 0.0, 0.0, 0.0, 0.0, 1.6480858267193644E9, 0.0, 2022-03-23 20:37:06.719
41.0, 27.099315078929067, 35.7571834763512, 42.7246170938015, -26.22417848929763, -0.288000013679266, 0.0, 0.9600000455975533, 0.0, 0.0, 0.0, 0.0, 0.0, 1.648085826733006E9, 0.0, 2022-03-23 20:37:06.733
41.0, 31.40767982788384, 37.81412845198065, 50.37645240314305, -13.31404384225607, -0.288000013679266, 0.0, 0.9600000455975533, 0.0, 0.0, 0.0, 0.0, 0.0, 1.648085826733006E9, 0.0, 2022-03-23 20:37:06.733
42.0, 33.72641780041158, 34.95684488583356, 56.31915343273431, -19.25674487184733, -0.288000013679266, 0.0, 0.9600000455975533, 0.0, 0.0, 0.0, 0.0, 0.0, 1.6480858267486591E9, 0.0, 2022-03-23 20:37:06.748
42.0, 28.90942665748298, 36.23215077072382, 70.94964205939323, -16.8594690002501, -0.288000013679266, 0.0, 0.9600000455975533, 0.0, 0.0, 0.0, 0.0, 0.0, 1.6480858267486591E9, 0.0, 2022-03-23 20:37:06.748
43.0, 34.792289287783206, 37.83656785171479, 84.93686789367348, -10.251065778546035, -0.288000013679266, 0.0, 0.9600000455975533, 0.0, 0.0, 0.0, 0.0, 0.0, 1.648085826749477E9, 0.0, 2022-03-23 20:37:06.749
43.0, 51.44606379047036, 41.41939200926572, 98.5276643326506, 4.615036545321345, -0.288000013679266, 0.0, 0.9600000455975533, 0.0, 0.0, 0.0, 0.0, 0.0, 1.648085826749477E9, 0.0, 2022-03-23 20:37:06.749
44.0, 31.654513224959373, 26.9758983803913, 99.78427071776241, -1.5857175812125206, -0.288000013679266, 0.0, 0.9600000455975533, 0.0, 0.0, 0.0, 0.0, 0.0, 1.648085826762969E9, 0.0, 2022-03-23 20:37:06.762
44.0, 29.522770250216126, 25.37896109931171, 107.07333573140204, 8.568110798485577, -0.288000013679266, 0.0, 0.9600000455975533, 0.0, 0.0, 0.0, 0.0, 0.0, 1.648085826762969E9, 0.0, 2022-03-23 20:37:06.762
45.0, 33.49080410320312, 25.468718698248267, 110.48038459103554, 9.63024238590151, -0.288000013679266, 0.0, 0.9600000455975533, 0.0, 0.0, 0.0, 0.0, 0.0, 1.6480858267786882E9, 0.0, 2022-03-23 20:37:06.778
45.0, 41.91305880341679, 17.442893393337727, 116.14259312395006, 14.170480932109058, -0.288000013679266, 0.0, 0.9600000455975533, 0.0, 0.0, 0.0, 0.0, 0.0, 1.6480858267786882E9, 0.0, 2022-03-23 20:37:06.778
46.0, 47.47055013757199, 23.135021125897765, 128.49548267759383, 22.719892230816185, -0.288000013679266, 0.0, 0.9600000455975533, 0.0, 0.0, 0.0, 0.0, 0.0, 1.648085826779365E9, 0.0, 2022-03-23 20:37:06.779
46.0, 50.58962670061737, 24.55992300901562, 124.14223912917078, 19.608295467682183, -0.288000013679266, 0.0, 0.9600000455975533, 0.0, 0.0, 0.0, 0.0, 0.0, 1.648085826779365E9, 0.0, 2022-03-23 20:37:06.779
47.0, 38.64438624214381, 1.7764524789527059, 95.86485556419939, -0.605863792821765, -0.288000013679266, 0.0, 0.9600000455975533, 0.0, 0.0, 0.0, 0.0, 0.0, 1.648085826792946E9, 0.0, 2022-03-23 20:37:06.792
47.0, 30.58490183763206, 7.25166601408273, 103.18757967744023, 1.8662100778892636, -0.288000013679266, 0.0, 0.9600000455975533, 0.0, 0.0, 0.0, 0.0, 0.0, 1.648085826792946E9, 0.0, 2022-03-23 20:37:06.792
48.0, 37.03622926119715, 3.702500956133008, 102.71261238306761, 8.0407849047333, -0.288000013679266, 0.0, 0.9600000455975533, 0.0, 0.0, 0.0, 0.0, 0.0, 1.6480858268086495E9, 0.0, 2022-03-23 20:37:06.808
48.0, 35.47669097967446, -7.782731807790697, 94.23425918351859, 4.82821084279567, -0.288000013679266, 0.0, 0.9600000455975533, 0.0, 0.0, 0.0, 0.0, 0.0, 1.6480858268086495E9, 0.0, 2022-03-23 20:37:06.808
49.0, 29.541469749994576, -1.8026317786425352, 89.4509271401912, 4.2073874501511455, -0.288000013679266, 0.0, 0.9600000455975533, 0.0, 0.0, 0.0, 0.0, 0.0, 1.6480858268093648E9, 0.0, 2022-03-23 20:37:06.809
49.0, 21.964432439766824, -1.9073489774018526, 88.72538654878736, -1.4174220832064748, -0.288000013679266, 0.0, 0.9600000455975533, 0.0, 0.0, 0.0, 0.0, 0.0, 1.6480858268093648E9, 0.0, 2022-03-23 20:37:06.809
50.0, 32.05842242017388, 2.3112581726163626, 88.13448235578835, 1.5969372810795903, -0.288000013679266, 0.0, 0.9760000463575125, 0.0, 0.0, 0.0, 0.0, 0.0, 1.64808582682297E9, 0.0, 2022-03-23 20:37:06.822
50.0, 18.385348182171583, -1.854990378022194, 80.65468244440854, -8.949580593965948, -0.288000013679266, 0.0, 0.9760000463575125, 0.0, 0.0, 0.0, 0.0, 0.0, 1.64808582682297E9, 0.0, 2022-03-23 20:37:06.822
51.0, 21.31368984747678, 11.215959967114031, 99.03255082666874, 0.5684647932648659, -0.288000013679266, 0.0, 0.9760000463575125, 0.0, 0.0, 0.0, 0.0, 0.0, 1.648085826838658E9, 0.0, 2022-03-23 20:37:06.838
51.0, 48.439184226095676, 25.431319698691368, 117.2757828105241, 21.597922244109213, -0.288000013679266, 0.0, 0.9760000463575125, 0.0, 0.0, 0.0, 0.0, 0.0, 1.648085826838658E9, 0.0, 2022-03-23 20:37:06.838
52.0, 58.44715650752187, 35.70108497701585, 120.55941497161984, 30.61108113732189, -0.288000013679266, 0.0, 0.9760000463575125, 0.0, 0.0, 0.0, 0.0, 0.0, 1.6480858268393316E9, 0.0, 2022-03-23 20:37:06.839
52.0, 48.55512112472206, 43.58853398356587, 131.61081934068352, 22.10280873812735, -0.288000013679266, 0.0, 0.9760000463575125, 0.0, 0.0, 0.0, 0.0, 0.0, 1.6480858268393316E9, 0.0, 2022-03-23 20:37:06.839
53.0, 48.18861092906445, 38.016083049587905, 126.9471640959382, 20.419853758066893, -0.288000013679266, 0.0, 0.9760000463575125, 0.0, 0.0, 0.0, 0.0, 0.0, 1.64808582685297E9, 0.0, 2022-03-23 20:37:06.852
53.0, 62.1047786641866, 43.315521286800504, 120.73893016949296, 25.603355096653104, -0.288000013679266, 0.0, 0.9760000463575125, 0.0, 0.0, 0.0, 0.0, 0.0, 1.64808582685297E9, 0.0, 2022-03-23 20:37:06.852
54.0, 63.28284715022892, 51.11695259436965, 130.27193515654653, 31.691912224516273, -0.288000013679266, 0.0, 0.9760000463575125, 0.0, 0.0, 0.0, 0.0, 0.0, 1.6480858268686006E9, 0.0, 2022-03-23 20:37:06.868
54.0, 64.48709493596107, 54.75587525125593, 131.21812984533608, 33.06819540821016, -0.288000013679266, 0.0, 0.9760000463575125, 0.0, 0.0, 0.0, 0.0, 0.0, 1.6480858268686006E9, 0.0, 2022-03-23 20:37:06.868
55.0, 77.95447467640042, 55.795567438937724, 131.52106174174696, 42.74331659357995, -0.288000013679266, 0.0, 0.9760000463575125, 0.0, 0.0, 0.0, 0.0, 0.0, 1.6480858268693335E9, 0.0, 2022-03-23 20:37:06.869
55.0, 64.98076173011214, 50.481169601902366, 119.3925661854446, 37.32046165782958, -0.288000013679266, 0.0, 0.9760000463575125, 0.0, 0.0, 0.0, 0.0, 0.0, 1.6480858268693335E9, 0.0, 2022-03-23 20:37:06.869
56.0, 56.805340426974, 51.89859168510884, 124.29931492730975, 35.671165777370334, -0.288000013679266, 0.0, 0.9760000463575125, 0.0, 0.0, 0.0, 0.0, 0.0, 1.6480858268829892E9, 0.0, 2022-03-23 20:37:06.882
56.0, 62.44510956015438, 47.05542124249041, 118.19205829966813, 26.471011886373162, -0.288000013679266, 0.0, 0.9760000463575125, 0.0, 0.0, 0.0, 0.0, 0.0, 1.6480858268829892E9, 0.0, 2022-03-23 20:37:06.882
57.0, 71.52184675261378, 47.302254639565945, 128.5029624775052, 34.14902649540454, -0.288000013679266, 0.0, 0.9760000463575125, 0.0, 0.0, 0.0, 0.0, 0.0, 1.648085826898593E9, 0.0, 2022-03-23 20:37:06.898
57.0, 56.71558282803744, 39.76635622885078, 120.1667254762724, 28.21380526572466, -0.288000013679266, 0.0, 0.9760000463575125, 0.0, 0.0, 0.0, 0.0, 0.0, 1.648085826898593E9, 0.0, 2022-03-23 20:37:06.898
58.0, 57.714136116206646, 35.45425157994032, 114.72517104074359, 32.61940741352737, -0.288000013679266, 0.0, 0.9760000463575125, 0.0, 0.0, 0.0, 0.0, 0.0, 1.648085826899393E9, 0.0, 2022-03-23 20:37:06.899
58.0, 75.52353970520198, 50.59710650052875, 124.9500575195998, 42.507702896371484, -0.288000013679266, 0.0, 0.9760000463575125, 0.0, 0.0, 0.0, 0.0, 0.0, 1.648085826899393E9, 0.0, 2022-03-23 20:37:06.899
59.0, 63.30528654996306, 57.11201222334057, 122.16009215265512, 39.48586373217404, -0.288000013679266, 0.0, 0.9760000463575125, 0.0, 0.0, 0.0, 0.0, 0.0, 1.648085826912924E9, 0.0, 2022-03-23 20:37:06.912
59.0, 50.8028009980917, 46.15036545321345, 113.6443399535492, 26.811342782340944, -0.288000013679266, 0.0, 0.9760000463575125, 0.0, 0.0, 0.0, 0.0, 0.0, 1.648085826912924E9, 0.0, 2022-03-23 20:37:06.912
60.0, 64.01212764158845, 51.53582138940692, 122.1301729530096, 35.49165057949722, -0.288000013679266, 0.0, 0.9760000463575125, 0.0, 0.0, 0.0, 0.0, 0.0, 1.6480858269285944E9, 0.0, 2022-03-23 20:37:06.928
60.0, 59.2886339975521, 52.137945282272995, 121.37471316196024, 27.245171177200973, -0.288000013679266, 0.0, 0.9760000463575125, 0.0, 0.0, 0.0, 0.0, 0.0, 1.6480858269285944E9, 0.0, 2022-03-23 20:37:06.928
61.0, 47.51916883699596, 45.43978446163237, 118.62962659448385, 21.149134249426425, -0.288000013679266, 0.0, 0.9760000463575125, 0.0, 0.0, 0.0, 0.0, 0.0, 1.6480858269293795E9, 0.0, 2022-03-23 20:37:06.929
61.0, 54.912951049394906, 43.719430482015014, 117.4253788087517, 18.804216977208853, -0.288000013679266, 0.0, 0.9760000463575125, 0.0, 0.0, 0.0, 0.0, 0.0, 1.6480858269293795E9, 0.0, 2022-03-23 20:37:06.929
62.0, 56.08353973552585, 48.55512112472206, 113.99215064942837, 23.164940325543284, -0.288000013679266, 0.0, 0.9760000463575125, 0.0, 0.0, 0.0, 0.0, 0.0, 1.648085826942927E9, 0.0, 2022-03-23 20:37:06.942
62.0, 52.04818768333644, 44.119599777273834, 109.17515950649977, 16.47799920476973, -0.288000013679266, 0.0, 0.9760000463575125, 0.0, 0.0, 0.0, 0.0, 0.0, 1.648085826942927E9, 0.0, 2022-03-23 20:37:06.942
63.0, 56.143378134816885, 49.93514420837164, 118.33417449798435, 21.69141974300146, -0.288000013679266, 0.0, 0.9760000463575125, 0.0, 0.0, 0.0, 0.0, 0.0, 1.6480858269585872E9, 0.0, 2022-03-23 20:37:06.958
63.0, 61.22964207455516, 45.73897645808756, 105.83168894611299, 15.658961114473641, -0.288000013679266, 0.0, 0.9760000463575125, 0.0, 0.0, 0.0, 0.0, 0.0, 1.6480858269585872E9, 0.0, 2022-03-23 20:37:06.958
64.0, 51.09451319463551, 39.45594453252852, 104.43296636268497, 16.03295111004263, -0.288000013679266, 0.0, 0.9760000463575125, 0.0, 0.0, 0.0, 0.0, 0.0, 1.648085826959376E9, 0.0, 2022-03-23 20:37:06.959
64.0, 53.05422077141702, 50.963616696186364, 114.76630994025618, 19.810250065289438, -0.288000013679266, 0.0, 0.9760000463575125, 0.0, 0.0, 0.0, 0.0, 0.0, 1.648085826959376E9, 0.0, 2022-03-23 20:37:06.959
65.0, 69.57709877565503, 52.3212003801018, 112.80286246351898, 25.468718698248267, -0.288000013679266, 0.0, 0.9760000463575125, 0.0, 0.0, 0.0, 0.0, 0.0, 1.64808582697304E9, 0.0, 2022-03-23 20:37:06.973
65.0, 57.385024920105934, 50.63076560012996, 102.43585978634655, 9.607802986167371, -0.288000013679266, 0.0, 0.9760000463575125, 0.0, 0.0, 0.0, 0.0, 0.0, 1.64808582697304E9, 0.0, 2022-03-23 20:37:06.973
66.0, 45.35750666260719, 49.665871411561966, 106.33657544013113, 6.155875327065587, -0.288000013679266, 0.0, 0.9760000463575125, 0.0, 0.0, 0.0, 0.0, 0.0, 1.6480858269886105E9, 0.0, 2022-03-23 20:37:06.988
66.0, 45.90353205613792, 45.77637545764446, 98.98767202720046, 5.9352212296798825, -0.288000013679266, 0.0, 0.9760000463575125, 0.0, 0.0, 0.0, 0.0, 0.0, 1.6480858269886105E9, 0.0, 2022-03-23 20:37:06.988
67.0, 41.89435930363834, 41.651265806518495, 90.15028843190521, -1.5819776812568307, -0.288000013679266, 0.0, 0.9760000463575125, 0.0, 0.0, 0.0, 0.0, 0.0, 1.6480858269893792E9, 0.0, 2022-03-23 20:37:06.989
67.0, 49.45269711408764, 46.22142355237156, 98.63238153140992, 4.252266249619424, -0.288000013679266, 0.0, 0.9760000463575125, 0.0, 0.0, 0.0, 0.0, 0.0, 1.6480858269893792E9, 0.0, 2022-03-23 20:37:06.989
68.0, 36.037675973027945, 38.28909574635327, 94.0809232853353, -3.4743670588359237, -0.288000013679266, 0.0, 0.9760000463575125, 0.0, 0.0, 0.0, 0.0, 0.0, 1.648085827002972E9, 0.0, 2022-03-23 20:37:07.002
68.0, 52.19778368156403, 41.32963441032916, 97.25983824767172, 7.494759511202574, -0.288000013679266, 0.0, 0.9760000463575125, 0.0, 0.0, 0.0, 0.0, 0.0, 1.648085827002972E9, 0.0, 2022-03-23 20:37:07.002
69.0, 45.40986526198685, 47.82584063336253, 102.26008448842913, 2.0232858760282397, -0.288000013679266, 0.0, 0.9760000463575125, 0.0, 0.0, 0.0, 0.0, 0.0, 1.64808582701858E9, 0.0, 2022-03-23 20:37:07.018
69.0, 40.70507111772895, 42.032735601998866, 89.56686403881758, -12.88769524730742, -0.288000013679266, 0.0, 0.9760000463575125, 0.0, 0.0, 0.0, 0.0, 0.0, 1.64808582701858E9, 0.0, 2022-03-23 20:37:07.018
70.0, 48.01283563114703, 38.382593245245516, 93.10480939690024, 4.712273944169283, -0.288000013679266, 0.0, 0.9760000463575125, 0.0, 0.0, 0.0, 0.0, 0.0, 1.6480858270193503E9, 0.0, 2022-03-23 20:37:07.019
70.0, 46.041908354498446, 41.53532890789211, 92.3792688054964, 6.010019228793681, -0.288000013679266, 0.0, 0.9760000463575125, 0.0, 0.0, 0.0, 0.0, 0.0, 1.6480858270193503E9, 0.0, 2022-03-23 20:37:07.019
71.0, 36.004016873426735, 37.585994554683566, 85.99525958113372, -7.300284713506699, -0.288000013679266, 0.0, 0.9760000463575125, 0.0, 0.0, 0.0, 0.0, 0.0, 1.648085827033E9, 0.0, 2022-03-23 20:37:07.033
71.0, 35.71230467688292, 35.34579448122531, 83.31749121285975, -8.03330510482192, -0.288000013679266, 0.0, 0.9760000463575125, 0.0, 0.0, 0.0, 0.0, 0.0, 1.648085827033E9, 0.0, 2022-03-23 20:37:07.033
72.0, 50.133358906023204, 39.13805303629488, 88.65432844962925, 0.8751365896314383, -0.288000013679266, 0.0, 0.9760000463575125, 0.0, 0.0, 0.0, 0.0, 0.0, 1.64808582704863E9, 0.0, 2022-03-23 20:37:07.048
72.0, 40.20018462371081, 38.70796454139054, 89.2265331428498, -6.787918419577181, -0.288000013679266, 0.0, 0.9760000463575125, 0.0, 0.0, 0.0, 0.0, 0.0, 1.64808582704863E9, 0.0, 2022-03-23 20:37:07.048
73.0, 33.625440501607955, 31.04490953218192, 83.4820468109101, -12.023778357543051, -0.288000013679266, 0.0, 0.9760000463575125, 0.0, 0.0, 0.0, 0.0, 0.0, 1.648085827049374E9, 0.0, 2022-03-23 20:37:07.049
73.0, 54.26968825701624, 43.98870327882469, 89.34994984138757, -0.34781069587916136, -0.288000013679266, 0.0, 0.9760000463575125, 0.0, 0.0, 0.0, 0.0, 0.0, 1.648085827049374E9, 0.0, 2022-03-23 20:37:07.049
74.0, 40.402139221318066, 36.007756773382425, 81.74673323146999, -16.16010770853609, -0.288000013679266, 0.0, 0.9760000463575125, 0.0, 0.0, 0.0, 0.0, 0.0, 1.6480858270630531E9, 0.0, 2022-03-23 20:37:07.063
74.0, 40.56669481936842, 38.18437854759395, 81.6307963328436, -16.1189688090235, -0.288000013679266, 0.0, 0.9760000463575125, 0.0, 0.0, 0.0, 0.0, 0.0, 1.6480858270630531E9, 0.0, 2022-03-23 20:37:07.063
75.0, 52.71762977540493, 42.9452711911872, 87.92504795826972, -11.589949962683022, -0.288000013679266, 0.0, 0.9760000463575125, 0.0, 0.0, 0.0, 0.0, 0.0, 1.6480858270786388E9, 0.0, 2022-03-23 20:37:07.078
75.0, 42.417945297434926, 29.533989950083196, 68.94131578318775, -12.49126585200429, -0.288000013679266, 0.0, 0.9760000463575125, 0.0, 0.0, 0.0, 0.0, 0.0, 1.6480858270786388E9, 0.0, 2022-03-23 20:37:07.078
76.0, 36.70711806509644, 25.221885301172733, 79.42799525894225, -14.854882624000311, -0.288000013679266, 0.0, 0.9760000463575125, 0.0, 0.0, 0.0, 0.0, 0.0, 1.6480858270794132E9, 0.0, 2022-03-23 20:37:07.079
76.0, 32.51469021476805, 22.96298572793603, 65.34353202581406, -13.523478239774704, -0.288000013679266, 0.0, 0.9760000463575125, 0.0, 0.0, 0.0, 0.0, 0.0, 1.6480858270794132E9, 0.0, 2022-03-23 20:37:07.079
77.0, 36.13865327183157, 25.509857597760856, 58.67155050486326, -16.003031910397112, -0.288000013679266, 0.0, 0.9760000463575125, 0.0, 0.0, 0.0, 0.0, 0.0, 1.6480858270929663E9, 0.0, 2022-03-23 20:37:07.092
77.0, 35.35701418109238, 22.16264713741839, 60.90427077841014, -21.448326245881617, -0.288000013679266, 0.0, 0.9760000463575125, 0.0, 0.0, 0.0, 0.0, 0.0, 1.6480858270929663E9, 0.0, 2022-03-23 20:37:07.092
78.0, 26.235398189164698, 18.714459378272295, 59.60278559383005, -22.48427853360772, -0.288000013679266, 0.0, 0.9760000463575125, 0.0, 0.0, 0.0, 0.0, 0.0, 1.6480858271086884E9, 0.0, 2022-03-23 20:37:07.108
78.0, 40.33856092207134, 24.694559407420456, 61.17354357521981, -15.030657921917737, -0.288000013679266, 0.0, 0.9760000463575125, 0.0, 0.0, 0.0, 0.0, 0.0, 1.6480858271086884E9, 0.0, 2022-03-23 20:37:07.108
79.0, 13.153228144161403, 15.68888031411916, 51.95469018444419, -31.243124229833484, -0.288000013679266, 0.0, 0.9760000463575125, 0.0, 0.0, 0.0, 0.0, 0.0, 1.6480858271094184E9, 0.0, 2022-03-23 20:37:07.109
79.0, 21.642801043577492, 19.084709473885596, 47.84454013314098, -36.415405868552625, -0.288000013679266, 0.0, 0.9760000463575125, 0.0, 0.0, 0.0, 0.0, 0.0, 1.6480858271094184E9, 0.0, 2022-03-23 20:37:07.109
80.0, 39.680338529869914, 24.96757210418582, 53.17015767004341, -31.643293525092304, -0.288000013679266, 0.0, 0.9760000463575125, 0.0, 0.0, 0.0, 0.0, 0.0, 1.6480858271229613E9, 0.0, 2022-03-23 20:37:07.122
80.0, 32.60444781370461, 24.219592113047838, 54.879291949793696, -30.050096143968403, -0.288000013679266, 0.0, 0.9760000463575125, 0.0, 0.0, 0.0, 0.0, 0.0, 1.6480858271229613E9, 0.0, 2022-03-23 20:37:07.122
81.0, 34.73619078844786, 27.3461484760046, 59.66636389307678, -34.88952668663114, -0.288000013679266, 0.01600000075995922, 0.9760000463575125, 0.0, 0.0, 0.0, 0.0, 0.0, 1.6480858271386533E9, 0.0, 2022-03-23 20:37:07.138
81.0, 44.33651397470385, 26.336375487968326, 56.05736043583602, -21.440846445970237, -0.288000013679266, 0.01600000075995922, 0.9760000463575125, 0.0, 0.0, 0.0, 0.0, 0.0, 1.6480858271386533E9, 0.0, 2022-03-23 20:37:07.138
82.0, 41.51288950815797, 22.334682535380125, 46.77866864576936, -18.389088082127273, -0.288000013679266, 0.01600000075995922, 0.9760000463575125, 0.0, 0.0, 0.0, 0.0, 0.0, 1.6480858271393769E9, 0.0, 2022-03-23 20:37:07.139
82.0, 35.45799147989601, 18.273151183500886, 56.22191603388637, -21.68020004313439, -0.288000013679266, 0.01600000075995922, 0.9760000463575125, 0.0, 0.0, 0.0, 0.0, 0.0, 1.6480858271393769E9, 0.0, 2022-03-23 20:37:07.139
83.0, 31.721831424161792, 23.045263526961207, 60.10767208784819, -25.857668293640018, -0.288000013679266, 0.01600000075995922, 0.9760000463575125, 0.0, 0.0, 0.0, 0.0, 0.0, 1.6480858271530151E9, 0.0, 2022-03-23 20:37:07.153
83.0, 45.727756758220494, 29.32081565260887, 62.34039236139506, -13.381362041458488, -0.288000013679266, 0.01600000075995922, 0.9760000463575125, 0.0, 0.0, 0.0, 0.0, 0.0, 1.6480858271530151E9, 0.0, 2022-03-23 20:37:07.153
84.0, 36.73329736478627, 27.76875717099756, 55.9900422366336, -21.29499034769833, -0.288000013679266, 0.01600000075995922, 0.9760000463575125, 0.0, 0.0, 0.0, 0.0, 0.0, 1.648085827168687E9, 0.0, 2022-03-23 20:37:07.168
84.0, 39.87481332756579, 36.449064968153834, 62.32169286161661, -17.32321659475565, -0.288000013679266, 0.01600000075995922, 0.9760000463575125, 0.0, 0.0, 0.0, 0.0, 0.0, 1.648085827168687E9, 0.0, 2022-03-23 20:37:07.168
85.0, 47.42193143814802, 37.82908805180341, 57.23542892187834, -13.358922641724348, -0.288000013679266, 0.01600000075995922, 0.9760000463575125, 0.0, 0.0, 0.0, 0.0, 0.0, 1.6480858271693828E9, 0.0, 2022-03-23 20:37:07.169
85.0, 44.904978767968714, 34.31732199341059, 63.91115034278482, -20.647987655363977, -0.288000013679266, 0.01600000075995922, 0.9760000463575125, 0.0, 0.0, 0.0, 0.0, 0.0, 1.6480858271693828E9, 0.0, 2022-03-23 20:37:07.169
86.0, 43.13974598888308, 42.21225079987198, 67.64357049856335, -19.159507472999394, -0.288000013679266, 0.01600000075995922, 0.9760000463575125, 0.0, 0.0, 0.0, 0.0, 0.0, 1.6480858271829696E9, 0.0, 2022-03-23 20:37:07.182
86.0, 44.99099646694958, 32.032243120484054, 62.46006915997714, -14.832443224266171, -0.288000013679266, 0.01600000075995922, 0.9760000463575125, 0.0, 0.0, 0.0, 0.0, 0.0, 1.6480858271829696E9, 0.0, 2022-03-23 20:37:07.182
87.0, 42.410465497523546, 30.360507840290666, 59.27741429768503, -23.101362026296556, -0.288000013679266, 0.01600000075995922, 0.9760000463575125, 0.0, 0.0, 0.0, 0.0, 0.0, 1.6480858271986647E9, 0.0, 2022-03-23 20:37:07.198
87.0, 36.66971906553954, 22.12524813786149, 50.66816459968686, -32.72412461228669, -0.288000013679266, 0.01600000075995922, 0.9760000463575125, 0.0, 0.0, 0.0, 0.0, 0.0, 1.6480858271986647E9, 0.0, 2022-03-23 20:37:07.198
88.0, 39.657899130135775, 24.48886490985751, 52.85974597372115, -32.840061510913074, -0.288000013679266, 0.01600000075995922, 0.9760000463575125, 0.0, 0.0, 0.0, 0.0, 0.0, 1.6480858271993976E9, 0.0, 2022-03-23 20:37:07.199
88.0, 50.870119197294116, 30.64100033696741, 58.26764130964875, -16.87068870011717, -0.288000013679266, 0.01600000075995922, 0.9760000463575125, 0.0, 0.0, 0.0, 0.0, 0.0, 1.6480858271993976E9, 0.0, 2022-03-23 20:37:07.199
89.0, 35.32709498144686, 30.93645243346691, 48.58878022432327, -31.302962629124522, -0.288000013679266, 0.01600000075995922, 0.9760000463575125, 0.0, 0.0, 0.0, 0.0, 0.0, 1.6480858272130075E9, 0.0, 2022-03-23 20:37:07.213
89.0, 32.89989991020411, 24.630981108173728, 47.638845635578036, -39.190411635674536, -0.288000013679266, 0.01600000075995922, 0.9760000463575125, 0.0, 0.0, 0.0, 0.0, 0.0, 1.6480858272130075E9, 0.0, 2022-03-23 20:37:07.213
90.0, 45.18921116460115, 26.90484028123319, 56.04988063592464, -23.845602117478848, -0.288000013679266, 0.01600000075995922, 0.9760000463575125, 0.0, 0.0, 0.0, 0.0, 0.0, 1.6480858272286232E9, 0.0, 2022-03-23 20:37:07.228
90.0, 42.410465497523546, 33.83487489912659, 63.61943814624101, -21.410927246324718, -0.288000013679266, 0.01600000075995922, 0.9760000463575125, 0.0, 0.0, 0.0, 0.0, 0.0, 1.6480858272286232E9, 0.0, 2022-03-23 20:37:07.228
91.0, 43.7605693815276, 43.08738738950342, 75.63199680391699, -22.402000734582543, -0.288000013679266, 0.0, 0.9760000463575125, 0.0, 0.0, 0.0, 0.0, 0.0, 1.648085827229427E9, 0.0, 2022-03-23 20:37:07.229
91.0, 47.81836083345115, 38.10958054848015, 59.64018459338695, -21.915813740342855, -0.288000013679266, 0.0, 0.9760000463575125, 0.0, 0.0, 0.0, 0.0, 0.0, 1.648085827229427E9, 0.0, 2022-03-23 20:37:07.229
92.0, 43.79048858117312, 37.73933045286685, 52.99064247217029, -22.693712931126356, -0.288000013679266, 0.0, 0.9760000463575125, 0.0, 0.0, 0.0, 0.0, 0.0, 1.6480858272429893E9, 0.0, 2022-03-23 20:37:07.242
92.0, 37.91136585082859, 37.7580299526453, 55.54125424195081, -23.595028820447624, -0.288000013679266, 0.0, 0.9760000463575125, 0.0, 0.0, 0.0, 0.0, 0.0, 1.6480858272429893E9, 0.0, 2022-03-23 20:37:07.242
93.0, 33.195352006703615, 33.89471329841763, 48.525201925076544, -27.682739472016692, -0.288000013679266, 0.0, 0.9760000463575125, 0.0, 0.0, 0.0, 0.0, 0.0, 1.64808582725871E9, 0.0, 2022-03-23 20:37:07.258
93.0, 55.97508263681084, 43.58105418365449, 61.794366967864335, -21.586702544242144, -0.288000013679266, 0.0, 0.9760000463575125, 0.0, 0.0, 0.0, 0.0, 0.0, 1.64808582725871E9, 0.0, 2022-03-23 20:37:07.258
94.0, 45.76515575777739, 51.06459399498999, 70.16426306869835, -17.786964189261198, -0.288000013679266, 0.0, 0.9760000463575125, 0.0, 0.0, 0.0, 0.0, 0.0, 1.6480858272594144E9, 0.0, 2022-03-23 20:37:07.259
94.0, 49.83042700961232, 50.38393220305443, 71.34607145469636, -12.46508655231446, -0.288000013679266, 0.0, 0.9760000463575125, 0.0, 0.0, 0.0, 0.0, 0.0, 1.6480858272594144E9, 0.0, 2022-03-23 20:37:07.259
95.0, 57.340146120637655, 46.501916049048305, 71.0693188579753, -9.622762585990131, -0.288000013679266, 0.0, 0.9760000463575125, 0.0, 0.0, 0.0, 0.0, 0.0, 1.648085827272927E9, 0.0, 2022-03-23 20:37:07.272
95.0, 44.23553667590022, 38.038522449322045, 60.08149278815836, -26.13442089036107, -0.288000013679266, 0.0, 0.9760000463575125, 0.0, 0.0, 0.0, 0.0, 0.0, 1.648085827272927E9, 0.0, 2022-03-23 20:37:07.272
96.0, 37.9450249504298, 37.05866866093129, 50.30539430398494, -29.111381255090237, -0.288000013679266, 0.0, 0.9760000463575125, 0.0, 0.0, 0.0, 0.0, 0.0, 1.648085827288666E9, 0.0, 2022-03-23 20:37:07.288
96.0, 41.684924906119704, 37.30550205800682, 50.208156905137, -36.20971137098968, -0.288000013679266, 0.0, 0.9760000463575125, 0.0, 0.0, 0.0, 0.0, 0.0, 1.648085827288666E9, 0.0, 2022-03-23 20:37:07.288
97.0, 51.06459399498999, 36.29946896992624, 69.68181597441435, -20.52457095682621, -0.288000013679266, 0.0, 0.9760000463575125, 0.0, 0.0, 0.0, 0.0, 0.0, 1.6480858272894452E9, 0.0, 2022-03-23 20:37:07.289
97.0, 29.39187375176698, 31.77419002354145, 47.343393539078534, -46.32614075113088, -0.288000013679266, 0.0, 0.9760000463575125, 0.0, 0.0, 0.0, 0.0, 0.0, 1.6480858272894452E9, 0.0, 2022-03-23 20:37:07.289
98.0, 30.17351284250617, 36.849234263412654, 44.81522116903216, -49.617252712138, -0.288000013679266, 0.0, 0.9760000463575125, 0.0, 0.0, 0.0, 0.0, 0.0, 1.6480858273031487E9, 0.0, 2022-03-23 20:37:07.303
98.0, 30.57742203772068, 31.36280102841556, 35.90303957462311, -45.15929196495563, -0.288000013679266, 0.0, 0.9760000463575125, 0.0, 0.0, 0.0, 0.0, 0.0, 1.6480858273031487E9, 0.0, 2022-03-23 20:37:07.303
99.0, 28.19136586599052, 30.267010341398418, 35.27847628202289, -46.78240854572505, -0.288000013679266, 0.0, 0.9760000463575125, 0.0, 0.0, 0.0, 0.0, 0.0, 1.6480858273186636E9, 0.0, 2022-03-23 20:37:07.318
99.0, 30.869134234264493, 44.919938367791474, 40.3161215223372, -44.456190773285925, -0.288000013679266, 0.0, 0.9760000463575125, 0.0, 0.0, 0.0, 0.0, 0.0, 1.6480858273186636E9, 0.0, 2022-03-23 20:37:07.318
100.0, 42.97893029078841, 48.82065402157605, 35.158799483440816, -42.30948819871992, -0.288000013679266, 0.0, 0.9760000463575125, 0.0, 0.0, 0.0, 0.0, 0.0, 1.6480858273193953E9, 0.0, 2022-03-23 20:37:07.319
100.0, 45.36124656256288, 58.08438621181995, 42.78071559313685, -40.61905341874808, -0.288000013679266, 0.0, 0.9760000463575125, 0.0, 0.0, 0.0, 0.0, 0.0, 1.6480858273193953E9, 0.0, 2022-03-23 20:37:07.319
0.0, 960.1314259744249, 567.6251857248135, 1642.4612132902257, 911.5239462503232, -0.288000013679266, 0.0, 0.9760000463575125, 0.0, 0.0, 0.0, 0.0, 0.0, 1.648085827333775E9, 0.0, 2022-03-23 20:37:07.333
1.0, 963.6581516326405, 562.3107878877781, 1635.160928576719, 910.4842540626414, -0.288000013679266, 0.0, 0.9760000463575125, 0.0, 0.0, 0.0, 0.0, 0.0, 1.648085827334486E9, 0.0, 2022-03-23 20:37:07.334
1.0, 973.0490404213779, 571.8662322745658, 1637.7564191459678, 926.6817607707344, -0.288000013679266, 0.0, 0.9760000463575125, 0.0, 0.0, 0.0, 0.0, 0.0, 1.648085827334486E9, 0.0, 2022-03-23 20:37:07.334
2.0, 961.1299792625941, 574.0017151492648, 1644.484499166254, 921.4234614330344, -0.288000013679266, 0.0, 0.9760000463575125, 0.0, 0.0, 0.0, 0.0, 0.0, 1.6480858273479764E9, 0.0, 2022-03-23 20:37:07.347
2.0, 960.6363124684431, 571.4922422789969, 1645.8757419497706, 923.4392675091513, -0.288000013679266, 0.0, 0.9760000463575125, 0.0, 0.0, 0.0, 0.0, 0.0, 1.6480858273479764E9, 0.0, 2022-03-23 20:37:07.347
3.0, 956.2793290200643, 557.1646855487488, 1633.6313094948418, 918.7232536650263, -0.288000013679266, 0.0, 0.9760000463575125, 0.0, 0.0, 0.0, 0.0, 0.0, 1.6480858273636823E9, 0.0, 2022-03-23 20:37:07.363
3.0, 952.266416367609, 560.8335274052806, 1634.6560420827009, 908.2664933889173, -0.288000013679266, 0.0, 0.9760000463575125, 0.0, 0.0, 0.0, 0.0, 0.0, 1.6480858273636823E9, 0.0, 2022-03-23 20:37:07.363
4.0, 953.0293559585698, 559.8798529165797, 1634.3082313868217, 905.5064472216181, -0.288000013679266, 0.0, 0.9760000463575125, 0.0, 0.0, 0.0, 0.0, 0.0, 1.6480858273643813E9, 0.0, 2022-03-23 20:37:07.364
4.0, 957.031048911158, 559.6853781188838, 1635.0188123784028, 912.6384364371188, -0.288000013679266, 0.0, 0.9760000463575125, 0.0, 0.0, 0.0, 0.0, 0.0, 1.6480858273643813E9, 0.0, 2022-03-23 20:37:07.364
5.0, 954.787108937744, 558.7279637302272, 1634.233433387708, 911.0340193561278, -0.288000013679266, 0.0, 0.9760000463575125, 0.0, 0.0, 0.0, 0.0, 0.0, 1.6480858273779843E9, 0.0, 2022-03-23 20:37:07.377
5.0, 946.5481093353592, 560.8933658045717, 1641.6833140994422, 905.3867704230361, -0.288000013679266, 0.0, 0.9760000463575125, 0.0, 0.0, 0.0, 0.0, 0.0, 1.6480858273779843E9, 0.0, 2022-03-23 20:37:07.377
6.0, 947.9842309183441, 551.6109341145493, 1631.3911094213836, 911.0227996562608, -0.288000013679266, 0.0, 0.9760000463575125, 0.0, 0.0, 0.0, 0.0, 0.0, 1.6480858273936455E9, 0.0, 2022-03-23 20:37:07.393
6.0, 952.303815367166, 546.7116651725955, 1624.861244098749, 912.3130651409738, -0.288000013679266, 0.0, 0.9760000463575125, 0.0, 0.0, 0.0, 0.0, 0.0, 1.6480858273936455E9, 0.0, 2022-03-23 20:37:07.393
7.0, 939.3413221207447, 539.336582459975, 1624.090824707877, 898.0378670101054, -0.288000013679266, 0.0, 0.9760000463575125, 0.0, 0.0, 0.0, 0.0, 0.0, 1.6480858273944378E9, 0.0, 2022-03-23 20:37:07.394
7.0, 942.7446310804226, 546.0796220800839, 1631.9670540145598, 909.5754583734088, -0.288000013679266, 0.0, 0.9760000463575125, 0.0, 0.0, 0.0, 0.0, 0.0, 1.6480858273944378E9, 0.0, 2022-03-23 20:37:07.394
8.0, 944.4911643597297, 530.7796913613565, 1610.8328793649562, 893.471449164208, -0.288000013679266, 0.0, 0.9760000463575125, 0.0, 0.0, 0.0, 0.0, 0.0, 1.6480858274080467E9, 0.0, 2022-03-23 20:37:07.408
8.0, 938.9710720251314, 531.9465401475318, 1607.422090605367, 889.7988674077205, -0.288000013679266, 0.0, 0.9760000463575125, 0.0, 0.0, 0.0, 0.0, 0.0, 1.6480858274080467E9, 0.0, 2022-03-23 20:37:07.408
9.0, 924.8828688920476, 531.9727194472216, 1609.2509016836993, 884.8771590660326, -0.288000013679266, 0.0, 0.9760000463575125, 0.0, 0.0, 0.0, 0.0, 0.0, 1.6480858274236465E9, 0.0, 2022-03-23 20:37:07.423
9.0, 945.2129650511779, 539.3552819597535, 1612.4335565459915, 895.1880632438697, -0.288000013679266, 0.0, 0.9760000463575125, 0.0, 0.0, 0.0, 0.0, 0.0, 1.6480858274236465E9, 0.0, 2022-03-23 20:37:07.423
10.0, 947.4868242242374, 544.0675559039228, 1620.6463768486865, 903.4719416457228, -0.288000013679266, 0.0, 0.9600000455975533, 0.0, 0.0, 0.0, 0.0, 0.0, 1.648085827424418E9, 0.0, 2022-03-23 20:37:07.424
10.0, 938.1071551353671, 540.9559591407888, 1618.806346070487, 890.0644003045745, -0.288000013679266, 0.0, 0.9600000455975533, 0.0, 0.0, 0.0, 0.0, 0.0, 1.648085827424418E9, 0.0, 2022-03-23 20:37:07.424
11.0, 951.6343732750975, 546.090841779951, 1616.985014792066, 908.0196599918418, -0.288000013679266, 0.0, 0.9600000455975533, 0.0, 0.0, 0.0, 0.0, 0.0, 1.648085827438102E9, 0.0, 2022-03-23 20:37:07.438
11.0, 950.80785538489, 543.1064016153105, 1621.8207054347731, 915.4845003033988, -0.288000013679266, 0.0, 0.9600000455975533, 0.0, 0.0, 0.0, 0.0, 0.0, 1.648085827438102E9, 0.0, 2022-03-23 20:37:07.438
12.0, 943.993757665623, 543.1811996144243, 1619.2364345653914, 906.400283311028, -0.288000013679266, 0.0, 0.9600000455975533, 0.0, 0.0, 0.0, 0.0, 0.0, 1.6480858274537036E9, 0.0, 2022-03-23 20:37:07.453
12.0, 941.8956737904809, 546.778983371798, 1626.8957496746443, 906.0636923150159, -0.288000013679266, 0.0, 0.9600000455975533, 0.0, 0.0, 0.0, 0.0, 0.0, 1.6480858274537036E9, 0.0, 2022-03-23 20:37:07.453
13.0, 954.3196214432828, 552.1195605085231, 1627.2547800703906, 918.9214683626778, -0.288000013679266, 0.0, 0.9600000455975533, 0.0, 0.0, 0.0, 0.0, 0.0, 1.6480858274543965E9, 0.0, 2022-03-23 20:37:07.454
13.0, 946.6453467342071, 551.3566209175624, 1628.3393510575406, 909.6390366726555, -0.288000013679266, 0.0, 0.9600000455975533, 0.0, 0.0, 0.0, 0.0, 0.0, 1.6480858274543965E9, 0.0, 2022-03-23 20:37:07.454
14.0, 931.4127342146821, 540.3613150478341, 1619.049439567607, 896.0482402336784, -0.288000013679266, 0.0, 0.9600000455975533, 0.0, 0.0, 0.0, 0.0, 0.0, 1.6480858274680395E9, 0.0, 2022-03-23 20:37:07.468
14.0, 952.2402370679192, 544.5649625980295, 1623.8028524112888, 914.4971667150967, -0.288000013679266, 0.0, 0.9600000455975533, 0.0, 0.0, 0.0, 0.0, 0.0, 1.6480858274680395E9, 0.0, 2022-03-23 20:37:07.468
15.0, 941.2860700977035, 545.2867632894777, 1616.7868000944145, 905.0800986266695, -0.288000013679266, 0.0, 0.9600000455975533, 0.0, 0.0, 0.0, 0.0, 0.0, 1.6480858274836624E9, 0.0, 2022-03-23 20:37:07.483
15.0, 944.8950735549442, 556.222230759915, 1634.6448223828338, 907.7354275952093, -0.288000013679266, 0.0, 0.9600000455975533, 0.0, 0.0, 0.0, 0.0, 0.0, 1.6480858274836624E9, 0.0, 2022-03-23 20:37:07.483
16.0, 962.0873936512507, 556.2596297594719, 1634.6036834833212, 913.8913029222749, -0.288000013679266, 0.0, 0.9600000455975533, 0.0, 0.0, 0.0, 0.0, 0.0, 1.6480858274843926E9, 0.0, 2022-03-23 20:37:07.484
16.0, 946.3124956381507, 547.9046932584606, 1626.188908583019, 904.7135884310119, -0.288000013679266, 0.0, 0.9600000455975533, 0.0, 0.0, 0.0, 0.0, 0.0, 1.6480858274843926E9, 0.0, 2022-03-23 20:37:07.484
17.0, 943.8516414673068, 555.9043392636813, 1629.9923868379556, 913.1283633313142, -0.288000013679266, 0.0, 0.9600000455975533, 0.0, 0.0, 0.0, 0.0, 0.0, 1.6480858274980028E9, 0.0, 2022-03-23 20:37:07.498
17.0, 953.5379823525436, 557.2095643482171, 1631.9333949149586, 920.1705949478783, -0.288000013679266, 0.0, 0.9600000455975533, 0.0, 0.0, 0.0, 0.0, 0.0, 1.6480858274980028E9, 0.0, 2022-03-23 20:37:07.498
18.0, 959.5667010811158, 556.2259706598707, 1630.5758112310432, 919.957420650404, -0.288000013679266, 0.0, 0.9600000455975533, 0.0, 0.0, 0.0, 0.0, 0.0, 1.6480858275137684E9, 0.0, 2022-03-23 20:37:07.513
18.0, 942.6735729812644, 563.5860937726684, 1639.0354649308138, 923.9067550036125, -0.288000013679266, 0.0, 0.9600000455975533, 0.0, 0.0, 0.0, 0.0, 0.0, 1.6480858275137684E9, 0.0, 2022-03-23 20:37:07.513
19.0, 952.9433382595889, 567.0081022321247, 1640.7109401109628, 930.3842617268674, -0.288000013679266, 0.0, 0.9600000455975533, 0.0, 0.0, 0.0, 0.0, 0.0, 1.648085827514388E9, 0.0, 2022-03-23 20:37:07.514
19.0, 966.8595059947111, 576.9450164143927, 1648.9686392131262, 938.1034152354114, -0.288000013679266, 0.0, 0.9600000455975533, 0.0, 0.0, 0.0, 0.0, 0.0, 1.648085827514388E9, 0.0, 2022-03-23 20:37:07.514
20.0, 970.8873782469891, 575.5874327304773, 1654.8215826437809, 938.1819531344809, -0.288000013679266, 0.0, 0.9600000455975533, 0.0, 0.0, 0.0, 0.0, 0.0, 1.6480858275280468E9, 0.0, 2022-03-23 20:37:07.528
20.0, 956.3204679195769, 568.2572288173251, 1647.8541490263306, 921.1953275357373, -0.288000013679266, 0.0, 0.9600000455975533, 0.0, 0.0, 0.0, 0.0, 0.0, 1.6480858275280468E9, 0.0, 2022-03-23 20:37:07.528
21.0, 962.4052851474844, 574.1064323480241, 1650.513217894826, 928.4843925493769, -0.288000013679266, 0.01600000075995922, 0.9600000455975533, 0.0, 0.0, 0.0, 0.0, 0.0, 1.6480858275441885E9, 0.0, 2022-03-23 20:37:07.544
21.0, 969.5933728623204, 579.499368084129, 1654.5747492467053, 938.7279785280116, -0.288000013679266, 0.01600000075995922, 0.9600000455975533, 0.0, 0.0, 0.0, 0.0, 0.0, 1.6480858275441885E9, 0.0, 2022-03-23 20:37:07.544
22.0, 961.6311258566566, 575.4378367322497, 1651.732425280381, 930.1636076294817, -0.288000013679266, 0.01600000075995922, 0.9600000455975533, 0.0, 0.0, 0.0, 0.0, 0.0, 1.6480858275586624E9, 0.0, 2022-03-23 20:37:07.558
22.0, 950.8639538842253, 571.45484327944, 1643.7290393752046, 918.9401678624563, -0.288000013679266, 0.01600000075995922, 0.9600000455975533, 0.0, 0.0, 0.0, 0.0, 0.0, 1.6480858275586624E9, 0.0, 2022-03-23 20:37:07.558
23.0, 948.9005064074881, 560.3697798107751, 1638.0331717426889, 925.1558815888129, -0.288000013679266, 0.01600000075995922, 0.9600000455975533, 0.0, 0.0, 0.0, 0.0, 0.0, 1.6480858275593977E9, 0.0, 2022-03-23 20:37:07.559
23.0, 942.5538961826824, 550.6946586254053, 1626.3235449814238, 915.1030305079184, -0.288000013679266, 0.01600000075995922, 0.9600000455975533, 0.0, 0.0, 0.0, 0.0, 0.0, 1.6480858275593977E9, 0.0, 2022-03-23 20:37:07.559
24.0, 931.6707873116247, 540.8138429424725, 1610.5299474685453, 904.7173283309676, -0.288000013679266, 0.01600000075995922, 0.9600000455975533, 0.0, 0.0, 0.0, 0.0, 0.0, 1.6480858275736861E9, 0.0, 2022-03-23 20:37:07.573
24.0, 941.0841155000962, 535.0955359102227, 1612.6093318439089, 906.9537885044701, -0.288000013679266, 0.01600000075995922, 0.9600000455975533, 0.0, 0.0, 0.0, 0.0, 0.0, 1.6480858275736861E9, 0.0, 2022-03-23 20:37:07.573
25.0, 935.889394461643, 535.2152127088048, 1615.9939413038082, 906.9350890046917, -0.288000013679266, 0.01600000075995922, 0.9600000455975533, 0.0, 0.0, 0.0, 0.0, 0.0, 1.6480858275743732E9, 0.0, 2022-03-23 20:37:07.574
25.0, 925.118482589256, 534.1044624219649, 1621.7272079358809, 903.4308027462102, -0.288000013679266, 0.01600000075995922, 0.9600000455975533, 0.0, 0.0, 0.0, 0.0, 0.0, 1.6480858275743732E9, 0.0, 2022-03-23 20:37:07.574
26.0, 927.7064933585934, 537.2347586848773, 1619.5206669620238, 908.1954352897592, -0.288000013679266, 0.01600000075995922, 0.9600000455975533, 0.0, 0.0, 0.0, 0.0, 0.0, 1.6480858275880332E9, 0.0, 2022-03-23 20:37:07.588
26.0, 928.0169050549157, 534.343816019129, 1613.10299863806, 910.4393752631731, -0.288000013679266, 0.01600000075995922, 0.9600000455975533, 0.0, 0.0, 0.0, 0.0, 0.0, 1.6480858275880332E9, 0.0, 2022-03-23 20:37:07.588
27.0, 925.7280862820335, 538.252011472825, 1625.4484083917923, 910.8732036580332, -0.288000013679266, 0.01600000075995922, 0.9600000455975533, 0.0, 0.0, 0.0, 0.0, 0.0, 1.648085827603912E9, 0.0, 2022-03-23 20:37:07.603
27.0, 929.3408296392299, 542.556636321824, 1632.7187739056535, 915.1366896075197, -0.288000013679266, 0.01600000075995922, 0.9600000455975533, 0.0, 0.0, 0.0, 0.0, 0.0, 1.648085827603912E9, 0.0, 2022-03-23 20:37:07.603
28.0, 941.364607996773, 538.7045393674634, 1629.8764499393292, 914.1530959191732, -0.288000013679266, 0.01600000075995922, 0.9600000455975533, 0.0, 0.0, 0.0, 0.0, 0.0, 1.6480858276045115E9, 0.0, 2022-03-23 20:37:07.604
28.0, 928.2525187521242, 537.8368825777434, 1628.9452148503624, 903.6589366435073, -0.288000013679266, 0.01600000075995922, 0.9600000455975533, 0.0, 0.0, 0.0, 0.0, 0.0, 1.6480858276045115E9, 0.0, 2022-03-23 20:37:07.604
29.0, 925.275558387395, 528.169241192285, 1623.017473420594, 902.9333960521035, -0.288000013679266, 0.01600000075995922, 0.9600000455975533, 0.0, 0.0, 0.0, 0.0, 0.0, 1.6480858276343465E9, 0.0, 2022-03-23 20:37:07.634
29.0, 929.1987134409137, 525.6373289222829, 1612.6168116438203, 908.8798369816504, -0.288000013679266, 0.01600000075995922, 0.9600000455975533, 0.0, 0.0, 0.0, 0.0, 0.0, 1.6480858276343465E9, 0.0, 2022-03-23 20:37:07.634
30.0, 915.5892175021581, 524.0104724415578, 1614.946769316215, 900.2818069835193, -0.288000013679266, 0.01600000075995922, 0.9600000455975533, 0.0, 0.0, 0.0, 0.0, 0.0, 1.6480858276350873E9, 0.0, 2022-03-23 20:37:07.635
30.0, 919.0299254613928, 526.8004378085025, 1608.674957090523, 894.4849620522, -0.288000013679266, 0.01600000075995922, 0.9600000455975533, 0.0, 0.0, 0.0, 0.0, 0.0, 1.6480858276350873E9, 0.0, 2022-03-23 20:37:07.635
31.0, 929.5315645369701, 530.5104185645469, 1616.8503783936612, 906.4152429108508, -0.288000013679266, 0.01600000075995922, 0.9600000455975533, 0.0, 0.0, 0.0, 0.0, 0.0, 1.6480858276358895E9, 0.0, 2022-03-23 20:37:07.635
31.0, 925.7243463820778, 527.2417460032739, 1614.333425723482, 910.5814914614893, -0.288000013679266, 0.01600000075995922, 0.9600000455975533, 0.0, 0.0, 0.0, 0.0, 0.0, 1.6480858276358895E9, 0.0, 2022-03-23 20:37:07.635
32.0, 932.946093196515, 548.5666555506177, 1626.8658304749988, 914.4261086159386, -0.3200000151991844, 0.01600000075995922, 0.9600000455975533, 0.0, 0.0, 0.0, 0.0, 0.0, 1.6480858276480176E9, 0.0, 2022-03-23 20:37:07.648
32.0, 938.9374129255302, 554.4345585810952, 1629.9063691389747, 913.0311259324662, -0.3200000151991844, 0.01600000075995922, 0.9600000455975533, 0.0, 0.0, 0.0, 0.0, 0.0, 1.6480858276480176E9, 0.0, 2022-03-23 20:37:07.648
33.0, 954.0092097469606, 557.1646855487488, 1629.4987200438045, 925.3466164865531, -0.3200000151991844, 0.01600000075995922, 0.9600000455975533, 0.0, 0.0, 0.0, 0.0, 0.0, 1.6480858276636496E9, 0.0, 2022-03-23 20:37:07.663
33.0, 939.6704333168454, 555.3919729697518, 1624.1544030071236, 913.4836538271047, -0.3200000151991844, 0.01600000075995922, 0.9600000455975533, 0.0, 0.0, 0.0, 0.0, 0.0, 1.6480858276636496E9, 0.0, 2022-03-23 20:37:07.663
34.0, 932.1195753063075, 562.5351818851195, 1625.7102013886906, 912.2906257412396, -0.3200000151991844, 0.01600000075995922, 0.9600000455975533, 0.0, 0.0, 0.0, 0.0, 0.0, 1.648085827664417E9, 0.0, 2022-03-23 20:37:07.664
34.0, 938.9448927254416, 550.5525424270891, 1620.1489701545797, 915.0319724087603, -0.3200000151991844, 0.01600000075995922, 0.9600000455975533, 0.0, 0.0, 0.0, 0.0, 0.0, 1.648085827664417E9, 0.0, 2022-03-23 20:37:07.664
35.0, 934.1428611823358, 557.5498952441849, 1630.530932431575, 908.06453879131, -0.3200000151991844, 0.01600000075995922, 0.9600000455975533, 0.0, 0.0, 0.0, 0.0, 0.0, 1.6480858276779873E9, 0.0, 2022-03-23 20:37:07.677
35.0, 933.753911586944, 559.5956205199473, 1625.197835094761, 911.9989135446958, -0.3200000151991844, 0.01600000075995922, 0.9600000455975533, 0.0, 0.0, 0.0, 0.0, 0.0, 1.6480858276779873E9, 0.0, 2022-03-23 20:37:07.677
36.0, 928.5180516489781, 549.7896028361283, 1617.2168885893188, 909.885870069731, -0.3200000151991844, 0.01600000075995922, 0.9600000455975533, 0.0, 0.0, 0.0, 0.0, 0.0, 1.6480858276936731E9, 0.0, 2022-03-23 20:37:07.693
36.0, 920.5894637429155, 545.3092026892118, 1618.8624445698224, 907.1856623017229, -0.3200000151991844, 0.01600000075995922, 0.9600000455975533, 0.0, 0.0, 0.0, 0.0, 0.0, 1.6480858276936731E9, 0.0, 2022-03-23 20:37:07.693
37.0, 924.370502598118, 549.045362744946, 1625.7027215887792, 910.3009989648126, -0.3200000151991844, 0.01600000075995922, 0.9600000455975533, 0.0, 0.0, 0.0, 0.0, 0.0, 1.6480858276945164E9, 0.0, 2022-03-23 20:37:07.694
37.0, 925.1970204883255, 556.0763746616431, 1624.3713172045536, 911.7408604477532, -0.3200000151991844, 0.01600000075995922, 0.9600000455975533, 0.0, 0.0, 0.0, 0.0, 0.0, 1.6480858276945164E9, 0.0, 2022-03-23 20:37:07.694
38.0, 921.0943502369337, 549.8008225359954, 1623.2381275179796, 908.2552736890502, -0.3200000151991844, 0.01600000075995922, 0.9600000455975533, 0.0, 0.0, 0.0, 0.0, 0.0, 1.6480858277081132E9, 0.0, 2022-03-23 20:37:07.708
38.0, 919.7180670532398, 561.7161437948234, 1636.5671309600584, 908.3599908878095, -0.3200000151991844, 0.01600000075995922, 0.9600000455975533, 0.0, 0.0, 0.0, 0.0, 0.0, 1.6480858277081132E9, 0.0, 2022-03-23 20:37:07.708
39.0, 904.9566819281317, 567.9991757203825, 1639.0167654310353, 906.8864703052677, -0.3200000151991844, 0.01600000075995922, 0.9600000455975533, 0.0, 0.0, 0.0, 0.0, 0.0, 1.6480858277237988E9, 0.0, 2022-03-23 20:37:07.723
39.0, 920.3688096455298, 559.008456226904, 1634.3194510866888, 909.5866780732758, -0.3200000151991844, 0.01600000075995922, 0.9600000455975533, 0.0, 0.0, 0.0, 0.0, 0.0, 1.6480858277237988E9, 0.0, 2022-03-23 20:37:07.723
40.0, 920.7914183405228, 560.2239237125032, 1625.1492163953371, 903.6103179440834, -0.3200000151991844, 0.01600000075995922, 0.9600000455975533, 0.0, 0.0, 0.0, 0.0, 0.0, 1.6480858277245448E9, 0.0, 2022-03-23 20:37:07.724
40.0, 907.6344502964057, 558.3838929343037, 1628.87789665116, 896.8448389242403, -0.3200000151991844, 0.01600000075995922, 0.9600000455975533, 0.0, 0.0, 0.0, 0.0, 0.0, 1.6480858277245448E9, 0.0, 2022-03-23 20:37:07.724
41.0, 926.6668011709116, 562.4940429856069, 1635.4489008733071, 910.8470243583433, -0.3200000151991844, 0.01600000075995922, 0.9600000455975533, 0.0, 0.0, 0.0, 0.0, 0.0, 1.648085827738066E9, 0.0, 2022-03-23 20:37:07.738
41.0, 919.5460316552781, 556.4354050573893, 1626.4918404794298, 902.3836307586171, -0.3200000151991844, 0.01600000075995922, 0.9600000455975533, 0.0, 0.0, 0.0, 0.0, 0.0, 1.648085827738066E9, 0.0, 2022-03-23 20:37:07.738
42.0, 911.7109412481077, 556.4241853575222, 1630.4187354329042, 904.1563433376141, -0.3200000151991844, 0.01600000075995922, 0.9600000455975533, 0.0, 0.0, 0.0, 0.0, 0.0, 1.6480858277536857E9, 0.0, 2022-03-23 20:37:07.753
42.0, 916.9767203857191, 552.8376213000156, 1624.0122868088074, 904.5527727329172, -0.3200000151991844, 0.01600000075995922, 0.9600000455975533, 0.0, 0.0, 0.0, 0.0, 0.0, 1.6480858277536857E9, 0.0, 2022-03-23 20:37:07.753
43.0, 927.2614452638663, 550.1935120313428, 1628.3281313576736, 911.8418377465568, -0.3200000151991844, 0.01600000075995922, 0.9600000455975533, 0.0, 0.0, 0.0, 0.0, 0.0, 1.6480858277544065E9, 0.0, 2022-03-23 20:37:07.754
43.0, 933.3275629919954, 564.229356565047, 1645.6513479524292, 918.4652005680837, -0.3200000151991844, 0.01600000075995922, 0.9600000455975533, 0.0, 0.0, 0.0, 0.0, 0.0, 1.6480858277544065E9, 0.0, 2022-03-23 20:37:07.754
44.0, 946.0507026412524, 581.2982599628158, 1661.3963267658837, 931.9699793080799, -0.3200000151991844, 0.01600000075995922, 0.9600000455975533, 0.0, 0.0, 0.0, 0.0, 0.0, 1.6480858277680285E9, 0.0, 2022-03-23 20:37:07.768
44.0, 960.2959815724753, 586.0441930065863, 1663.1279004453681, 933.9857853841968, -0.3200000151991844, 0.01600000075995922, 0.9600000455975533, 0.0, 0.0, 0.0, 0.0, 0.0, 1.6480858277680285E9, 0.0, 2022-03-23 20:37:07.768
45.0, 954.4392982418649, 584.4996143248864, 1660.9250993714668, 930.051410630811, -0.3200000151991844, 0.01600000075995922, 0.9600000455975533, 0.0, 0.0, 0.0, 0.0, 0.0, 1.6480858277836556E9, 0.0, 2022-03-23 20:37:07.783
45.0, 952.7114644623362, 590.0907647586428, 1659.8667076840065, 926.8089173692279, -0.3200000151991844, 0.01600000075995922, 0.9600000455975533, 0.0, 0.0, 0.0, 0.0, 0.0, 1.6480858277836556E9, 0.0, 2022-03-23 20:37:07.783
46.0, 957.6855314034037, 589.1146508702077, 1652.5178042710759, 928.7349658464082, -0.3200000151991844, 0.01600000075995922, 0.9600000455975533, 0.0, 0.0, 0.0, 0.0, 0.0, 1.6480858277843716E9, 0.0, 2022-03-23 20:37:07.784
46.0, 960.1725648739375, 590.2553203566931, 1664.9604514236562, 934.3036768804304, -0.3200000151991844, 0.01600000075995922, 0.9600000455975533, 0.0, 0.0, 0.0, 0.0, 0.0, 1.6480858277843716E9, 0.0, 2022-03-23 20:37:07.784
47.0, 969.2642616662197, 600.3792295367457, 1686.262921571266, 942.1986056868918, -0.3200000151991844, 0.01600000075995922, 0.9600000455975533, 0.0, 0.0, 0.0, 0.0, 0.0, 1.6480858277979724E9, 0.0, 2022-03-23 20:37:07.797
47.0, 978.4644155572169, 616.1765669495799, 1710.2693393868394, 955.5089096291922, -0.3200000151991844, 0.01600000075995922, 0.9600000455975533, 0.0, 0.0, 0.0, 0.0, 0.0, 1.6480858277979724E9, 0.0, 2022-03-23 20:37:07.797
48.0, 989.4971204265021, 618.2447316250764, 1722.4501935425214, 960.0715875751339, -0.3200000151991844, 0.01600000075995922, 0.9600000455975533, 0.0, 0.0, 0.0, 0.0, 0.0, 1.6480858278136747E9, 0.0, 2022-03-23 20:37:07.813
48.0, 984.9830611799844, 617.9006608291529, 1731.212779138703, 956.5710412166081, -0.3200000151991844, 0.01600000075995922, 0.9600000455975533, 0.0, 0.0, 0.0, 0.0, 0.0, 1.6480858278136747E9, 0.0, 2022-03-23 20:37:07.813
49.0, 985.9068164690398, 620.0286639039405, 1734.3804744011723, 948.3769204136916, -0.3200000151991844, 0.01600000075995922, 0.9600000455975533, 0.0, 0.0, 0.0, 0.0, 0.0, 1.6480858278144195E9, 0.0, 2022-03-23 20:37:07.814
49.0, 989.5793982255273, 624.146293755155, 1738.531763351988, 968.3966048764996, -0.3200000151991844, 0.01600000075995922, 0.9600000455975533, 0.0, 0.0, 0.0, 0.0, 0.0, 1.6480858278144195E9, 0.0, 2022-03-23 20:37:07.814
50.0, 984.0929649905302, 634.6367131308652, 1749.9496779167093, 966.4817760991864, -0.3200000151991844, 0.01600000075995922, 0.944000044837594, 0.0, 0.0, 0.0, 0.0, 0.0, 1.6480858278280578E9, 0.0, 2022-03-23 20:37:07.828
50.0, 990.8098253109492, 646.9522036849521, 1753.970070369076, 967.5027687870897, -0.3200000151991844, 0.01600000075995922, 0.944000044837594, 0.0, 0.0, 0.0, 0.0, 0.0, 1.6480858278280578E9, 0.0, 2022-03-23 20:37:07.828
51.0, 1001.8200907805003, 662.1100182053633, 1773.376411239151, 978.4569357573055, -0.3200000151991844, 0.01600000075995922, 0.944000044837594, 0.0, 0.0, 0.0, 0.0, 0.0, 1.6480858278436935E9, 0.0, 2022-03-23 20:37:07.843
51.0, 1002.4895328725688, 671.9983136882074, 1783.9004897144623, 981.0711258263327, -0.3200000151991844, 0.01600000075995922, 0.944000044837594, 0.0, 0.0, 0.0, 0.0, 0.0, 1.6480858278436935E9, 0.0, 2022-03-23 20:37:07.843
52.0, 998.2223070231266, 681.5948969745077, 1796.8405435611494, 975.326639494393, -0.33600001595914364, 0.01600000075995922, 0.944000044837594, 0.0, 0.0, 0.0, 0.0, 0.0, 1.6480858278443725E9, 0.0, 2022-03-23 20:37:07.844
52.0, 1020.6056082579307, 708.7465706528164, 1829.2617362770252, 993.7942654755898, -0.33600001595914364, 0.01600000075995922, 0.944000044837594, 0.0, 0.0, 0.0, 0.0, 0.0, 1.6480858278443725E9, 0.0, 2022-03-23 20:37:07.844
53.0, 1031.4625378292985, 716.3871862622909, 1831.4533176510595, 1015.0518568237312, -0.33600001595914364, 0.01600000075995922, 0.944000044837594, 0.0, 0.0, 0.0, 0.0, 0.0, 1.6480858278580313E9, 0.0, 2022-03-23 20:37:07.858
53.0, 1012.3815682553686, 704.928132798057, 1809.387907912489, 996.3411373454146, -0.33600001595914364, 0.01600000075995922, 0.944000044837594, 0.0, 0.0, 0.0, 0.0, 0.0, 1.6480858278580313E9, 0.0, 2022-03-23 20:37:07.858
54.0, 1003.970533255022, 693.2409454365261, 1791.6159033230506, 978.5055544567294, -0.33600001595914364, 0.01600000075995922, 0.944000044837594, 0.0, 0.0, 0.0, 0.0, 0.0, 1.6480858278736267E9, 0.0, 2022-03-23 20:37:07.873
54.0, 1007.7440923103131, 678.7151740086265, 1781.5630522421561, 985.1027379785664, -0.33600001595914364, 0.01600000075995922, 0.944000044837594, 0.0, 0.0, 0.0, 0.0, 0.0, 1.6480858278736267E9, 0.0, 2022-03-23 20:37:07.873
55.0, 985.843238169793, 657.1583906640299, 1753.5512015740387, 972.2374821309932, -0.33600001595914364, 0.01600000075995922, 0.944000044837594, 0.0, 0.0, 0.0, 0.0, 0.0, 1.6480858278743627E9, 0.0, 2022-03-23 20:37:07.874
55.0, 999.6397291063331, 665.1393371694721, 1759.8641526992433, 985.0615990790538, -0.33600001595914364, 0.01600000075995922, 0.944000044837594, 0.0, 0.0, 0.0, 0.0, 0.0, 1.6480858278743627E9, 0.0, 2022-03-23 20:37:07.874
56.0, 999.3405371098779, 653.9570363019593, 1747.204591349233, 983.2215683008544, -0.33600001595914364, 0.01600000075995922, 0.944000044837594, 0.0, 0.0, 0.0, 0.0, 0.0, 1.6480858278879936E9, 0.0, 2022-03-23 20:37:07.887
56.0, 989.2876860289834, 639.4649239736609, 1735.1172346924432, 986.1461700662039, -0.33600001595914364, 0.01600000075995922, 0.944000044837594, 0.0, 0.0, 0.0, 0.0, 0.0, 1.6480858278879936E9, 0.0, 2022-03-23 20:37:07.887
57.0, 992.4703408912756, 643.5376750254072, 1737.4284928650595, 985.4206294748001, -0.33600001595914364, 0.01600000075995922, 0.944000044837594, 0.0, 0.0, 0.0, 0.0, 0.0, 1.648085827903676E9, 0.0, 2022-03-23 20:37:07.903
57.0, 983.0869319024496, 628.7613303004764, 1729.473725659307, 976.4149503814988, -0.33600001595914364, 0.01600000075995922, 0.944000044837594, 0.0, 0.0, 0.0, 0.0, 0.0, 1.648085827903676E9, 0.0, 2022-03-23 20:37:07.903
58.0, 991.4530881033279, 625.4029001402669, 1729.391447860282, 987.3504178519361, -0.33600001595914364, 0.01600000075995922, 0.944000044837594, 0.0, 0.0, 0.0, 0.0, 0.0, 1.648085827904399E9, 0.0, 2022-03-23 20:37:07.904
58.0, 975.6632304904051, 625.8068093354814, 1727.196126586292, 971.9794290340506, -0.33600001595914364, 0.01600000075995922, 0.944000044837594, 0.0, 0.0, 0.0, 0.0, 0.0, 1.648085827904399E9, 0.0, 2022-03-23 20:37:07.904
59.0, 981.1010450259782, 627.6917189131491, 1723.976072724443, 978.7748272535391, -0.33600001595914364, 0.01600000075995922, 0.944000044837594, 0.0, 0.0, 0.0, 0.0, 0.0, 1.6480858279343927E9, 0.0, 2022-03-23 20:37:07.934
59.0, 981.6321108196862, 627.1045546201058, 1717.5172655009665, 983.3599445992149, -0.33600001595914364, 0.01600000075995922, 0.944000044837594, 0.0, 0.0, 0.0, 0.0, 0.0, 1.6480858279343927E9, 0.0, 2022-03-23 20:37:07.934
60.0, 969.7990673598833, 610.6789140147157, 1707.7636064165272, 969.2455621664412, -0.33600001595914364, 0.01600000075995922, 0.9280000440776348, 0.0, 0.0, 0.0, 0.0, 0.0, 1.6480858279351592E9, 0.0, 2022-03-23 20:37:07.935
60.0, 963.5347349341027, 619.7593911071308, 1712.16920856433, 959.4470242825337, -0.33600001595914364, 0.01600000075995922, 0.9280000440776348, 0.0, 0.0, 0.0, 0.0, 0.0, 1.6480858279351592E9, 0.0, 2022-03-23 20:37:07.935
61.0, 970.4984286515974, 621.2067323899828, 1709.6859149937518, 956.3653467190452, -0.33600001595914364, 0.01600000075995922, 0.9280000440776348, 0.0, 0.0, 0.0, 0.0, 0.0, 1.6480858279358485E9, 0.0, 2022-03-23 20:37:07.935
61.0, 975.2855005948804, 629.5354895913042, 1716.4700935133733, 957.5247157053091, -0.33600001595914364, 0.01600000075995922, 0.9280000440776348, 0.0, 0.0, 0.0, 0.0, 0.0, 1.6480858279358485E9, 0.0, 2022-03-23 20:37:07.935
62.0, 967.0016221930273, 633.5334426439367, 1719.0842835824005, 955.5537884286605, -0.33600001595914364, 0.01600000075995922, 0.9280000440776348, 0.0, 0.0, 0.0, 0.0, 0.0, 1.648085827948084E9, 0.0, 2022-03-23 20:37:07.948
62.0, 966.896904994268, 632.2730963588692, 1727.2410053857602, 955.041422134731, -0.33600001595914364, 0.01600000075995922, 0.9280000440776348, 0.0, 0.0, 0.0, 0.0, 0.0, 1.648085827948084E9, 0.0, 2022-03-23 20:37:07.948
63.0, 986.048932667356, 643.3693795274012, 1731.0631831404753, 974.0775129091926, -0.33600001595914364, 0.01600000075995922, 0.9280000440776348, 0.0, 0.0, 0.0, 0.0, 0.0, 1.648085827963688E9, 0.0, 2022-03-23 20:37:07.963
63.0, 980.0089942389168, 648.9006915618666, 1732.248731426429, 971.1491712438874, -0.33600001595914364, 0.01600000075995922, 0.9280000440776348, 0.0, 0.0, 0.0, 0.0, 0.0, 1.648085827963688E9, 0.0, 2022-03-23 20:37:07.963
64.0, 976.9273166754283, 665.9097565603442, 1747.2419903487898, 983.5095405974425, -0.33600001595914364, 0.01600000075995922, 0.9280000440776348, 0.0, 0.0, 0.0, 0.0, 0.0, 1.64808582796446E9, 0.0, 2022-03-23 20:37:07.964
64.0, 992.0103331967257, 677.9260551179759, 1757.8707860228606, 992.5600984902121, -0.33600001595914364, 0.01600000075995922, 0.9280000440776348, 0.0, 0.0, 0.0, 0.0, 0.0, 1.64808582796446E9, 0.0, 2022-03-23 20:37:07.964
65.0, 994.8339576632716, 689.1382751851343, 1764.8569191400893, 995.28648555791, -0.33600001595914364, 0.01600000075995922, 0.9280000440776348, 0.0, 0.0, 0.0, 0.0, 0.0, 1.6480858279779985E9, 0.0, 2022-03-23 20:37:07.977
65.0, 996.5580515428446, 702.8038696232252, 1781.649069941137, 992.2309872941114, -0.33600001595914364, 0.01600000075995922, 0.9280000440776348, 0.0, 0.0, 0.0, 0.0, 0.0, 1.6480858279779985E9, 0.0, 2022-03-23 20:37:07.977
66.0, 1017.3593750963919, 716.9631308554672, 1801.1077694105916, 1014.1804601340555, -0.33600001595914364, 0.01600000075995922, 0.9280000440776348, 0.0, 0.0, 0.0, 0.0, 0.0, 1.648085827993688E9, 0.0, 2022-03-23 20:37:07.993
66.0, 1039.35746663576, 740.6067783753388, 1829.8975192694925, 1029.4205524534918, -0.33600001595914364, 0.01600000075995922, 0.9280000440776348, 0.0, 0.0, 0.0, 0.0, 0.0, 1.648085827993688E9, 0.0, 2022-03-23 20:37:07.993
67.0, 1037.5062161576934, 740.7750738733448, 1836.2553491941653, 1023.328255425673, -0.33600001595914364, 0.01600000075995922, 0.9280000440776348, 0.0, 0.0, 0.0, 0.0, 0.0, 1.6480858279944031E9, 0.0, 2022-03-23 20:37:07.994
67.0, 1044.0809602797963, 750.4389753588475, 1847.415210661944, 1036.4291249704547, -0.33600001595914364, 0.01600000075995922, 0.9280000440776348, 0.0, 0.0, 0.0, 0.0, 0.0, 1.6480858279944031E9, 0.0, 2022-03-23 20:37:07.994
68.0, 1049.7955274120905, 756.9015224822797, 1852.6884695994668, 1037.8315874538384, -0.33600001595914364, 0.01600000075995922, 0.9280000440776348, 0.0, 0.0, 0.0, 0.0, 0.0, 1.648085828008045E9, 0.0, 2022-03-23 20:37:08.008
68.0, 1062.5785054606386, 772.3660087990575, 1865.0376192531548, 1040.8235074183904, -0.33600001595914364, 0.01600000075995922, 0.9280000440776348, 0.0, 0.0, 0.0, 0.0, 0.0, 1.648085828008045E9, 0.0, 2022-03-23 20:37:08.008
69.0, 1058.6216913075186, 775.7580980588682, 1863.8707704669796, 1038.5870472448878, -0.33600001595914364, 0.01600000075995922, 0.9280000440776348, 0.0, 0.0, 0.0, 0.0, 0.0, 1.6480858280236468E9, 0.0, 2022-03-23 20:37:08.023
69.0, 1062.7729802583344, 776.2592446529306, 1863.1489697755314, 1037.6520722559653, -0.33600001595914364, 0.01600000075995922, 0.9280000440776348, 0.0, 0.0, 0.0, 0.0, 0.0, 1.6480858280236468E9, 0.0, 2022-03-23 20:37:08.023
70.0, 1047.5403677388094, 756.041345492471, 1849.935903232079, 1021.1591134513728, -0.33600001595914364, 0.01600000075995922, 0.9920000471174717, 0.0, 0.0, 0.0, 0.0, 0.0, 1.64808582802441E9, 0.0, 2022-03-23 20:37:08.024
70.0, 1020.0072242650203, 727.180537534412, 1828.1135869906284, 997.205054235179, -0.33600001595914364, 0.01600000075995922, 0.9920000471174717, 0.0, 0.0, 0.0, 0.0, 0.0, 1.64808582802441E9, 0.0, 2022-03-23 20:37:08.024
71.0, 1017.4940114947967, 733.5757664586417, 1819.736211089883, 982.7653005062602, -0.33600001595914364, -0.01600000075995922, 0.9920000471174717, 0.0, 0.0, 0.0, 0.0, 0.0, 1.6480858280380847E9, 0.0, 2022-03-23 20:37:08.038
71.0, 1018.9675320773385, 710.8932732273825, 1801.5864766049199, 992.9041692861356, -0.33600001595914364, -0.01600000075995922, 0.9920000471174717, 0.0, 0.0, 0.0, 0.0, 0.0, 1.6480858280380847E9, 0.0, 2022-03-23 20:37:08.038
72.0, 1006.0012989309616, 703.5555895143189, 1790.0601049414836, 988.6032843370922, -0.35200001671910286, -0.01600000075995922, 0.9920000471174717, 0.0, 0.0, 0.0, 0.0, 0.0, 1.6480858280537708E9, 0.0, 2022-03-23 20:37:08.053
72.0, 1006.0012989309616, 679.7623459962197, 1770.6163650718518, 983.5581592968665, -0.35200001671910286, -0.01600000075995922, 0.9920000471174717, 0.0, 0.0, 0.0, 0.0, 0.0, 1.6480858280537708E9, 0.0, 2022-03-23 20:37:08.053
73.0, 1007.878728708718, 666.34732485516, 1744.912032676395, 986.0900715668686, -0.35200001671910286, -0.01600000075995922, 0.9920000471174717, 0.0, 0.0, 0.0, 0.0, 0.0, 1.648085828054475E9, 0.0, 2022-03-23 20:37:08.054
73.0, 998.6710950178094, 653.8934580027126, 1738.5654224515893, 982.9597753039561, -0.35200001671910286, -0.01600000075995922, 0.9920000471174717, 0.0, 0.0, 0.0, 0.0, 0.0, 1.648085828054475E9, 0.0, 2022-03-23 20:37:08.054
74.0, 989.2839461290278, 647.688963976223, 1733.864368207287, 971.3773051411845, -0.35200001671910286, -0.01600000075995922, 0.9920000471174717, 0.0, 0.0, 0.0, 0.0, 0.0, 1.64808582806794E9, 0.0, 2022-03-23 20:37:08.067
74.0, 991.8794366982765, 638.6945045827888, 1722.854102737736, 969.3540192651562, -0.35200001671910286, -0.01600000075995922, 0.9920000471174717, 0.0, 0.0, 0.0, 0.0, 0.0, 1.64808582806794E9, 0.0, 2022-03-23 20:37:08.067
75.0, 975.049886897672, 624.8007762474008, 1707.56165181892, 955.5612682285719, -0.35200001671910286, -0.01600000075995922, 0.9920000471174717, 0.0, 0.0, 0.0, 0.0, 0.0, 1.648085828083683E9, 0.0, 2022-03-23 20:37:08.083
75.0, 949.6297868988477, 606.2583522670902, 1689.9205437279306, 939.2029458223842, -0.35200001671910286, -0.01600000075995922, 0.9920000471174717, 0.0, 0.0, 0.0, 0.0, 0.0, 1.648085828083683E9, 0.0, 2022-03-23 20:37:08.083
76.0, 957.2404833086766, 595.0386524000205, 1675.1928177024238, 936.8617684501223, -0.35200001671910286, -0.01600000075995922, 0.9920000471174717, 0.0, 0.0, 0.0, 0.0, 0.0, 1.648085828084466E9, 0.0, 2022-03-23 20:37:08.084
76.0, 947.2586903269403, 584.81750582112, 1667.2492701965384, 926.8575360686518, -0.35200001671910286, -0.01600000075995922, 0.9920000471174717, 0.0, 0.0, 0.0, 0.0, 0.0, 1.648085828084466E9, 0.0, 2022-03-23 20:37:08.084
77.0, 944.1844925633632, 584.7651472217403, 1652.394387572538, 923.9628535029478, -0.35200001671910286, -0.01600000075995922, 0.9920000471174717, 0.0, 0.0, 0.0, 0.0, 0.0, 1.6480858280979705E9, 0.0, 2022-03-23 20:37:08.097
77.0, 946.563068935182, 579.0393603895791, 1650.8984275902621, 923.0166588141583, -0.35200001671910286, -0.01600000075995922, 0.9920000471174717, 0.0, 0.0, 0.0, 0.0, 0.0, 1.6480858280979705E9, 0.0, 2022-03-23 20:37:08.097
78.0, 955.789402125869, 580.7073557698168, 1652.1886930749752, 926.4012682740577, -0.35200001671910286, -0.01600000075995922, 0.9920000471174717, 0.0, 0.0, 0.0, 0.0, 0.0, 1.648085828113669E9, 0.0, 2022-03-23 20:37:08.113
78.0, 951.0584286819212, 582.0836389535107, 1657.1552802161314, 927.6653544590808, -0.35200001671910286, -0.01600000075995922, 0.9920000471174717, 0.0, 0.0, 0.0, 0.0, 0.0, 1.648085828113669E9, 0.0, 2022-03-23 20:37:08.113
79.0, 944.3116491618566, 561.6039467961527, 1640.624922411982, 919.8788827513345, -0.35200001671910286, -0.01600000075995922, 0.9920000471174717, 0.0, 0.0, 0.0, 0.0, 0.0, 1.6480858281143785E9, 0.0, 2022-03-23 20:37:08.114
79.0, 953.5305025526322, 558.4699106332846, 1631.4883468202315, 931.6408681119792, -0.35200001671910286, -0.01600000075995922, 0.9920000471174717, 0.0, 0.0, 0.0, 0.0, 0.0, 1.6480858281143785E9, 0.0, 2022-03-23 20:37:08.114
80.0, 958.5419684932567, 554.8422076762654, 1635.2282467759214, 937.0861624474637, -0.35200001671910286, -0.01600000075995922, 1.008000047877431, 0.0, 0.0, 0.0, 0.0, 0.0, 1.6480858281279876E9, 0.0, 2022-03-23 20:37:08.127
80.0, 952.0158430705778, 545.8327886830084, 1627.9653610619716, 935.0217376719229, -0.35200001671910286, -0.01600000075995922, 1.008000047877431, 0.0, 0.0, 0.0, 0.0, 0.0, 1.6480858281279876E9, 0.0, 2022-03-23 20:37:08.127
81.0, 955.3406141311862, 539.7442315551452, 1627.5165730672888, 934.079282883089, -0.35200001671910286, 0.0, 1.008000047877431, 0.0, 0.0, 0.0, 0.0, 0.0, 1.6480858281436753E9, 0.0, 2022-03-23 20:37:08.143
81.0, 955.4116722303443, 538.6521807680838, 1623.4961806149222, 924.7893713931553, -0.35200001671910286, 0.0, 1.008000047877431, 0.0, 0.0, 0.0, 0.0, 0.0, 1.6480858281436753E9, 0.0, 2022-03-23 20:37:08.143
82.0, 938.204392534215, 531.1013227575459, 1609.628631579224, 914.4074091161601, -0.288000013679266, 0.0, 1.008000047877431, 0.0, 0.0, 0.0, 0.0, 0.0, 1.6480858281445172E9, 0.0, 2022-03-23 20:37:08.144
82.0, 948.0515491175465, 537.1936197853647, 1609.2135026841424, 915.9632074977271, -0.288000013679266, 0.0, 1.008000047877431, 0.0, 0.0, 0.0, 0.0, 0.0, 1.6480858281445172E9, 0.0, 2022-03-23 20:37:08.144
83.0, 971.0145348454826, 545.451318887528, 1622.5537258260883, 935.68369996408, -0.288000013679266, 0.0, 1.008000047877431, 0.0, 0.0, 0.0, 0.0, 0.0, 1.6480858281579723E9, 0.0, 2022-03-23 20:37:08.157
83.0, 957.0759277106263, 530.0204916703515, 1611.9398897518404, 915.5256392029114, -0.288000013679266, 0.0, 1.008000047877431, 0.0, 0.0, 0.0, 0.0, 0.0, 1.6480858281579723E9, 0.0, 2022-03-23 20:37:08.157
84.0, 954.4430381418206, 521.2354666744359, 1602.9566500582732, 912.1933883423917, -0.288000013679266, 0.0, 1.008000047877431, 0.0, 0.0, 0.0, 0.0, 0.0, 1.648085828173662E9, 0.0, 2022-03-23 20:37:08.173
84.0, 962.6932574440725, 522.4771134597249, 1598.689424208831, 901.7029689666815, -0.288000013679266, 0.0, 1.008000047877431, 0.0, 0.0, 0.0, 0.0, 0.0, 1.648085828173662E9, 0.0, 2022-03-23 20:37:08.173
85.0, 951.290302479174, 522.1966209630482, 1595.6563653447665, 885.0267550642602, -0.288000013679266, 0.0, 1.008000047877431, 0.0, 0.0, 0.0, 0.0, 0.0, 1.6480858281743803E9, 0.0, 2022-03-23 20:37:08.174
85.0, 942.4304794841446, 518.3894028081559, 1596.9503707294352, 895.1768435440026, -0.288000013679266, 0.0, 1.008000047877431, 0.0, 0.0, 0.0, 0.0, 0.0, 1.6480858281743803E9, 0.0, 2022-03-23 20:37:08.174
86.0, 954.027909246739, 526.2955513144843, 1607.2463153074495, 897.705015914049, -0.288000013679266, 0.0, 1.008000047877431, 0.0, 0.0, 0.0, 0.0, 0.0, 1.6480858281880264E9, 0.0, 2022-03-23 20:37:08.188
86.0, 936.7495714514516, 502.1470173005946, 1582.3872003019787, 878.7250236389227, -0.288000013679266, 0.0, 1.008000047877431, 0.0, 0.0, 0.0, 0.0, 0.0, 1.6480858281880264E9, 0.0, 2022-03-23 20:37:08.188
87.0, 946.3274552379735, 516.7139276280068, 1601.4532102760859, 891.6575976856984, -0.288000013679266, 0.0, 1.008000047877431, 0.0, 0.0, 0.0, 0.0, 0.0, 1.6480858282036486E9, 0.0, 2022-03-23 20:37:08.203
87.0, 949.7756429971196, 513.419075767044, 1594.878466153983, 890.0905796042643, -0.288000013679266, 0.0, 1.008000047877431, 0.0, 0.0, 0.0, 0.0, 0.0, 1.6480858282036486E9, 0.0, 2022-03-23 20:37:08.203
88.0, 960.1837845738046, 513.4714343664236, 1591.187184897717, 893.4153506648727, -0.288000013679266, 0.0, 1.008000047877431, 0.0, 0.0, 0.0, 0.0, 0.0, 1.648085828204407E9, 0.0, 2022-03-23 20:37:08.204
88.0, 944.5285633592866, 521.246686374303, 1599.5159420990385, 882.4387442949228, -0.288000013679266, 0.0, 1.008000047877431, 0.0, 0.0, 0.0, 0.0, 0.0, 1.648085828204407E9, 0.0, 2022-03-23 20:37:08.204
89.0, 937.2694175452925, 512.2410072810017, 1594.5830140574835, 868.9676246545278, -0.288000013679266, 0.0, 1.008000047877431, 0.0, 0.0, 0.0, 0.0, 0.0, 1.6480858282180648E9, 0.0, 2022-03-23 20:37:08.218
89.0, 938.7915568272583, 523.9581138421781, 1588.4720175298862, 862.4302795319818, -0.288000013679266, 0.0, 1.008000047877431, 0.0, 0.0, 0.0, 0.0, 0.0, 1.6480858282180648E9, 0.0, 2022-03-23 20:37:08.218
90.0, 928.6190289477818, 539.4412996587344, 1598.7081237086095, 853.0319109433331, -0.288000013679266, 0.0, 0.9600000455975533, 0.0, 0.0, 0.0, 0.0, 0.0, 1.648085828233744E9, 0.0, 2022-03-23 20:37:08.233
90.0, 935.2087326697074, 556.8056551530026, 1614.7971733179875, 854.4979517259635, -0.288000013679266, 0.0, 0.9600000455975533, 0.0, 0.0, 0.0, 0.0, 0.0, 1.648085828233744E9, 0.0, 2022-03-23 20:37:08.233
91.0, 953.43700505374, 574.1363515476696, 1619.9694549567066, 875.8826996725984, -0.288000013679266, 0.0, 0.9600000455975533, 0.0, 0.0, 0.0, 0.0, 0.0, 1.6480858282344444E9, 0.0, 2022-03-23 20:37:08.234
91.0, 938.1931728343479, 577.5247009075247, 1606.7002899139188, 884.7612221674062, -0.288000013679266, 0.0, 0.9600000455975533, 0.0, 0.0, 0.0, 0.0, 0.0, 1.6480858282344444E9, 0.0, 2022-03-23 20:37:08.234
92.0, 930.8293098215945, 589.7092949631624, 1613.5891856322996, 887.3342733369209, -0.27200001291930676, 0.0, 0.9600000455975533, 0.0, 0.0, 0.0, 0.0, 0.0, 1.6480858282479365E9, 0.0, 2022-03-23 20:37:08.247
92.0, 952.0719415699132, 588.037559682969, 1615.0851456145756, 878.1453391457908, -0.27200001291930676, 0.0, 0.9600000455975533, 0.0, 0.0, 0.0, 0.0, 0.0, 1.6480858282479365E9, 0.0, 2022-03-23 20:37:08.247
93.0, 961.0215221638791, 582.9924346427433, 1608.5627600918524, 881.2718955087475, -0.27200001291930676, 0.0, 0.9600000455975533, 0.0, 0.0, 0.0, 0.0, 0.0, 1.6480858282636836E9, 0.0, 2022-03-23 20:37:08.263
93.0, 935.4144271672703, 562.7932349820621, 1598.7081237086095, 866.757343780715, -0.27200001291930676, 0.0, 0.9600000455975533, 0.0, 0.0, 0.0, 0.0, 0.0, 1.6480858282636836E9, 0.0, 2022-03-23 20:37:08.263
94.0, 933.4584594904445, 564.3677328634076, 1599.9348108940758, 861.1437539472245, -0.27200001291930676, 0.0, 0.9600000455975533, 0.0, 0.0, 0.0, 0.0, 0.0, 1.648085828264413E9, 0.0, 2022-03-23 20:37:08.264
94.0, 955.7557430262677, 565.3625462516211, 1596.737196431961, 874.7943887854926, -0.27200001291930676, 0.0, 0.9600000455975533, 0.0, 0.0, 0.0, 0.0, 0.0, 1.648085828264413E9, 0.0, 2022-03-23 20:37:08.264
95.0, 953.3584671546705, 566.3536197398789, 1598.6632449091412, 870.8188751325943, -0.27200001291930676, 0.0, 0.9600000455975533, 0.0, 0.0, 0.0, 0.0, 0.0, 1.6480858282779849E9, 0.0, 2022-03-23 20:37:08.277
95.0, 946.6378669342957, 556.8467940525152, 1588.9469848242588, 857.0186442960985, -0.27200001291930676, 0.0, 0.9600000455975533, 0.0, 0.0, 0.0, 0.0, 0.0, 1.6480858282779849E9, 0.0, 2022-03-23 20:37:08.277
96.0, 949.0837615053169, 556.0913342614658, 1587.0358959469013, 866.0692021888681, -0.27200001291930676, 0.0, 0.9600000455975533, 0.0, 0.0, 0.0, 0.0, 0.0, 1.6480858282936409E9, 0.0, 2022-03-23 20:37:08.293
96.0, 959.3049080842175, 554.5317959799431, 1583.9355188836344, 880.060167923104, -0.27200001291930676, 0.0, 0.9600000455975533, 0.0, 0.0, 0.0, 0.0, 0.0, 1.6480858282936409E9, 0.0, 2022-03-23 20:37:08.293
97.0, 959.5293020815589, 557.0562284500338, 1585.229524268303, 874.6971513866447, -0.27200001291930676, 0.0, 0.9600000455975533, 0.0, 0.0, 0.0, 0.0, 0.0, 1.6480858282944424E9, 0.0, 2022-03-23 20:37:08.294
97.0, 969.900044658687, 563.4888563738205, 1597.675911320839, 875.7405834742822, -0.27200001291930676, 0.0, 0.9600000455975533, 0.0, 0.0, 0.0, 0.0, 0.0, 1.6480858282944424E9, 0.0, 2022-03-23 20:37:08.294
98.0, 967.6037460858934, 558.4998298329301, 1591.647192592267, 883.6205526809208, -0.27200001291930676, 0.0, 0.9600000455975533, 0.0, 0.0, 0.0, 0.0, 0.0, 1.648085828307977E9, 0.0, 2022-03-23 20:37:08.307
98.0, 960.0753274750896, 551.4875174160115, 1581.841174908448, 877.6778516513295, -0.27200001291930676, 0.0, 0.9600000455975533, 0.0, 0.0, 0.0, 0.0, 0.0, 1.648085828307977E9, 0.0, 2022-03-23 20:37:08.307
99.0, 956.391526018735, 544.0750357038341, 1582.9781044949777, 870.459844736848, -0.27200001291930676, 0.0, 0.9600000455975533, 0.0, 0.0, 0.0, 0.0, 0.0, 1.6480858283237045E9, 0.0, 2022-03-23 20:37:08.323
99.0, 963.7703486313112, 542.2948433249258, 1586.183198757004, 874.210964392405, -0.27200001291930676, 0.0, 0.9600000455975533, 0.0, 0.0, 0.0, 0.0, 0.0, 1.6480858283237045E9, 0.0, 2022-03-23 20:37:08.323
100.0, 964.2415760257281, 546.5919883740135, 1594.0407285639085, 871.2115646279417, -0.27200001291930676, 0.0, 0.944000044837594, 0.0, 0.0, 0.0, 0.0, 0.0, 1.6480858283244567E9, 0.0, 2022-03-23 20:37:08.324
100.0, 955.7781824260019, 544.9987909928896, 1594.2688624612056, 872.015643118415, -0.27200001291930676, 0.0, 0.944000044837594, 0.0, 0.0, 0.0, 0.0, 0.0, 1.6480858283244567E9, 0.0, 2022-03-23 20:37:08.324
0.0, 968.9875090694986, 550.565632076934, 1601.9057381707244, 893.0918493187055, -0.27200001291930676, 0.0, 0.944000044837594, 0.0, 0.0, 0.0, 0.0, 0.0, 1.6480858283393452E9, 0.0, 2022-03-23 20:37:08.339
1.0, 960.034188575577, 546.391903726384, 1593.408685471397, 890.8329497454688, -0.27200001291930676, 0.0800000037997961, 0.944000044837594, 0.0, 0.0, 0.0, 0.0, 0.0, 1.6480858283400538E9, 0.0, 2022-03-23 20:37:08.340
1.0, 943.2532574743964, 535.2806609580293, 1584.8031756733544, 878.1696484955028, -0.27200001291930676, 0.0800000037997961, 0.944000044837594, 0.0, 0.0, 0.0, 0.0, 0.0, 1.6480858283400538E9, 0.0, 2022-03-23 20:37:08.340
2.0, 952.0270627704449, 541.0438467897475, 1585.846607760992, 874.2090944424272, -0.2240000106394291, 0.0800000037997961, 0.944000044837594, 0.0, 0.0, 0.0, 0.0, 0.0, 1.648085828369387E9, 0.0, 2022-03-23 20:37:08.369
2.0, 963.0522878398187, 540.7932734927163, 1587.3500475431792, 869.6538962963969, -0.2240000106394291, 0.0800000037997961, 0.944000044837594, 0.0, 0.0, 0.0, 0.0, 0.0, 1.648085828369387E9, 0.0, 2022-03-23 20:37:08.369
3.0, 953.3173282551579, 538.070626324974, 1596.1275927391835, 867.8849236173555, -0.2240000106394291, 0.0800000037997961, 0.944000044837594, 0.0, 0.0, 0.0, 0.0, 0.0, 1.6480858283700783E9, 0.0, 2022-03-23 20:37:08.370
3.0, 949.6484863986261, 538.1716036237776, 1605.600759326946, 876.9392214100808, -0.2240000106394291, 0.0800000037997961, 0.944000044837594, 0.0, 0.0, 0.0, 0.0, 0.0, 1.6480858283700783E9, 0.0, 2022-03-23 20:37:08.370
4.0, 942.1649465872906, 531.3238468049094, 1588.4720175298862, 868.5730652092025, -0.2240000106394291, 0.0800000037997961, 0.944000044837594, 0.0, 0.0, 0.0, 0.0, 0.0, 1.6480858283709803E9, 0.0, 2022-03-23 20:37:08.370
4.0, 935.5827226652764, 531.1854705065489, 1589.7585431146435, 853.4713491881266, -0.2240000106394291, 0.0800000037997961, 0.944000044837594, 0.0, 0.0, 0.0, 0.0, 0.0, 1.6480858283709803E9, 0.0, 2022-03-23 20:37:08.370
5.0, 933.7576514868997, 537.745255028829, 1601.2923945779912, 855.4385365648195, -0.2240000106394291, 0.0800000037997961, 0.944000044837594, 0.0, 0.0, 0.0, 0.0, 0.0, 1.6480858284157171E9, 0.0, 2022-03-23 20:37:08.415
5.0, 930.8106103218161, 528.8555128341541, 1595.7872618432157, 842.0870937230065, -0.2240000106394291, 0.0800000037997961, 0.944000044837594, 0.0, 0.0, 0.0, 0.0, 0.0, 1.6480858284157171E9, 0.0, 2022-03-23 20:37:08.415
6.0, 918.992526461836, 529.9887025207281, 1597.0775273279287, 835.4225920019671, -0.2240000106394291, 0.0800000037997961, 0.944000044837594, 0.0, 0.0, 0.0, 0.0, 0.0, 1.648085828416443E9, 0.0, 2022-03-23 20:37:08.416
6.0, 913.6070705256425, 526.2824616646394, 1605.4100244292058, 827.7146581932902, -0.2240000106394291, 0.0800000037997961, 0.944000044837594, 0.0, 0.0, 0.0, 0.0, 0.0, 1.648085828416443E9, 0.0, 2022-03-23 20:37:08.416
7.0, 922.75486581726, 531.9035312980413, 1611.8650917527266, 842.6218994166702, -0.2240000106394291, 0.0800000037997961, 0.944000044837594, 0.0, 0.0, 0.0, 0.0, 0.0, 1.6480858284172668E9, 0.0, 2022-03-23 20:37:08.417
7.0, 931.6633075117134, 532.3186601931229, 1608.71235609008, 851.1301718158647, -0.2240000106394291, 0.0800000037997961, 0.944000044837594, 0.0, 0.0, 0.0, 0.0, 0.0, 1.6480858284172668E9, 0.0, 2022-03-23 20:37:08.417
8.0, 924.5799369956367, 531.5931196017191, 1614.62139802007, 850.741222220473, -0.2240000106394291, 0.0800000037997961, 0.944000044837594, 0.0, 0.0, 0.0, 0.0, 0.0, 1.6480858284180608E9, 0.0, 2022-03-23 20:37:08.418
8.0, 929.8606757330708, 530.3178137168288, 1615.6087316083722, 842.7303565153852, -0.2240000106394291, 0.0800000037997961, 0.944000044837594, 0.0, 0.0, 0.0, 0.0, 0.0, 1.6480858284180608E9, 0.0, 2022-03-23 20:37:08.418
9.0, 936.1923263580538, 531.2266094060615, 1619.3710709637962, 837.5543349767104, -0.2240000106394291, 0.0800000037997961, 0.944000044837594, 0.0, 0.0, 0.0, 0.0, 0.0, 1.6480858284286335E9, 0.0, 2022-03-23 20:37:08.428
9.0, 933.585616088938, 533.9791757734492, 1619.2027754657902, 861.2765203956515, -0.2240000106394291, 0.0800000037997961, 0.944000044837594, 0.0, 0.0, 0.0, 0.0, 0.0, 1.6480858284286335E9, 0.0, 2022-03-23 20:37:08.428
10.0, 915.0918108080514, 534.5027617672458, 1624.752787000034, 858.4977747285739, -0.2240000106394291, 0.0800000037997961, 0.9600000455975533, 0.0, 0.0, 0.0, 0.0, 0.0, 1.648085828429478E9, 0.0, 2022-03-23 20:37:08.429
10.0, 921.3898023334332, 547.0351665187627, 1637.6292625474744, 863.5989982681349, -0.2240000106394291, 0.0800000037997961, 0.9600000455975533, 0.0, 0.0, 0.0, 0.0, 0.0, 1.648085828429478E9, 0.0, 2022-03-23 20:37:08.429
11.0, 926.3601293745451, 549.5296797892079, 1637.4460074496455, 843.5830537052825, -0.2240000106394291, 0.0800000037997961, 0.9600000455975533, 0.0, 0.0, 0.0, 0.0, 0.0, 1.6480858284429684E9, 0.0, 2022-03-23 20:37:08.442
11.0, 903.9656084398739, 548.8901568967849, 1637.2814518515952, 829.4574515726417, -0.2240000106394291, 0.0800000037997961, 0.9600000455975533, 0.0, 0.0, 0.0, 0.0, 0.0, 1.6480858284429684E9, 0.0, 2022-03-23 20:37:08.442
12.0, 920.8437769399025, 555.5621384177357, 1649.9634526013397, 839.1213530581445, -0.2400000113993883, 0.0800000037997961, 0.9600000455975533, 0.0, 0.0, 0.0, 0.0, 0.0, 1.6480858284586673E9, 0.0, 2022-03-23 20:37:08.458
12.0, 926.0871166777797, 557.4171287957579, 1648.7629447155632, 834.1285866172984, -0.2400000113993883, 0.0800000037997961, 0.9600000455975533, 0.0, 0.0, 0.0, 0.0, 0.0, 1.6480858284586673E9, 0.0, 2022-03-23 20:37:08.458
13.0, 910.9442617571913, 549.3613842912018, 1637.8947954443283, 811.0160048911348, -0.2400000113993883, 0.0800000037997961, 0.9600000455975533, 0.0, 0.0, 0.0, 0.0, 0.0, 1.6480858284593477E9, 0.0, 2022-03-23 20:37:08.459
13.0, 918.835450663697, 555.2741661211476, 1643.313910480123, 828.911426179111, -0.2400000113993883, 0.0800000037997961, 0.9600000455975533, 0.0, 0.0, 0.0, 0.0, 0.0, 1.6480858284593477E9, 0.0, 2022-03-23 20:37:08.459
14.0, 939.1393675231375, 547.1623231172562, 1633.9828600906767, 841.514889029786, -0.2400000113993883, 0.0800000037997961, 0.9600000455975533, 0.0, 0.0, 0.0, 0.0, 0.0, 1.648085828473018E9, 0.0, 2022-03-23 20:37:08.473
14.0, 941.039236700628, 548.7256012987345, 1640.164914717432, 833.361907126382, -0.2400000113993883, 0.0800000037997961, 0.9600000455975533, 0.0, 0.0, 0.0, 0.0, 0.0, 1.648085828473018E9, 0.0, 2022-03-23 20:37:08.473
15.0, 949.3455545022152, 552.0354127595201, 1654.5597896468826, 842.1992907216772, -0.2400000113993883, 0.0800000037997961, 0.9600000455975533, 0.0, 0.0, 0.0, 0.0, 0.0, 1.648085828488697E9, 0.0, 2022-03-23 20:37:08.488
15.0, 952.1504794689827, 547.1062246179208, 1648.198219822254, 837.438398078084, -0.2400000113993883, 0.0800000037997961, 0.9600000455975533, 0.0, 0.0, 0.0, 0.0, 0.0, 1.648085828488697E9, 0.0, 2022-03-23 20:37:08.488
16.0, 965.3785056122579, 561.998506241478, 1649.765237903688, 831.5667551476508, -0.2400000113993883, 0.0800000037997961, 0.9600000455975533, 0.0, 0.0, 0.0, 0.0, 0.0, 1.6480858284894583E9, 0.0, 2022-03-23 20:37:08.489
16.0, 959.0917337867431, 555.8463708143681, 1638.0743106422015, 828.0699486890808, -0.2400000113993883, 0.0800000037997961, 0.9600000455975533, 0.0, 0.0, 0.0, 0.0, 0.0, 1.6480858284894583E9, 0.0, 2022-03-23 20:37:08.489
17.0, 966.9904024931602, 551.0181599715725, 1640.6024830122478, 836.1855315929279, -0.2400000113993883, 0.0800000037997961, 0.9600000455975533, 0.0, 0.0, 0.0, 0.0, 0.0, 1.6480858285029454E9, 0.0, 2022-03-23 20:37:08.502
17.0, 977.4845617688261, 559.1000837758183, 1654.1297011519782, 837.7675092741847, -0.2400000113993883, 0.0800000037997961, 0.9600000455975533, 0.0, 0.0, 0.0, 0.0, 0.0, 1.6480858285029454E9, 0.0, 2022-03-23 20:37:08.502
18.0, 956.5261624171399, 550.5880714766681, 1633.9155418914743, 800.7574593126774, -0.2400000113993883, 0.0800000037997961, 0.9600000455975533, 0.0, 0.0, 0.0, 0.0, 0.0, 1.6480858285186749E9, 0.0, 2022-03-23 20:37:08.518
18.0, 939.6891328166239, 540.7184754936025, 1633.4143952974118, 762.0345351714641, -0.2400000113993883, 0.0800000037997961, 0.9600000455975533, 0.0, 0.0, 0.0, 0.0, 0.0, 1.6480858285186749E9, 0.0, 2022-03-23 20:37:08.518
19.0, 952.1056006695144, 543.7141353581101, 1627.8456842633896, 721.5127191515639, -0.2400000113993883, 0.0800000037997961, 0.9600000455975533, 0.0, 0.0, 0.0, 0.0, 0.0, 1.6480858285194325E9, 0.0, 2022-03-23 20:37:08.519
19.0, 936.0240308600478, 540.7558744931594, 1635.2132871760987, 693.3886714847758, -0.2400000113993883, 0.0800000037997961, 0.9600000455975533, 0.0, 0.0, 0.0, 0.0, 0.0, 1.6480858285194325E9, 0.0, 2022-03-23 20:37:08.519
20.0, 943.2906564739533, 546.7883331216872, 1645.2212594575249, 739.7634309353307, -0.2400000113993883, 0.0800000037997961, 0.9280000440776348, 0.0, 0.0, 0.0, 0.0, 0.0, 1.6480858285330188E9, 0.0, 2022-03-23 20:37:08.533
20.0, 957.681791503448, 542.5435466719791, 1648.7367654158734, 777.7608144851401, -0.2400000113993883, 0.0800000037997961, 0.9280000440776348, 0.0, 0.0, 0.0, 0.0, 0.0, 1.6480858285330188E9, 0.0, 2022-03-23 20:37:08.533
21.0, 961.3207141603343, 547.0538660185412, 1665.2072848207317, 809.8528960049152, -0.2400000113993883, -0.01600000075995922, 0.9280000440776348, 0.0, 0.0, 0.0, 0.0, 0.0, 1.6480858285486398E9, 0.0, 2022-03-23 20:37:08.548
21.0, 965.1728111146949, 554.4027694314718, 1685.260628383141, 852.6149120982736, -0.2400000113993883, -0.01600000075995922, 0.9280000440776348, 0.0, 0.0, 0.0, 0.0, 0.0, 1.6480858285486398E9, 0.0, 2022-03-23 20:37:08.548
22.0, 977.3723647701554, 554.8141584265977, 1694.015734179411, 855.5357739636675, -0.3040000144392252, -0.01600000075995922, 0.9280000440776348, 0.0, 0.0, 0.0, 0.0, 0.0, 1.6480858285493653E9, 0.0, 2022-03-23 20:37:08.549
22.0, 980.1660700370558, 556.7701261034235, 1691.0724329142831, 856.276274154894, -0.3040000144392252, -0.01600000075995922, 0.9280000440776348, 0.0, 0.0, 0.0, 0.0, 0.0, 1.6480858285493653E9, 0.0, 2022-03-23 20:37:08.549
23.0, 970.7490019486286, 565.315797502175, 1695.3957572630607, 845.1238924870268, -0.3040000144392252, -0.01600000075995922, 0.9280000440776348, 0.0, 0.0, 0.0, 0.0, 0.0, 1.648085828562957E9, 0.0, 2022-03-23 20:37:08.562
23.0, 972.480575628113, 582.1378675028682, 1707.670108917635, 847.6745042568073, -0.3040000144392252, -0.01600000075995922, 0.9280000440776348, 0.0, 0.0, 0.0, 0.0, 0.0, 1.648085828562957E9, 0.0, 2022-03-23 20:37:08.562
24.0, 981.912603316363, 595.9231387395412, 1719.390955378767, 850.1054392280057, -0.3040000144392252, -0.01600000075995922, 0.9280000440776348, 0.0, 0.0, 0.0, 0.0, 0.0, 1.6480858285786269E9, 0.0, 2022-03-23 20:37:08.578
24.0, 965.7038769084029, 588.4134196285158, 1704.580951554235, 840.2395831448957, -0.3040000144392252, -0.01600000075995922, 0.9280000440776348, 0.0, 0.0, 0.0, 0.0, 0.0, 1.6480858285786269E9, 0.0, 2022-03-23 20:37:08.578
25.0, 963.4374975352548, 591.2632233947515, 1715.568777624052, 846.5637539699674, -0.3040000144392252, -0.01600000075995922, 0.9280000440776348, 0.0, 0.0, 0.0, 0.0, 0.0, 1.6480858285793755E9, 0.0, 2022-03-23 20:37:08.579
25.0, 981.6732497191988, 593.4398451689631, 1718.7327329865657, 863.5541194686666, -0.3040000144392252, -0.01600000075995922, 0.9280000440776348, 0.0, 0.0, 0.0, 0.0, 0.0, 1.6480858285793755E9, 0.0, 2022-03-23 20:37:08.579
26.0, 980.210948836524, 595.7099644420668, 1705.4299088441767, 858.4229767294601, -0.3040000144392252, -0.01600000075995922, 0.9280000440776348, 0.0, 0.0, 0.0, 0.0, 0.0, 1.6480858285930026E9, 0.0, 2022-03-23 20:37:08.593
26.0, 970.6218453501351, 600.0706877904013, 1708.418088908773, 855.3151198662817, -0.3040000144392252, -0.01600000075995922, 0.9280000440776348, 0.0, 0.0, 0.0, 0.0, 0.0, 1.6480858285930026E9, 0.0, 2022-03-23 20:37:08.593
27.0, 971.7587749366648, 589.9168594107032, 1695.0030677677132, 856.6427843505517, -0.3040000144392252, -0.01600000075995922, 0.9280000440776348, 0.0, 0.0, 0.0, 0.0, 0.0, 1.648085828608636E9, 0.0, 2022-03-23 20:37:08.608
27.0, 973.4417299167253, 575.1255550859496, 1681.8012209241278, 853.4526496883482, -0.3040000144392252, -0.01600000075995922, 0.9280000440776348, 0.0, 0.0, 0.0, 0.0, 0.0, 1.648085828608636E9, 0.0, 2022-03-23 20:37:08.608
28.0, 958.0034228996374, 569.3698490541428, 1674.7963883071207, 844.1290790988132, -0.3040000144392252, -0.01600000075995922, 0.9280000440776348, 0.0, 0.0, 0.0, 0.0, 0.0, 1.648085828609406E9, 0.0, 2022-03-23 20:37:08.609
28.0, 958.3549734954722, 566.4901260882616, 1680.978442933876, 840.5612145410851, -0.3040000144392252, -0.01600000075995922, 0.9280000440776348, 0.0, 0.0, 0.0, 0.0, 0.0, 1.648085828609406E9, 0.0, 2022-03-23 20:37:08.609
29.0, 963.8077476308681, 559.1674019750208, 1661.8712940602563, 843.601753205061, -0.3040000144392252, -0.01600000075995922, 0.9280000440776348, 0.0, 0.0, 0.0, 0.0, 0.0, 1.6480858286230087E9, 0.0, 2022-03-23 20:37:08.623
29.0, 961.2421762612648, 559.8705031666905, 1657.316095914226, 839.0652545588091, -0.3040000144392252, -0.01600000075995922, 0.9280000440776348, 0.0, 0.0, 0.0, 0.0, 0.0, 1.6480858286230087E9, 0.0, 2022-03-23 20:37:08.623
30.0, 955.366793430876, 564.1863477155566, 1664.118973933626, 842.9584904126823, -0.3040000144392252, -0.01600000075995922, 0.944000044837594, 0.0, 0.0, 0.0, 0.0, 0.0, 1.6480858286386845E9, 0.0, 2022-03-23 20:37:08.638
30.0, 954.293442143593, 564.193827515468, 1666.1871386091225, 837.4047389784828, -0.3040000144392252, -0.01600000075995922, 0.944000044837594, 0.0, 0.0, 0.0, 0.0, 0.0, 1.6480858286386845E9, 0.0, 2022-03-23 20:37:08.638
31.0, 945.560775747057, 561.4973596474156, 1662.308862355072, 832.0978209413588, -0.3040000144392252, 0.0, 0.944000044837594, 0.0, 0.0, 0.0, 0.0, 0.0, 1.6480858286394455E9, 0.0, 2022-03-23 20:37:08.639
31.0, 959.2974282843061, 591.9700644863769, 1694.5542797730304, 853.1983364913613, -0.3040000144392252, 0.0, 0.944000044837594, 0.0, 0.0, 0.0, 0.0, 0.0, 1.6480858286394455E9, 0.0, 2022-03-23 20:37:08.639
32.0, 972.7236691252328, 616.4626692961901, 1720.7934178621508, 860.2891868073493, -0.3200000151991844, 0.0, 0.944000044837594, 0.0, 0.0, 0.0, 0.0, 0.0, 1.648085828652972E9, 0.0, 2022-03-23 20:37:08.652
32.0, 973.2734344187193, 616.3130732979625, 1712.8984890556894, 855.7788674607873, -0.3200000151991844, 0.0, 0.944000044837594, 0.0, 0.0, 0.0, 0.0, 0.0, 1.648085828652972E9, 0.0, 2022-03-23 20:37:08.652
33.0, 978.2961200592108, 631.5531656173989, 1741.5274232164957, 860.8314723009244, -0.3200000151991844, 0.0, 0.944000044837594, 0.0, 0.0, 0.0, 0.0, 0.0, 1.648085828668642E9, 0.0, 2022-03-23 20:37:08.668
33.0, 979.717282042373, 642.2604991905391, 1758.1026598201133, 871.9988135686144, -0.3200000151991844, 0.0, 0.944000044837594, 0.0, 0.0, 0.0, 0.0, 0.0, 1.648085828668642E9, 0.0, 2022-03-23 20:37:08.668
34.0, 994.9237152622081, 645.4244545530528, 1773.1856763414107, 888.3010374754667, -0.3200000151991844, 0.0, 0.944000044837594, 0.0, 0.0, 0.0, 0.0, 0.0, 1.6480858286693487E9, 0.0, 2022-03-23 20:37:08.669
34.0, 970.2665548543446, 632.0991910109296, 1768.189170000609, 875.9743272215128, -0.3200000151991844, 0.0, 0.944000044837594, 0.0, 0.0, 0.0, 0.0, 0.0, 1.6480858286693487E9, 0.0, 2022-03-23 20:37:08.669
35.0, 971.7101562372409, 624.6754895988852, 1773.4736486379988, 875.0468320325017, -0.3200000151991844, 0.0, 0.944000044837594, 0.0, 0.0, 0.0, 0.0, 0.0, 1.648085828683077E9, 0.0, 2022-03-23 20:37:08.683
35.0, 992.8667702865787, 621.2273018397391, 1786.413702484686, 894.8795214975253, -0.3200000151991844, 0.0, 0.944000044837594, 0.0, 0.0, 0.0, 0.0, 0.0, 1.648085828683077E9, 0.0, 2022-03-23 20:37:08.683
36.0, 980.7719338298775, 604.0013226438314, 1781.237680946011, 885.4886327087879, -0.3200000151991844, 0.0, 0.944000044837594, 0.0, 0.0, 0.0, 0.0, 0.0, 1.6480858286986744E9, 0.0, 2022-03-23 20:37:08.698
36.0, 979.7397214421071, 596.2073711361736, 1794.1403357931413, 880.6903410656378, -0.3200000151991844, 0.0, 0.944000044837594, 0.0, 0.0, 0.0, 0.0, 0.0, 1.6480858286986744E9, 0.0, 2022-03-23 20:37:08.698
37.0, 979.6237845434807, 578.9402530407533, 1777.7670537871309, 877.72086050082, -0.3200000151991844, 0.0, 0.944000044837594, 0.0, 0.0, 0.0, 0.0, 0.0, 1.648085828699422E9, 0.0, 2022-03-23 20:37:08.699
37.0, 970.4535498521291, 562.2976982379332, 1747.0213362514041, 870.2896792888641, -0.3200000151991844, 0.0, 0.944000044837594, 0.0, 0.0, 0.0, 0.0, 0.0, 1.648085828699422E9, 0.0, 2022-03-23 20:37:08.699
38.0, 969.477435963694, 550.1280637821183, 1740.6597664267756, 881.3448235578835, -0.3200000151991844, 0.0, 0.944000044837594, 0.0, 0.0, 0.0, 0.0, 0.0, 1.6480858287130792E9, 0.0, 2022-03-23 20:37:08.713
38.0, 965.5393213103525, 549.757813686505, 1743.0159033988602, 869.2686866009608, -0.3200000151991844, 0.0, 0.944000044837594, 0.0, 0.0, 0.0, 0.0, 0.0, 1.6480858287130792E9, 0.0, 2022-03-23 20:37:08.713
39.0, 953.7810758496635, 521.9179984163493, 1718.5943566882052, 853.0263010933995, -0.3200000151991844, 0.0, 0.944000044837594, 0.0, 0.0, 0.0, 0.0, 0.0, 1.6480858287450676E9, 0.0, 2022-03-23 20:37:08.745
39.0, 937.9351197374053, 509.4005532646552, 1686.0310477740131, 838.788501962088, -0.3200000151991844, 0.0, 0.944000044837594, 0.0, 0.0, 0.0, 0.0, 0.0, 1.6480858287450676E9, 0.0, 2022-03-23 20:37:08.745
40.0, 937.1759200464003, 509.19111886713654, 1691.8503321050666, 845.7260163798928, -0.3200000151991844, 0.0, 0.8960000425577164, 0.0, 0.0, 0.0, 0.0, 0.0, 1.648085828745804E9, 0.0, 2022-03-23 20:37:08.745
40.0, 939.5806757179089, 492.6458014631644, 1665.2858227198012, 839.9964896477759, -0.3200000151991844, 0.0, 0.8960000425577164, 0.0, 0.0, 0.0, 0.0, 0.0, 1.648085828745804E9, 0.0, 2022-03-23 20:37:08.745
41.0, 928.3946349504404, 471.4929273137823, 1638.1453687413596, 826.0803219126537, -0.3200000151991844, 0.0, 0.8960000425577164, 0.0, 0.0, 0.0, 0.0, 0.0, 1.6480858287465265E9, 0.0, 2022-03-23 20:37:08.746
41.0, 918.5960970665328, 463.56807930767536, 1637.909755044151, 830.0633153654635, -0.3200000151991844, 0.0, 0.8960000425577164, 0.0, 0.0, 0.0, 0.0, 0.0, 1.6480858287465265E9, 0.0, 2022-03-23 20:37:08.746
42.0, 919.5422917553224, 448.7730350829661, 1624.1207439075224, 824.8536347271875, -0.35200001671910286, 0.0, 0.8960000425577164, 0.0, 0.0, 0.0, 0.0, 0.0, 1.6480858287472143E9, 0.0, 2022-03-23 20:37:08.747
42.0, 919.4226149567403, 447.2508958010003, 1616.936396092642, 821.5625227661803, -0.35200001671910286, 0.0, 0.8960000425577164, 0.0, 0.0, 0.0, 0.0, 0.0, 1.6480858287472143E9, 0.0, 2022-03-23 20:37:08.747
43.0, 913.8613837226294, 445.3547665234655, 1598.7043838086538, 808.4429537216201, -0.35200001671910286, 0.0, 0.8960000425577164, 0.0, 0.0, 0.0, 0.0, 0.0, 1.6480858287580187E9, 0.0, 2022-03-23 20:37:08.758
43.0, 900.1733498848043, 425.54825635813177, 1577.0915019647218, 803.6745812781155, -0.35200001671910286, 0.0, 0.8960000425577164, 0.0, 0.0, 0.0, 0.0, 0.0, 1.6480858287580187E9, 0.0, 2022-03-23 20:37:08.758
44.0, 902.7351813544519, 424.0485564759001, 1567.0162114840932, 802.2758586946875, -0.35200001671910286, 0.0, 0.8960000425577164, 0.0, 0.0, 0.0, 0.0, 0.0, 1.6480858287730803E9, 0.0, 2022-03-23 20:37:08.773
44.0, 891.6762971854769, 411.1496415287256, 1545.0368194445036, 785.4238694943488, -0.35200001671910286, 0.0, 0.8960000425577164, 0.0, 0.0, 0.0, 0.0, 0.0, 1.6480858287730803E9, 0.0, 2022-03-23 20:37:08.773
45.0, 895.980922034476, 412.69422021042556, 1547.5724716144614, 799.1642619315535, -0.35200001671910286, 0.0, 0.8960000425577164, 0.0, 0.0, 0.0, 0.0, 0.0, 1.6480858287886832E9, 0.0, 2022-03-23 20:37:08.788
45.0, 910.368317164015, 418.019837747328, 1561.9336874443106, 815.8591753337532, -0.35200001671910286, 0.0, 0.8960000425577164, 0.0, 0.0, 0.0, 0.0, 0.0, 1.6480858287886832E9, 0.0, 2022-03-23 20:37:08.788
46.0, 903.6851159431972, 415.91427407227457, 1555.1195897250436, 809.9950122032315, -0.35200001671910286, 0.0, 0.8960000425577164, 0.0, 0.0, 0.0, 0.0, 0.0, 1.6480858287894206E9, 0.0, 2022-03-23 20:37:08.789
46.0, 892.5888327746652, 419.6466942280531, 1545.1789356428199, 795.3084250772372, -0.35200001671910286, 0.0, 0.8960000425577164, 0.0, 0.0, 0.0, 0.0, 0.0, 1.6480858287894206E9, 0.0, 2022-03-23 20:37:08.789
47.0, 902.2228150605224, 424.3402686724439, 1550.7513865767978, 803.7568590771407, -0.35200001671910286, 0.0, 0.8960000425577164, 0.0, 0.0, 0.0, 0.0, 0.0, 1.6480858288030093E9, 0.0, 2022-03-23 20:37:08.803
47.0, 902.3462317590602, 422.53015709389, 1563.4446070264094, 813.1253084661439, -0.35200001671910286, 0.0, 0.8960000425577164, 0.0, 0.0, 0.0, 0.0, 0.0, 1.6480858288030093E9, 0.0, 2022-03-23 20:37:08.803
48.0, 886.5563741461374, 413.086909705773, 1549.9847070858814, 793.030826004222, -0.35200001671910286, 0.0, 0.8960000425577164, 0.0, 0.0, 0.0, 0.0, 0.0, 1.6480858288186917E9, 0.0, 2022-03-23 20:37:08.818
48.0, 883.4073783834465, 410.65223483461887, 1538.1367040262558, 786.9310491764918, -0.35200001671910286, 0.0, 0.8960000425577164, 0.0, 0.0, 0.0, 0.0, 0.0, 1.6480858288186917E9, 0.0, 2022-03-23 20:37:08.818
49.0, 876.7391367624514, 401.13044954743236, 1535.2569810603745, 783.69603571482, -0.35200001671910286, 0.0, 0.8960000425577164, 0.0, 0.0, 0.0, 0.0, 0.0, 1.6480858288193796E9, 0.0, 2022-03-23 20:37:08.819
49.0, 869.3341348501854, 398.35170388035476, 1532.7138490905054, 781.3997371420264, -0.35200001671910286, 0.0, 0.8960000425577164, 0.0, 0.0, 0.0, 0.0, 0.0, 1.6480858288193796E9, 0.0, 2022-03-23 20:37:08.819
50.0, 877.045808558818, 409.5975830471143, 1529.6471311268397, 789.2722265487537, -0.35200001671910286, 0.0, 0.9120000433176756, 0.0, 0.0, 0.0, 0.0, 0.0, 1.6480858288329952E9, 0.0, 2022-03-23 20:37:08.832
50.0, 875.5274091768079, 412.4212075136602, 1534.5576197686605, 792.2080480139703, -0.35200001671910286, 0.0, 0.9120000433176756, 0.0, 0.0, 0.0, 0.0, 0.0, 1.6480858288329952E9, 0.0, 2022-03-23 20:37:08.832
51.0, 885.7298562559299, 425.77639025542885, 1547.4340953161009, 801.7447929009795, -0.35200001671910286, 0.0, 0.9120000433176756, 0.0, 0.0, 0.0, 0.0, 0.0, 1.6480858288486636E9, 0.0, 2022-03-23 20:37:08.848
51.0, 870.3663472379558, 403.5913037182763, 1527.8482392481528, 785.577205392532, -0.35200001671910286, 0.0, 0.9120000433176756, 0.0, 0.0, 0.0, 0.0, 0.0, 1.6480858288486636E9, 0.0, 2022-03-23 20:37:08.848
52.0, 872.2362972158007, 409.61628254689276, 1527.3470926540904, 798.760352736339, -0.3840000182390213, 0.0, 0.9120000433176756, 0.0, 0.0, 0.0, 0.0, 0.0, 1.648085828849406E9, 0.0, 2022-03-23 20:37:08.849
52.0, 881.8852391014807, 408.2212998634204, 1530.8401592127047, 809.0637771142647, -0.3840000182390213, 0.0, 0.9120000433176756, 0.0, 0.0, 0.0, 0.0, 0.0, 1.648085828849406E9, 0.0, 2022-03-23 20:37:08.849
53.0, 875.8976592724212, 406.54956458322704, 1534.082652474288, 806.8609760403633, -0.3840000182390213, 0.0, 0.9120000433176756, 0.0, 0.0, 0.0, 0.0, 0.0, 1.648085828863037E9, 0.0, 2022-03-23 20:37:08.863
53.0, 878.0855007464997, 414.0106649948284, 1537.6953958314843, 814.0341041553766, -0.3840000182390213, 0.0, 0.9120000433176756, 0.0, 0.0, 0.0, 0.0, 0.0, 1.648085828863037E9, 0.0, 2022-03-23 20:37:08.863
54.0, 877.3375207553618, 414.02936449460685, 1539.124037614558, 820.3994138799608, -0.3840000182390213, 0.0, 0.9120000433176756, 0.0, 0.0, 0.0, 0.0, 0.0, 1.6480858288787224E9, 0.0, 2022-03-23 20:37:08.878
54.0, 884.2114568739198, 413.50951840076596, 1543.4660614631139, 827.7109182933345, -0.3840000182390213, 0.0, 0.9120000433176756, 0.0, 0.0, 0.0, 0.0, 0.0, 1.6480858288787224E9, 0.0, 2022-03-23 20:37:08.878
55.0, 872.7524034096859, 412.9373137075454, 1527.3321330542676, 810.7392522944137, -0.3840000182390213, 0.0, 0.9120000433176756, 0.0, 0.0, 0.0, 0.0, 0.0, 1.6480858288794327E9, 0.0, 2022-03-23 20:37:08.879
55.0, 875.6246465756558, 413.9770058952272, 1538.7350880191661, 822.7817301517352, -0.3840000182390213, 0.0, 0.9120000433176756, 0.0, 0.0, 0.0, 0.0, 0.0, 1.6480858288794327E9, 0.0, 2022-03-23 20:37:08.879
56.0, 882.9847696884535, 418.02731754723936, 1543.4698013630696, 824.8311953274533, -0.3840000182390213, 0.0, 0.9120000433176756, 0.0, 0.0, 0.0, 0.0, 0.0, 1.6480858288929813E9, 0.0, 2022-03-23 20:37:08.892
56.0, 888.9386904179119, 420.26003782078624, 1548.9001360987313, 824.6703796293586, -0.3840000182390213, 0.0, 0.9120000433176756, 0.0, 0.0, 0.0, 0.0, 0.0, 1.6480858288929813E9, 0.0, 2022-03-23 20:37:08.892
57.0, 884.1703179744072, 417.02502435911447, 1537.3438452356495, 824.4833846315742, -0.3840000182390213, 0.0, 0.9120000433176756, 0.0, 0.0, 0.0, 0.0, 0.0, 1.6480858289086852E9, 0.0, 2022-03-23 20:37:08.908
57.0, 887.7755815316923, 420.1964595215395, 1535.189662861172, 833.4554046252742, -0.3840000182390213, 0.0, 0.9120000433176756, 0.0, 0.0, 0.0, 0.0, 0.0, 1.6480858289086852E9, 0.0, 2022-03-23 20:37:08.908
58.0, 872.9580979072489, 430.22313130274415, 1552.0603515612893, 823.5858086422086, -0.3840000182390213, 0.0, 0.9120000433176756, 0.0, 0.0, 0.0, 0.0, 0.0, 1.6480858289094207E9, 0.0, 2022-03-23 20:37:08.909
58.0, 880.9727035122924, 428.9066865183413, 1545.5566655383445, 831.8135885447264, -0.3840000182390213, 0.0, 0.9120000433176756, 0.0, 0.0, 0.0, 0.0, 0.0, 1.6480858289094207E9, 0.0, 2022-03-23 20:37:08.909
59.0, 886.4067781479098, 433.97051105834544, 1551.375949869398, 836.8063549855724, -0.3840000182390213, 0.0, 0.9120000433176756, 0.0, 0.0, 0.0, 0.0, 0.0, 1.648085828922993E9, 0.0, 2022-03-23 20:37:08.922
59.0, 880.2471629208885, 432.8635006714612, 1542.2655535773374, 831.5817147474736, -0.3840000182390213, 0.0, 0.9120000433176756, 0.0, 0.0, 0.0, 0.0, 0.0, 1.648085828922993E9, 0.0, 2022-03-23 20:37:08.922
60.0, 882.786554990802, 440.56021478027105, 1551.1739952717908, 838.3584134671837, -0.3840000182390213, 0.0, 0.9600000455975533, 0.0, 0.0, 0.0, 0.0, 0.0, 1.6480858289386313E9, 0.0, 2022-03-23 20:37:08.938
60.0, 885.7074168561958, 440.8444471769035, 1549.7677928884514, 837.2775823799893, -0.3840000182390213, 0.0, 0.9600000455975533, 0.0, 0.0, 0.0, 0.0, 0.0, 1.6480858289386313E9, 0.0, 2022-03-23 20:37:08.938
61.0, 893.8304795599543, 441.41665187012404, 1552.6736951540224, 849.3350198371336, -0.3840000182390213, 0.0, 0.9600000455975533, 0.0, 0.0, 0.0, 0.0, 0.0, 1.6480858289393675E9, 0.0, 2022-03-23 20:37:08.939
61.0, 881.3616531076841, 439.1801916966215, 1548.7692396002822, 849.0657470403239, -0.3840000182390213, 0.0, 0.9600000455975533, 0.0, 0.0, 0.0, 0.0, 0.0, 1.6480858289393675E9, 0.0, 2022-03-23 20:37:08.939
62.0, 873.0740348058753, 433.37960686534643, 1548.1409364077263, 844.7611221913248, -0.4000000189989805, 0.0, 0.9600000455975533, 0.0, 0.0, 0.0, 0.0, 0.0, 1.6480858289530888E9, 0.0, 2022-03-23 20:37:08.953
62.0, 880.5126958177425, 430.58964149840176, 1546.9329487220384, 851.115212216042, -0.4000000189989805, 0.0, 0.9600000455975533, 0.0, 0.0, 0.0, 0.0, 0.0, 1.6480858289530888E9, 0.0, 2022-03-23 20:37:08.953
63.0, 868.9377054548822, 426.70388544443995, 1538.2451611249708, 841.2418763330206, -0.4000000189989805, 0.0, 0.9600000455975533, 0.0, 0.0, 0.0, 0.0, 0.0, 1.6480858289686663E9, 0.0, 2022-03-23 20:37:08.968
63.0, 867.1163741764612, 421.07533601112664, 1529.4788356288336, 829.6893253698945, -0.4000000189989805, 0.0, 0.9600000455975533, 0.0, 0.0, 0.0, 0.0, 0.0, 1.6480858289686663E9, 0.0, 2022-03-23 20:37:08.968
64.0, 868.4253391609527, 414.7474252860993, 1528.1436913446523, 831.9370052432641, -0.4000000189989805, 0.0, 0.9600000455975533, 0.0, 0.0, 0.0, 0.0, 0.0, 1.6480858289693985E9, 0.0, 2022-03-23 20:37:08.969
64.0, 863.4924111193977, 420.0917423227802, 1531.1954497084953, 836.7951352857053, -0.4000000189989805, 0.0, 0.9600000455975533, 0.0, 0.0, 0.0, 0.0, 0.0, 1.6480858289693985E9, 0.0, 2022-03-23 20:37:08.969
65.0, 851.4761125617661, 427.7211382323876, 1537.8001130302437, 827.8118955921382, -0.4000000189989805, 0.0, 0.9600000455975533, 0.0, 0.0, 0.0, 0.0, 0.0, 1.6480858289829216E9, 0.0, 2022-03-23 20:37:08.982
65.0, 835.1290098554455, 397.27835259307176, 1515.0839606993832, 815.5899025369436, -0.4000000189989805, 0.0, 0.9600000455975533, 0.0, 0.0, 0.0, 0.0, 0.0, 1.6480858289829216E9, 0.0, 2022-03-23 20:37:08.982
66.0, 830.768286507111, 394.5183064257726, 1511.8601669375785, 808.7982442174107, -0.4000000189989805, 0.0, 0.9600000455975533, 0.0, 0.0, 0.0, 0.0, 0.0, 1.6480858289986305E9, 0.0, 2022-03-23 20:37:08.998
66.0, 767.9678864511661, 330.5622772835195, 1446.0341878174804, 747.6994986413047, -0.4000000189989805, 0.0, 0.9600000455975533, 0.0, 0.0, 0.0, 0.0, 0.0, 1.6480858289986305E9, 0.0, 2022-03-23 20:37:08.998
67.0, 742.3682712544687, 296.0355208925903, 1415.6549804774113, 726.5840234914795, -0.4000000189989805, 0.0, 0.9600000455975533, 0.0, 0.0, 0.0, 0.0, 0.0, 1.648085828999535E9, 0.0, 2022-03-23 20:37:08.999
67.0, 738.5273939999752, 290.60144625697285, 1412.8986742100678, 721.6922343494371, -0.4000000189989805, 0.0, 0.9600000455975533, 0.0, 0.0, 0.0, 0.0, 0.0, 1.648085828999535E9, 0.0, 2022-03-23 20:37:08.999
68.0, 725.1871708580293, 280.0923273814842, 1404.2669851123355, 714.7771593313664, -0.4000000189989805, 0.0, 0.9600000455975533, 0.0, 0.0, 0.0, 0.0, 0.0, 1.6480858290130167E9, 0.0, 2022-03-23 20:37:09.013
68.0, 735.9468630305491, 279.7669560853392, 1400.1530951610766, 727.4516802811995, -0.4000000189989805, 0.0, 0.9600000455975533, 0.0, 0.0, 0.0, 0.0, 0.0, 1.6480858290130167E9, 0.0, 2022-03-23 20:37:09.013
69.0, 745.7042620149441, 286.4277179064229, 1404.6895938073285, 737.6915263598785, -0.4000000189989805, 0.0, 0.9600000455975533, 0.0, 0.0, 0.0, 0.0, 0.0, 1.648085829045056E9, 0.0, 2022-03-23 20:37:09.045
69.0, 748.0566590870731, 280.41395877767354, 1401.5405980446376, 727.6087560793385, -0.4000000189989805, 0.0, 0.9600000455975533, 0.0, 0.0, 0.0, 0.0, 0.0, 1.648085829045056E9, 0.0, 2022-03-23 20:37:09.045
70.0, 752.3276248364709, 289.0606074752286, 1406.6567811840214, 742.6506337011233, -0.4000000189989805, 0.0, 0.944000044837594, 0.0, 0.0, 0.0, 0.0, 0.0, 1.6480858290457823E9, 0.0, 2022-03-23 20:37:09.045
70.0, 764.893688687589, 291.2447090493515, 1410.3929412397556, 755.8150815451518, -0.4000000189989805, 0.0, 0.944000044837594, 0.0, 0.0, 0.0, 0.0, 0.0, 1.6480858290457823E9, 0.0, 2022-03-23 20:37:09.045
71.0, 761.8755894233473, 285.9452708121389, 1401.2900247476064, 751.0766283012927, -0.4000000189989805, 0.03200000151991844, 0.944000044837594, 0.0, 0.0, 0.0, 0.0, 0.0, 1.6480858290465496E9, 0.0, 2022-03-23 20:37:09.046
71.0, 757.3727498766966, 292.57237353362143, 1413.8299092990346, 748.6943120295182, -0.4000000189989805, 0.03200000151991844, 0.944000044837594, 0.0, 0.0, 0.0, 0.0, 0.0, 1.6480858290465496E9, 0.0, 2022-03-23 20:37:09.046
72.0, 763.6894409018569, 300.5869791386649, 1418.0036376495846, 754.8801065562293, -0.43200002051889896, 0.03200000151991844, 0.944000044837594, 0.0, 0.0, 0.0, 0.0, 0.0, 1.6480858290472383E9, 0.0, 2022-03-23 20:37:09.047
72.0, 765.8959818757139, 304.56997259147465, 1420.8534414158203, 760.0523881949484, -0.43200002051889896, 0.03200000151991844, 0.944000044837594, 0.0, 0.0, 0.0, 0.0, 0.0, 1.6480858290472383E9, 0.0, 2022-03-23 20:37:09.047
73.0, 762.0064859217964, 297.5015616752207, 1416.900367162656, 753.8329345686361, -0.43200002051889896, 0.03200000151991844, 0.944000044837594, 0.0, 0.0, 0.0, 0.0, 0.0, 1.6480858290579588E9, 0.0, 2022-03-23 20:37:09.057
73.0, 764.6244158907793, 300.8038933360949, 1422.749570693355, 762.939590960741, -0.43200002051889896, 0.03200000151991844, 0.944000044837594, 0.0, 0.0, 0.0, 0.0, 0.0, 1.6480858290579588E9, 0.0, 2022-03-23 20:37:09.057
74.0, 775.4476863625459, 298.668410461396, 1424.6344802710228, 773.4150507366285, -0.43200002051889896, 0.03200000151991844, 0.944000044837594, 0.0, 0.0, 0.0, 0.0, 0.0, 1.6480858290728812E9, 0.0, 2022-03-23 20:37:09.072
74.0, 750.5436925576068, 292.26944163721055, 1409.1400747545995, 758.1899180170149, -0.43200002051889896, 0.03200000151991844, 0.944000044837594, 0.0, 0.0, 0.0, 0.0, 0.0, 1.6480858290728812E9, 0.0, 2022-03-23 20:37:09.072
75.0, 751.2767129489221, 293.1408383268863, 1408.650147860404, 757.0006298311055, -0.43200002051889896, 0.03200000151991844, 0.944000044837594, 0.0, 0.0, 0.0, 0.0, 0.0, 1.6480858290887945E9, 0.0, 2022-03-23 20:37:09.088
75.0, 774.5800295728259, 307.8536047525704, 1424.3876468739472, 781.0444466462359, -0.43200002051889896, 0.03200000151991844, 0.944000044837594, 0.0, 0.0, 0.0, 0.0, 0.0, 1.6480858290887945E9, 0.0, 2022-03-23 20:37:09.088
76.0, 773.9891253798269, 308.8858171403408, 1429.3205749155022, 780.6554970508441, -0.43200002051889896, 0.03200000151991844, 0.944000044837594, 0.0, 0.0, 0.0, 0.0, 0.0, 1.648085829089394E9, 0.0, 2022-03-23 20:37:09.089
76.0, 770.7503720181994, 315.673735559918, 1432.675265175756, 782.0018610348925, -0.43200002051889896, 0.03200000151991844, 0.944000044837594, 0.0, 0.0, 0.0, 0.0, 0.0, 1.648085829089394E9, 0.0, 2022-03-23 20:37:09.089
77.0, 780.5264705023728, 313.4858940858394, 1439.1191127994098, 780.898590547964, -0.43200002051889896, 0.03200000151991844, 0.944000044837594, 0.0, 0.0, 0.0, 0.0, 0.0, 1.6480858291030164E9, 0.0, 2022-03-23 20:37:09.103
77.0, 792.9803373548202, 317.80173863470554, 1447.1673775040545, 794.3734500883147, -0.43200002051889896, 0.03200000151991844, 0.944000044837594, 0.0, 0.0, 0.0, 0.0, 0.0, 1.6480858291030164E9, 0.0, 2022-03-23 20:37:09.103
78.0, 786.4280326324515, 322.9328813739121, 1447.0065618059598, 801.4306413047016, -0.43200002051889896, 0.03200000151991844, 0.944000044837594, 0.0, 0.0, 0.0, 0.0, 0.0, 1.6480858291187937E9, 0.0, 2022-03-23 20:37:09.118
78.0, 787.3555278214626, 316.8518040459603, 1439.0517946002074, 802.4516339926049, -0.43200002051889896, 0.03200000151991844, 0.944000044837594, 0.0, 0.0, 0.0, 0.0, 0.0, 1.6480858291187937E9, 0.0, 2022-03-23 20:37:09.118
79.0, 797.3709799028002, 314.4096493748948, 1435.1548188463785, 813.7349121589214, -0.43200002051889896, 0.03200000151991844, 0.944000044837594, 0.0, 0.0, 0.0, 0.0, 0.0, 1.6480858291193817E9, 0.0, 2022-03-23 20:37:09.119
79.0, 792.6287867589854, 317.3342511402443, 1441.565007370431, 819.7598909875378, -0.43200002051889896, 0.03200000151991844, 0.944000044837594, 0.0, 0.0, 0.0, 0.0, 0.0, 1.6480858291193817E9, 0.0, 2022-03-23 20:37:09.119
80.0, 796.9184520081617, 316.8854631455615, 1443.6705710454844, 816.5360972257331, -0.43200002051889896, 0.03200000151991844, 0.9120000433176756, 0.0, 0.0, 0.0, 0.0, 0.0, 1.648085829132929E9, 0.0, 2022-03-23 20:37:09.132
80.0, 794.3304412388243, 315.91682905703783, 1442.7879546559416, 816.6969129238278, -0.43200002051889896, 0.03200000151991844, 0.9120000433176756, 0.0, 0.0, 0.0, 0.0, 0.0, 1.648085829132929E9, 0.0, 2022-03-23 20:37:09.132
81.0, 784.1279941597022, 314.34981097560376, 1435.4353113430552, 810.4363203980029, -0.43200002051889896, 0.04800000227987766, 0.9120000433176756, 0.0, 0.0, 0.0, 0.0, 0.0, 1.6480858291486962E9, 0.0, 2022-03-23 20:37:09.148
81.0, 781.1547736949287, 317.09863744303584, 1445.9369504186325, 813.304823664017, -0.43200002051889896, 0.04800000227987766, 0.9120000433176756, 0.0, 0.0, 0.0, 0.0, 0.0, 1.6480858291486962E9, 0.0, 2022-03-23 20:37:09.148
82.0, 787.5350430193357, 322.0465250844136, 1452.1339646452107, 814.209879453294, -0.4480000212788582, 0.04800000227987766, 0.9120000433176756, 0.0, 0.0, 0.0, 0.0, 0.0, 1.6480858291494417E9, 0.0, 2022-03-23 20:37:09.149
82.0, 777.5008914382197, 312.9174292925745, 1442.3653459609486, 803.3080710824579, -0.4480000212788582, 0.04800000227987766, 0.9120000433176756, 0.0, 0.0, 0.0, 0.0, 0.0, 1.6480858291494417E9, 0.0, 2022-03-23 20:37:09.149
83.0, 764.0896101971157, 321.31350469309837, 1445.761175120715, 796.6398294614628, -0.4480000212788582, 0.04800000227987766, 0.9120000433176756, 0.0, 0.0, 0.0, 0.0, 0.0, 1.6480858291630995E9, 0.0, 2022-03-23 20:37:09.163
83.0, 763.3117110063322, 326.4857863318175, 1452.9455229355954, 793.8087251950055, -0.4480000212788582, 0.04800000227987766, 0.9120000433176756, 0.0, 0.0, 0.0, 0.0, 0.0, 1.6480858291630995E9, 0.0, 2022-03-23 20:37:09.163
