%OpenBCI Raw EEG Data
%Number of channels = 4
%Sample Rate = 200 Hz
%Board = OpenBCI_GUI$BoardGanglionBLE
Sample Index, EXG Channel 0, EXG Channel 1, EXG Channel 2, EXG Channel 3, Accel Channel 0, Accel Channel 1, Accel Channel 2, Other, Other, Other, Other, Other, Timestamp, Other, Timestamp (Formatted)
2.0, -16.268564807251096, 0.3141515962779522, -9.461946887895465, -5.3330973368138075, -0.25600001215934753, 0.0, 0.0, 0.0, 0.0, 0.0, 0.0, 0.0, 1.648085698180146E9, 0.0, 2022-03-23 20:34:58.180
2.0, -10.411881476640701, 0.7741592908278108, -2.5655713696032763, -8.504532499238849, -0.25600001215934753, 0.0, 0.0, 0.0, 0.0, 0.0, 0.0, 0.0, 1.648085698180146E9, 0.0, 2022-03-23 20:34:58.180
3.0, -11.851742959581316, -0.9162754891440272, -13.68055403791368, -8.42599460016936, -0.25600001215934753, 0.0, 0.0, 0.0, 0.0, 0.0, 0.0, 0.0, 1.6480856981944394E9, 0.0, 2022-03-23 20:34:58.194
3.0, -19.29040397144854, -7.65557520929724, -14.544470927678049, -9.869595983065665, -0.25600001215934753, 0.0, 0.0, 0.0, 0.0, 0.0, 0.0, 0.0, 1.6480856981944394E9, 0.0, 2022-03-23 20:34:58.194
4.0, -11.560030763037503, -12.592243150807917, -13.27290494274348, -10.557737574912608, -0.25600001215934753, 0.0, 0.0, 0.0, 0.0, 0.0, 0.0, 0.0, 1.6480856981951673E9, 0.0, 2022-03-23 20:34:58.195
4.0, -24.313089611940086, -15.879615211859345, -16.612635603174567, -11.806864160113037, -0.25600001215934753, 0.0, 0.0, 0.0, 0.0, 0.0, 0.0, 0.0, 1.6480856981951673E9, 0.0, 2022-03-23 20:34:58.195
5.0, -40.93694491498172, -21.122954949736595, -13.385101941414177, -11.526371663436294, -0.25600001215934753, 0.0, 0.0, 0.0, 0.0, 0.0, 0.0, 0.0, 1.6480856982088284E9, 0.0, 2022-03-23 20:34:58.208
5.0, -16.586456303484738, -14.723986125551164, -9.63024238590151, -5.800584831275046, -0.25600001215934753, 0.0, 0.0, 0.0, 0.0, 0.0, 0.0, 0.0, 1.6480856982088284E9, 0.0, 2022-03-23 20:34:58.208
6.0, -16.231165807694197, -6.8552366187796, -19.144547873176634, -8.108103103935719, -0.25600001215934753, 0.0, 0.0, 0.0, 0.0, 0.0, 0.0, 0.0, 1.6480856982244267E9, 0.0, 2022-03-23 20:34:58.224
6.0, -21.070596350356936, -10.44554057624191, -13.65811463817954, -12.925094246864319, -0.25600001215934753, 0.0, 0.0, 0.0, 0.0, 0.0, 0.0, 0.0, 1.6480856982244267E9, 0.0, 2022-03-23 20:34:58.224
7.0, -27.177852977998555, -4.401862247847021, -10.512858775444329, -16.14140820875764, -0.25600001215934753, 0.0, 0.0, 0.0, 0.0, 0.0, 0.0, 0.0, 1.6480856982251725E9, 0.0, 2022-03-23 20:34:58.225
7.0, -11.492712563835084, -7.517198910936713, -3.6015236573293805, -11.036444769240916, -0.25600001215934753, 0.0, 0.0, 0.0, 0.0, 0.0, 0.0, 0.0, 1.6480856982251725E9, 0.0, 2022-03-23 20:34:58.225
8.0, -21.616621743887663, -13.205586743541062, -18.54990378022194, -15.853435912169516, -0.25600001215934753, 0.0, 0.0, 0.0, 0.0, 0.0, 0.0, 0.0, 1.6480856982387447E9, 0.0, 2022-03-23 20:34:58.238
8.0, -19.066009974107146, -7.932327806018293, -21.208972648717463, -11.058884168975055, -0.25600001215934753, 0.0, 0.0, 0.0, 0.0, 0.0, 0.0, 0.0, 1.6480856982387447E9, 0.0, 2022-03-23 20:34:58.238
9.0, -11.186040767468512, -5.718307032249868, -17.379315094090998, -4.4093420477584, -0.25600001215934753, 0.0, 0.0, 0.0, 0.0, 0.0, 0.0, 0.0, 1.6480856982544963E9, 0.0, 2022-03-23 20:34:58.254
9.0, -18.209572884254158, -0.8564370898529887, -7.165648315101862, -9.62650248594582, -0.25600001215934753, 0.0, 0.0, 0.0, 0.0, 0.0, 0.0, 0.0, 1.6480856982544963E9, 0.0, 2022-03-23 20:34:58.254
10.0, -22.050450138747692, -8.508272399194539, -8.519492099061608, -13.26916504278779, -0.25600001215934753, 0.0, 0.9920000471174717, 0.0, 0.0, 0.0, 0.0, 0.0, 1.6480856982551596E9, 0.0, 2022-03-23 20:34:58.255
10.0, -11.616129262372851, -11.896621759049594, -21.025717550888658, -14.570650227367878, -0.25600001215934753, 0.0, 0.9920000471174717, 0.0, 0.0, 0.0, 0.0, 0.0, 1.6480856982551596E9, 0.0, 2022-03-23 20:34:58.255
11.0, -24.96383220423013, -18.819176577031612, -28.067949167452753, -17.65606769081205, -0.25600001215934753, 0.0, 0.9920000471174717, 0.0, 0.0, 0.0, 0.0, 0.0, 1.6480856982687843E9, 0.0, 2022-03-23 20:34:58.268
11.0, -30.96263173315674, -24.477645209990442, -28.468118462711573, -20.221639060415328, -0.25600001215934753, 0.0, 0.9920000471174717, 0.0, 0.0, 0.0, 0.0, 0.0, 1.6480856982687843E9, 0.0, 2022-03-23 20:34:58.268
12.0, -30.012697144411504, -26.859961481764913, -34.99798378534615, -27.518183873966336, -0.27200001291930676, 0.0, 0.9920000471174717, 0.0, 0.0, 0.0, 0.0, 0.0, 1.648085698284436E9, 0.0, 2022-03-23 20:34:58.284
12.0, -24.649680607952178, -23.628687920048833, -39.657899130135775, -22.53289723303169, -0.27200001291930676, 0.0, 0.9920000471174717, 0.0, 0.0, 0.0, 0.0, 0.0, 1.648085698284436E9, 0.0, 2022-03-23 20:34:58.284
13.0, -24.99375140387565, -22.87696802895516, -22.779730630107224, -15.25879181921482, -0.27200001291930676, 0.0, 0.9920000471174717, 0.0, 0.0, 0.0, 0.0, 0.0, 1.648085698285154E9, 0.0, 2022-03-23 20:34:58.285
13.0, -20.94717965181917, -23.490311621688306, -9.820977283641696, -9.319830689579248, -0.27200001291930676, 0.0, 0.9920000471174717, 0.0, 0.0, 0.0, 0.0, 0.0, 1.648085698285154E9, 0.0, 2022-03-23 20:34:58.285
14.0, -10.793351272121072, -15.860915712080896, -20.232858760282397, -6.526125422678888, -0.27200001291930676, 0.0, 0.9920000471174717, 0.0, 0.0, 0.0, 0.0, 0.0, 1.6480856982987204E9, 0.0, 2022-03-23 20:34:58.298
14.0, -12.640861850231886, -10.09398998040706, -12.842816447839141, -11.040184669196606, -0.27200001291930676, 0.0, 0.9920000471174717, 0.0, 0.0, 0.0, 0.0, 0.0, 1.6480856982987204E9, 0.0, 2022-03-23 20:34:58.298
15.0, -40.77612921688706, -15.165294320322573, -13.478599440306425, -21.35482874698937, -0.27200001291930676, 0.0, 0.9920000471174717, 0.0, 0.0, 0.0, 0.0, 0.0, 1.6480856983143644E9, 0.0, 2022-03-23 20:34:58.314
15.0, -13.766571736894548, -22.91062712855637, -23.265917624346912, -12.48004615213722, -0.27200001291930676, 0.0, 0.9920000471174717, 0.0, 0.0, 0.0, 0.0, 0.0, 1.6480856983143644E9, 0.0, 2022-03-23 20:34:58.314
16.0, -12.790457848459482, -15.161554420366883, -22.14020773768425, -5.22838013805449, -0.27200001291930676, 0.0, 0.9920000471174717, 0.0, 0.0, 0.0, 0.0, 0.0, 1.6480856983151205E9, 0.0, 2022-03-23 20:34:58.315
16.0, -25.861408193595707, -11.986379357986152, -20.57692955620587, -7.7864717077463865, -0.27200001291930676, 0.0, 0.9920000471174717, 0.0, 0.0, 0.0, 0.0, 0.0, 1.6480856983151205E9, 0.0, 2022-03-23 20:34:58.315
17.0, -20.56944975629449, -11.313197365961969, -21.7512581422925, -16.664994202554226, -0.27200001291930676, 0.0, 0.9920000471174717, 0.0, 0.0, 0.0, 0.0, 0.0, 1.6480856983287292E9, 0.0, 2022-03-23 20:34:58.328
17.0, -12.734359349124134, -12.595983050763607, -14.630488626658916, -11.881662159226835, -0.27200001291930676, 0.0, 0.9920000471174717, 0.0, 0.0, 0.0, 0.0, 0.0, 1.6480856983287292E9, 0.0, 2022-03-23 20:34:58.328
18.0, -23.654867219738662, -15.853435912169516, -23.127541325986385, -13.149488244205713, -0.27200001291930676, 0.0, 0.9920000471174717, 0.0, 0.0, 0.0, 0.0, 0.0, 1.6480856983443792E9, 0.0, 2022-03-23 20:34:58.344
18.0, -18.288110783323646, -18.49754518084228, -24.1971527133137, -16.197506708092988, -0.27200001291930676, 0.0, 0.9920000471174717, 0.0, 0.0, 0.0, 0.0, 0.0, 1.6480856983443792E9, 0.0, 2022-03-23 20:34:58.344
19.0, -9.001939193345606, -15.187733720056713, -18.16469408478588, -10.258545578457415, -0.27200001291930676, 0.0, 0.9920000471174717, 0.0, 0.0, 0.0, 0.0, 0.0, 1.6480856983451488E9, 0.0, 2022-03-23 20:34:58.345
19.0, -27.443385874852538, -21.601662144064903, -23.198599425144494, -25.281723700463772, -0.27200001291930676, 0.0, 0.9920000471174717, 0.0, 0.0, 0.0, 0.0, 0.0, 1.6480856983451488E9, 0.0, 2022-03-23 20:34:58.345
20.0, -39.45220463257283, -23.70722581911832, -20.973358951509, -25.8277490939945, -0.27200001291930676, 0.0, 0.9760000463575125, 0.0, 0.0, 0.0, 0.0, 0.0, 1.6480856983588705E9, 0.0, 2022-03-23 20:34:58.358
20.0, -14.982039222493768, -13.66559443809092, -12.981192746199667, -10.03415158111602, -0.27200001291930676, 0.0, 0.9760000463575125, 0.0, 0.0, 0.0, 0.0, 0.0, 1.6480856983588705E9, 0.0, 2022-03-23 20:34:58.358
21.0, -15.857175812125206, -14.028364733792841, -19.7130126664415, -6.8552366187796, -0.27200001291930676, 0.0, 0.9760000463575125, 0.0, 0.0, 0.0, 0.0, 0.0, 1.6480856983744457E9, 0.0, 2022-03-23 20:34:58.374
21.0, -32.47355131525546, -3.1602154625579715, -8.83364369533956, -17.102562497369945, -0.27200001291930676, 0.0, 0.9760000463575125, 0.0, 0.0, 0.0, 0.0, 0.0, 1.6480856983744457E9, 0.0, 2022-03-23 20:34:58.374
22.0, -18.96129277534783, -9.379669088870287, -4.461700647138059, -13.66559443809092, -0.25600001215934753, 0.0, 0.9760000463575125, 0.0, 0.0, 0.0, 0.0, 0.0, 1.6480856983751347E9, 0.0, 2022-03-23 20:34:58.375
22.0, -18.288110783323646, -9.398368588648736, -12.764278548769653, -12.423947652801871, -0.25600001215934753, 0.0, 0.9760000463575125, 0.0, 0.0, 0.0, 0.0, 0.0, 1.6480856983751347E9, 0.0, 2022-03-23 20:34:58.375
23.0, -22.746071530506015, -15.950673311017454, -16.4892189046368, -18.662100778892636, -0.25600001215934753, 0.0, 0.9760000463575125, 0.0, 0.0, 0.0, 0.0, 0.0, 1.648085698388765E9, 0.0, 2022-03-23 20:34:58.388
23.0, -28.344701764173806, -13.003632145933807, -16.03669100999832, -24.21211231313646, -0.25600001215934753, 0.0, 0.9760000463575125, 0.0, 0.0, 0.0, 0.0, 0.0, 1.648085698388765E9, 0.0, 2022-03-23 20:34:58.388
24.0, -10.150088479742408, -12.296791054308414, -10.000492481514812, -5.366756436415017, -0.25600001215934753, 0.0, 0.9760000463575125, 0.0, 0.0, 0.0, 0.0, 0.0, 1.6480856984044118E9, 0.0, 2022-03-23 20:34:58.404
24.0, -21.081816050224006, -7.678014609031379, 0.17203539796173573, -8.141762203536928, -0.25600001215934753, 0.0, 0.9760000463575125, 0.0, 0.0, 0.0, 0.0, 0.0, 1.6480856984044118E9, 0.0, 2022-03-23 20:34:58.404
25.0, -24.668380107730627, 3.1489957626909018, 3.665101956576109, -9.473166587762535, -0.25600001215934753, 0.0, 0.9760000463575125, 0.0, 0.0, 0.0, 0.0, 0.0, 1.6480856984052064E9, 0.0, 2022-03-23 20:34:58.405
25.0, -31.542316226288676, -23.265917624346912, -29.279676753096282, -25.34156209975481, -0.25600001215934753, 0.0, 0.9760000463575125, 0.0, 0.0, 0.0, 0.0, 0.0, 1.6480856984052064E9, 0.0, 2022-03-23 20:34:58.405
26.0, -32.14070021919906, -33.976991097442806, -41.707364305853844, -39.44846473261714, -0.25600001215934753, 0.0, 0.9760000463575125, 0.0, 0.0, 0.0, 0.0, 0.0, 1.6480856984187636E9, 0.0, 2022-03-23 20:34:58.418
26.0, -41.96541740279645, -30.072535543702543, -36.27328967023641, -42.78445549309254, -0.25600001215934753, 0.0, 0.9760000463575125, 0.0, 0.0, 0.0, 0.0, 0.0, 1.6480856984187636E9, 0.0, 2022-03-23 20:34:58.418
27.0, -35.68612537719309, -28.329742164351046, -28.370881063863635, -27.555582873523235, -0.25600001215934753, 0.0, 0.9760000463575125, 0.0, 0.0, 0.0, 0.0, 0.0, 1.6480856984341452E9, 0.0, 2022-03-23 20:34:58.434
27.0, -34.99798378534615, -27.607941472902894, -34.89326658658683, -25.173266601748765, -0.25600001215934753, 0.0, 0.9760000463575125, 0.0, 0.0, 0.0, 0.0, 0.0, 1.6480856984341452E9, 0.0, 2022-03-23 20:34:58.434
28.0, -46.909565144218504, -28.251204265281558, -35.05782218463719, -50.533528201282024, -0.25600001215934753, 0.0, 0.9760000463575125, 0.0, 0.0, 0.0, 0.0, 0.0, 1.6480856984494355E9, 0.0, 2022-03-23 20:34:58.449
28.0, -47.47802993748337, -26.90858018118888, -30.472704838961363, -39.93091182690114, -0.25600001215934753, 0.0, 0.9760000463575125, 0.0, 0.0, 0.0, 0.0, 0.0, 1.6480856984494355E9, 0.0, 2022-03-23 20:34:58.449
29.0, -34.51179679110646, -21.508164645172656, -36.09377447236329, -33.621700601652265, -0.25600001215934753, 0.0, 0.9760000463575125, 0.0, 0.0, 0.0, 0.0, 0.0, 1.6480856984502816E9, 0.0, 2022-03-23 20:34:58.450
29.0, -52.119245782494545, -30.771896835416555, -43.15096568875015, -51.90981138497591, -0.25600001215934753, 0.0, 0.9760000463575125, 0.0, 0.0, 0.0, 0.0, 0.0, 1.6480856984502816E9, 0.0, 2022-03-23 20:34:58.450
30.0, -56.906317725777626, -31.935005721636117, -44.23927657585591, -51.77891488652676, -0.25600001215934753, 0.0, 0.9760000463575125, 0.0, 0.0, 0.0, 0.0, 0.0, 1.6480856984644475E9, 0.0, 2022-03-23 20:34:58.464
30.0, -27.3461484760046, -15.625302014872432, -46.25882255192846, -36.69589836522937, -0.25600001215934753, 0.0, 0.9760000463575125, 0.0, 0.0, 0.0, 0.0, 0.0, 1.6480856984644475E9, 0.0, 2022-03-23 20:34:58.464
31.0, -26.19425928965211, -23.36315502319485, -35.88060017488897, -34.28366289380938, -0.25600001215934753, 0.0, 0.9760000463575125, 0.0, 0.0, 0.0, 0.0, 0.0, 1.6480856984652145E9, 0.0, 2022-03-23 20:34:58.465
31.0, -39.235290435142815, -24.53748360928148, -16.780931101180613, -41.239876811392605, -0.25600001215934753, 0.0, 0.9760000463575125, 0.0, 0.0, 0.0, 0.0, 0.0, 1.6480856984652145E9, 0.0, 2022-03-23 20:34:58.465
32.0, -39.246510135009885, -25.128387802280486, -20.775144253857434, -34.373420492745936, -0.25600001215934753, 0.0, 0.9760000463575125, 0.0, 0.0, 0.0, 0.0, 0.0, 1.648085698478924E9, 0.0, 2022-03-23 20:34:58.478
32.0, -37.253143458627164, -34.2013850947842, -12.715659849345684, -22.656313931569457, -0.25600001215934753, 0.0, 0.9760000463575125, 0.0, 0.0, 0.0, 0.0, 0.0, 1.648085698478924E9, 0.0, 2022-03-23 20:34:58.478
33.0, -27.985671368427575, -30.353028040379286, -1.4959599822759628, -23.120061526075006, -0.25600001215934753, 0.0, 0.9760000463575125, 0.0, 0.0, 0.0, 0.0, 0.0, 1.6480856984944808E9, 0.0, 2022-03-23 20:34:58.494
33.0, -31.882647122256458, -37.387779857032, 0.564724893309176, -10.984086169861257, -0.25600001215934753, 0.0, 0.9760000463575125, 0.0, 0.0, 0.0, 0.0, 0.0, 1.6480856984944808E9, 0.0, 2022-03-23 20:34:58.494
34.0, -25.573435897007585, -34.25748359411955, 16.03295111004263, -1.847510578110814, -0.25600001215934753, 0.0, 0.9760000463575125, 0.0, 0.0, 0.0, 0.0, 0.0, 1.648085698495189E9, 0.0, 2022-03-23 20:34:58.495
34.0, -27.925832969136536, -52.65779137611389, 12.4501269524917, -6.04367832839489, -0.25600001215934753, 0.0, 0.9760000463575125, 0.0, 0.0, 0.0, 0.0, 0.0, 1.648085698495189E9, 0.0, 2022-03-23 20:34:58.495
35.0, -44.63944587111473, -51.25158899277449, 19.522277768701315, -14.379915329627693, -0.25600001215934753, 0.0, 0.9760000463575125, 0.0, 0.0, 0.0, 0.0, 0.0, 1.6480856985087817E9, 0.0, 2022-03-23 20:34:58.508
35.0, -24.462685610167682, -56.27053473331034, 15.969372810795903, -3.466887258924544, -0.25600001215934753, 0.0, 0.9760000463575125, 0.0, 0.0, 0.0, 0.0, 0.0, 1.6480856985087817E9, 0.0, 2022-03-23 20:34:58.508
36.0, -24.48512500990182, -60.197429686784744, 31.508657126687467, -0.9798537883907557, -0.25600001215934753, 0.0, 0.9760000463575125, 0.0, 0.0, 0.0, 0.0, 0.0, 1.6480856985244007E9, 0.0, 2022-03-23 20:34:58.524
36.0, -35.08400148432702, -57.88991141412407, 28.094128467142582, -8.493312799371779, -0.25600001215934753, 0.0, 0.9760000463575125, 0.0, 0.0, 0.0, 0.0, 0.0, 1.6480856985244007E9, 0.0, 2022-03-23 20:34:58.524
37.0, -38.74162364099175, -65.18271632771939, 20.09448246192187, -8.508272399194539, -0.25600001215934753, 0.0, 0.9760000463575125, 0.0, 0.0, 0.0, 0.0, 0.0, 1.6480856985251386E9, 0.0, 2022-03-23 20:34:58.525
37.0, -25.33034239988774, -65.28369362652302, 20.640507855452597, 1.0696113873273134, -0.25600001215934753, 0.0, 0.9760000463575125, 0.0, 0.0, 0.0, 0.0, 0.0, 1.6480856985251386E9, 0.0, 2022-03-23 20:34:58.525
38.0, -27.77997687086463, -61.68216996919364, 20.614328555762768, -7.771512107923627, -0.25600001215934753, 0.0, 0.9760000463575125, 0.0, 0.0, 0.0, 0.0, 0.0, 1.6480856985387168E9, 0.0, 2022-03-23 20:34:58.538
38.0, -32.73908421210945, -58.140484711155295, 23.247218124568462, -6.5822239220142365, -0.25600001215934753, 0.0, 0.9760000463575125, 0.0, 0.0, 0.0, 0.0, 0.0, 1.6480856985387168E9, 0.0, 2022-03-23 20:34:58.538
39.0, -27.690219271928072, -59.12407839950174, 21.30994994752109, -2.8273643665015697, -0.25600001215934753, 0.0, 0.9760000463575125, 0.0, 0.0, 0.0, 0.0, 0.0, 1.6480856985544076E9, 0.0, 2022-03-23 20:34:58.554
39.0, -21.033197350800037, -58.170403910800815, 18.826656376942992, -0.14585609827190638, -0.25600001215934753, 0.0, 0.9760000463575125, 0.0, 0.0, 0.0, 0.0, 0.0, 1.6480856985544076E9, 0.0, 2022-03-23 20:34:58.554
40.0, -33.30006920546293, -57.22046932205558, 20.348795658908784, -6.896375518292189, -0.25600001215934753, 0.0, 0.9920000471174717, 0.0, 0.0, 0.0, 0.0, 0.0, 1.6480856985551596E9, 0.0, 2022-03-23 20:34:58.555
40.0, -22.387041134759784, -57.11201222334057, 20.315136559307575, -7.618176209740341, -0.25600001215934753, 0.0, 0.9920000471174717, 0.0, 0.0, 0.0, 0.0, 0.0, 1.6480856985551596E9, 0.0, 2022-03-23 20:34:58.555
41.0, -14.993258922360837, -46.01198915485293, 18.56112348008901, 10.722293172962964, -0.25600001215934753, 0.0, 0.9920000471174717, 0.0, 0.0, 0.0, 0.0, 0.0, 1.6480856985686874E9, 0.0, 2022-03-23 20:34:58.568
41.0, -29.32081565260887, -53.95927656069398, 18.411527481861413, -11.055144269019365, -0.25600001215934753, 0.0, 0.9920000471174717, 0.0, 0.0, 0.0, 0.0, 0.0, 1.6480856985686874E9, 0.0, 2022-03-23 20:34:58.568
42.0, -26.366294687613845, -60.0665331883356, 18.90893417596817, -3.7997383549809456, -0.25600001215934753, 0.0, 0.9920000471174717, 0.0, 0.0, 0.0, 0.0, 0.0, 1.6480856985844417E9, 0.0, 2022-03-23 20:34:58.584
42.0, -22.611435132101178, -60.1039321878925, 10.778391672298312, -0.5609849933534861, -0.25600001215934753, 0.0, 0.9920000471174717, 0.0, 0.0, 0.0, 0.0, 0.0, 1.6480856985844417E9, 0.0, 2022-03-23 20:34:58.584
43.0, -29.76212384738028, -57.96844931319356, 5.606110033579171, -9.402108488604426, -0.25600001215934753, 0.0, 0.9920000471174717, 0.0, 0.0, 0.0, 0.0, 0.0, 1.64808569858519E9, 0.0, 2022-03-23 20:34:58.585
43.0, -46.55801454838365, -60.930450078099966, 4.738453243859112, -15.27749131899327, -0.25600001215934753, 0.0, 0.9920000471174717, 0.0, 0.0, 0.0, 0.0, 0.0, 1.64808569858519E9, 0.0, 2022-03-23 20:34:58.585
44.0, -21.646540943533182, -54.886771749705076, 0.17951519787311554, -5.759445931762457, -0.25600001215934753, 0.0, 0.9920000471174717, 0.0, 0.0, 0.0, 0.0, 0.0, 1.6480856985987148E9, 0.0, 2022-03-23 20:34:58.598
44.0, -21.650280843488872, -51.88737198524177, 5.7332666320726275, -0.523585993796587, -0.25600001215934753, 0.0, 0.9920000471174717, 0.0, 0.0, 0.0, 0.0, 0.0, 1.6480856985987148E9, 0.0, 2022-03-23 20:34:58.598
45.0, -22.663793731480837, -52.915844473056495, -0.1570757981389761, -3.743639855645597, -0.25600001215934753, 0.0, 0.9920000471174717, 0.0, 0.0, 0.0, 0.0, 0.0, 1.6480856986144216E9, 0.0, 2022-03-23 20:34:58.614
45.0, -15.767418213188648, -52.99812227208167, 11.6722277617082, -0.5123662939295173, -0.25600001215934753, 0.0, 0.9920000471174717, 0.0, 0.0, 0.0, 0.0, 0.0, 1.6480856986144216E9, 0.0, 2022-03-23 20:34:58.614
46.0, -23.658607119694352, -52.74006917513907, 5.21716043818742, -3.5566448578611016, -0.25600001215934753, 0.0, 0.9920000471174717, 0.0, 0.0, 0.0, 0.0, 0.0, 1.648085698615154E9, 0.0, 2022-03-23 20:34:58.615
46.0, -38.19559824746102, -53.55162746552378, 1.8213312784209847, -8.990719493478537, -0.25600001215934753, 0.0, 0.9920000471174717, 0.0, 0.0, 0.0, 0.0, 0.0, 1.648085698615154E9, 0.0, 2022-03-23 20:34:58.615
47.0, -35.648726377636194, -53.82838006224483, 9.996752581559122, -8.669088097289205, -0.25600001215934753, 0.0, 0.9920000471174717, 0.0, 0.0, 0.0, 0.0, 0.0, 1.6480856986289198E9, 0.0, 2022-03-23 20:34:58.628
47.0, -15.27749131899327, -46.34858015086502, 10.191227379254997, -1.8587302779778838, -0.25600001215934753, 0.0, 0.9920000471174717, 0.0, 0.0, 0.0, 0.0, 0.0, 1.6480856986289198E9, 0.0, 2022-03-23 20:34:58.628
48.0, -19.27170447167009, -45.80255475733429, 3.9306348534300923, -4.098930351436138, -0.25600001215934753, 0.0, 0.9920000471174717, 0.0, 0.0, 0.0, 0.0, 0.0, 1.648085698644391E9, 0.0, 2022-03-23 20:34:58.644
48.0, -37.76176985260099, -45.11815306544304, 5.561231234110892, -10.950427070260048, -0.25600001215934753, 0.0, 0.9920000471174717, 0.0, 0.0, 0.0, 0.0, 0.0, 1.648085698644391E9, 0.0, 2022-03-23 20:34:58.644
49.0, -21.156614049337804, -54.75961515121162, -7.180607914924622, -8.986979593522847, -0.25600001215934753, 0.0, 0.9920000471174717, 0.0, 0.0, 0.0, 0.0, 0.0, 1.6480856986451197E9, 0.0, 2022-03-23 20:34:58.645
49.0, -30.831735234707594, -53.63016536459327, -11.507672163657844, -12.685740649700165, -0.25600001215934753, 0.0, 0.9920000471174717, 0.0, 0.0, 0.0, 0.0, 0.0, 1.6480856986451197E9, 0.0, 2022-03-23 20:34:58.645
50.0, -31.504917226731777, -55.42157744336873, -10.613836074247956, -11.316937265917659, -0.25600001215934753, 0.0, 0.9760000463575125, 0.0, 0.0, 0.0, 0.0, 0.0, 1.6480856986588E9, 0.0, 2022-03-23 20:34:58.658
50.0, -27.0132973799482, -49.299361215904355, -7.977206605486572, -10.415621376596391, -0.25600001215934753, 0.0, 0.9760000463575125, 0.0, 0.0, 0.0, 0.0, 0.0, 1.6480856986588E9, 0.0, 2022-03-23 20:34:58.658
51.0, -30.794336235150695, -50.72426309902221, -10.684894173406065, -11.548811063170433, -0.25600001215934753, -0.01600000075995922, 0.9760000463575125, 0.0, 0.0, 0.0, 0.0, 0.0, 1.6480856986744823E9, 0.0, 2022-03-23 20:34:58.674
51.0, -31.81906882300973, -49.11236621811986, 0.5834243930876255, -10.89058867096901, -0.25600001215934753, -0.01600000075995922, 0.9760000463575125, 0.0, 0.0, 0.0, 0.0, 0.0, 1.6480856986744823E9, 0.0, 2022-03-23 20:34:58.674
52.0, -20.94717965181917, -45.14059246517718, 9.357229689136147, 1.3127048844471574, -0.25600001215934753, -0.01600000075995922, 0.9760000463575125, 0.0, 0.0, 0.0, 0.0, 0.0, 1.6480856986752288E9, 0.0, 2022-03-23 20:34:58.675
52.0, -17.816883388906717, -41.19125811196864, 7.62939590960741, 3.3509503602981567, -0.25600001215934753, -0.01600000075995922, 0.9760000463575125, 0.0, 0.0, 0.0, 0.0, 0.0, 1.6480856986752288E9, 0.0, 2022-03-23 20:34:58.675
53.0, -30.053836043924093, -49.53871481306851, -9.196413991041481, -13.598276238888502, -0.25600001215934753, -0.01600000075995922, 0.9760000463575125, 0.0, 0.0, 0.0, 0.0, 0.0, 1.648085698688788E9, 0.0, 2022-03-23 20:34:58.688
53.0, -29.122600954957306, -40.22262402344495, 2.487033470533788, -7.191827614791691, -0.25600001215934753, -0.01600000075995922, 0.9760000463575125, 0.0, 0.0, 0.0, 0.0, 0.0, 1.648085698688788E9, 0.0, 2022-03-23 20:34:58.688
54.0, -10.247325878590345, -39.33626773394644, 6.6607618210837245, 1.7839322788640857, -0.25600001215934753, -0.01600000075995922, 0.9760000463575125, 0.0, 0.0, 0.0, 0.0, 0.0, 1.6480856987043972E9, 0.0, 2022-03-23 20:34:58.704
54.0, -22.282323936000466, -38.65560594201088, -3.3172912606969476, -2.2701192731037736, -0.25600001215934753, -0.01600000075995922, 0.9760000463575125, 0.0, 0.0, 0.0, 0.0, 0.0, 1.6480856987043972E9, 0.0, 2022-03-23 20:34:58.704
55.0, -24.455205810256302, -31.998584020882845, -1.7614928791299462, -6.316691025160253, -0.25600001215934753, -0.01600000075995922, 0.9760000463575125, 0.0, 0.0, 0.0, 0.0, 0.0, 1.6480856987051735E9, 0.0, 2022-03-23 20:34:58.705
55.0, -15.154074620455503, -32.33517501689494, 1.570757981389761, -0.44878799468278885, -0.25600001215934753, -0.01600000075995922, 0.9760000463575125, 0.0, 0.0, 0.0, 0.0, 0.0, 1.6480856987051735E9, 0.0, 2022-03-23 20:34:58.705
56.0, -7.850050006993115, -32.451111915521324, 1.002293188124895, -0.8639168897643685, -0.25600001215934753, -0.01600000075995922, 0.9760000463575125, 0.0, 0.0, 0.0, 0.0, 0.0, 1.6480856987187471E9, 0.0, 2022-03-23 20:34:58.718
56.0, -23.015344327315688, -36.21345127094537, -2.6254097688943148, -1.0957906870171428, -0.25600001215934753, -0.01600000075995922, 0.9760000463575125, 0.0, 0.0, 0.0, 0.0, 0.0, 1.6480856987187471E9, 0.0, 2022-03-23 20:34:58.718
57.0, -14.032104633748531, -34.9418852860108, -1.4174220832064748, -0.8265178902074695, -0.25600001215934753, -0.01600000075995922, 0.9760000463575125, 0.0, 0.0, 0.0, 0.0, 0.0, 1.6480856987344327E9, 0.0, 2022-03-23 20:34:58.734
57.0, -1.694174679927528, -30.52132353838533, -10.322123877704144, 6.125956127420068, -0.25600001215934753, -0.01600000075995922, 0.9760000463575125, 0.0, 0.0, 0.0, 0.0, 0.0, 1.6480856987344327E9, 0.0, 2022-03-23 20:34:58.734
58.0, -22.259884536266327, -40.96312421467155, -15.464486316777766, -7.700454008765519, -0.25600001215934753, -0.01600000075995922, 0.9760000463575125, 0.0, 0.0, 0.0, 0.0, 0.0, 1.6480856987351518E9, 0.0, 2022-03-23 20:34:58.735
58.0, -21.594182344153523, -27.106794878840446, 4.356983448378742, 3.7959984550252557, -0.25600001215934753, -0.01600000075995922, 0.9760000463575125, 0.0, 0.0, 0.0, 0.0, 0.0, 1.6480856987351518E9, 0.0, 2022-03-23 20:34:58.735
59.0, -15.453266616910696, -36.882893363013864, -1.847510578110814, 3.739899955689907, -0.25600001215934753, -0.01600000075995922, 0.9760000463575125, 0.0, 0.0, 0.0, 0.0, 0.0, 1.648085698748705E9, 0.0, 2022-03-23 20:34:58.748
59.0, -10.83449017163366, -27.922093069180846, -0.6357829924672842, -4.682354744523764, -0.25600001215934753, -0.01600000075995922, 0.9760000463575125, 0.0, 0.0, 0.0, 0.0, 0.0, 1.648085698748705E9, 0.0, 2022-03-23 20:34:58.748
60.0, -18.688280078582466, -22.98916502762586, -4.476660246960819, -13.022331645712256, -0.25600001215934753, -0.01600000075995922, 0.9920000471174717, 0.0, 0.0, 0.0, 0.0, 0.0, 1.648085698764475E9, 0.0, 2022-03-23 20:34:58.764
60.0, -8.332497101277113, -24.271950712427497, 4.4467410473152995, 8.515752199105918, -0.25600001215934753, -0.01600000075995922, 0.9920000471174717, 0.0, 0.0, 0.0, 0.0, 0.0, 1.648085698764475E9, 0.0, 2022-03-23 20:34:58.764
61.0, -15.868395511992276, -33.69275870081037, 1.4211619831621647, 4.551458246074617, -0.25600001215934753, 0.0, 0.9920000471174717, 0.0, 0.0, 0.0, 0.0, 0.0, 1.6480856987651713E9, 0.0, 2022-03-23 20:34:58.765
61.0, -14.222839531488717, -40.62653321865946, -12.610942650586367, -2.449634470976889, -0.25600001215934753, 0.0, 0.9920000471174717, 0.0, 0.0, 0.0, 0.0, 0.0, 1.6480856987651713E9, 0.0, 2022-03-23 20:34:58.765
62.0, -8.598029998131096, -31.77045012358576, 0.2131742974743247, 7.483539811335504, -0.27200001291930676, 0.0, 0.9920000471174717, 0.0, 0.0, 0.0, 0.0, 0.0, 1.6480856987788153E9, 0.0, 2022-03-23 20:34:58.778
62.0, -7.711673708632588, -31.84898802265525, -6.013759128749371, 7.318984213285148, -0.27200001291930676, 0.0, 0.9920000471174717, 0.0, 0.0, 0.0, 0.0, 0.0, 1.6480856987788153E9, 0.0, 2022-03-23 20:34:58.778
63.0, -12.371589053422213, -29.945378945209086, -7.049711416475475, 9.761138884350657, -0.27200001291930676, 0.0, 0.9920000471174717, 0.0, 0.0, 0.0, 0.0, 0.0, 1.648085698794454E9, 0.0, 2022-03-23 20:34:58.794
63.0, -17.73086568992585, -30.96637163311243, -7.767772207967937, 1.1070103868842125, -0.27200001291930676, 0.0, 0.9920000471174717, 0.0, 0.0, 0.0, 0.0, 0.0, 1.648085698794454E9, 0.0, 2022-03-23 20:34:58.794
64.0, -7.599476709961891, -25.850188493728638, 3.4781069587916136, 15.759938413277268, -0.27200001291930676, 0.0, 0.9920000471174717, 0.0, 0.0, 0.0, 0.0, 0.0, 1.6480856987951562E9, 0.0, 2022-03-23 20:34:58.795
64.0, -4.749672943726182, -24.99001150391996, 8.369896100834012, 20.027164262719452, -0.27200001291930676, 0.0, 0.9920000471174717, 0.0, 0.0, 0.0, 0.0, 0.0, 1.6480856987951562E9, 0.0, 2022-03-23 20:34:58.795
65.0, -9.297391289845109, -13.957306634634733, 24.387887611053884, 25.35652169957757, -0.27200001291930676, 0.0, 0.9920000471174717, 0.0, 0.0, 0.0, 0.0, 0.0, 1.648085698808879E9, 0.0, 2022-03-23 20:34:58.808
65.0, -6.930034617893398, -33.995690597221255, 3.6351827569305897, 6.073597528040409, -0.27200001291930676, 0.0, 0.9920000471174717, 0.0, 0.0, 0.0, 0.0, 0.0, 1.648085698808879E9, 0.0, 2022-03-23 20:34:58.808
66.0, -33.217791406437755, -45.50710266083479, -12.49500575195998, -8.691527497023344, -0.27200001291930676, 0.0, 0.9920000471174717, 0.0, 0.0, 0.0, 0.0, 0.0, 1.648085698824411E9, 0.0, 2022-03-23 20:34:58.824
66.0, -25.431319698691368, -34.803508987650275, -14.847402824088931, -5.972620229236782, -0.27200001291930676, 0.0, 0.9920000471174717, 0.0, 0.0, 0.0, 0.0, 0.0, 1.648085698824411E9, 0.0, 2022-03-23 20:34:58.824
67.0, -21.39970754645765, -29.72098494786769, -8.05948440451175, -4.476660246960819, -0.27200001291930676, 0.0, 0.9920000471174717, 0.0, 0.0, 0.0, 0.0, 0.0, 1.6480856988251455E9, 0.0, 2022-03-23 20:34:58.825
67.0, -16.242385507561266, -25.936206192709506, -2.1915813740342855, -1.5109195820987225, -0.27200001291930676, 0.0, 0.9920000471174717, 0.0, 0.0, 0.0, 0.0, 0.0, 1.6480856988251455E9, 0.0, 2022-03-23 20:34:58.825
68.0, -21.27629084791988, -22.461839133873582, -8.381115800701082, -2.737606767565012, -0.27200001291930676, 0.0, 0.9920000471174717, 0.0, 0.0, 0.0, 0.0, 0.0, 1.6480856988387427E9, 0.0, 2022-03-23 20:34:58.838
68.0, -32.27159671764821, -34.362200792878866, -9.28243169002235, -11.634828762151301, -0.27200001291930676, 0.0, 0.9920000471174717, 0.0, 0.0, 0.0, 0.0, 0.0, 1.6480856988387427E9, 0.0, 2022-03-23 20:34:58.838
69.0, -19.511058068834245, -30.54002303816378, -2.4309349711984396, -2.864763366058469, -0.27200001291930676, 0.0, 0.9920000471174717, 0.0, 0.0, 0.0, 0.0, 0.0, 1.6480856988544157E9, 0.0, 2022-03-23 20:34:58.854
69.0, -38.52844934351742, -29.32455555256456, -7.509719111025333, -1.5857175812125206, -0.27200001291930676, 0.0, 0.9920000471174717, 0.0, 0.0, 0.0, 0.0, 0.0, 1.6480856988544157E9, 0.0, 2022-03-23 20:34:58.854
70.0, -15.191473620012403, -21.605402044020593, 2.853543666191399, 9.585363586433232, -0.27200001291930676, 0.0, 1.008000047877431, 0.0, 0.0, 0.0, 0.0, 0.0, 1.648085698855198E9, 0.0, 2022-03-23 20:34:58.855
70.0, 0.22065409738570452, -14.219099631533027, 3.3098114607855678, 23.75584451854229, -0.27200001291930676, 0.0, 1.008000047877431, 0.0, 0.0, 0.0, 0.0, 0.0, 1.648085698855198E9, 0.0, 2022-03-23 20:34:58.855
71.0, -1.290265484713018, -14.002185434103012, -0.14585609827190638, 17.76078488957137, -0.27200001291930676, -0.01600000075995922, 1.008000047877431, 0.0, 0.0, 0.0, 0.0, 0.0, 1.6480856988687763E9, 0.0, 2022-03-23 20:34:58.868
71.0, -16.362062306143343, -21.72507884260267, -12.648341650143266, 8.758845696225762, -0.27200001291930676, -0.01600000075995922, 1.008000047877431, 0.0, 0.0, 0.0, 0.0, 0.0, 1.6480856988687763E9, 0.0, 2022-03-23 20:34:58.868
72.0, -6.529865322634578, -13.302824142389, 9.166494791395962, 12.775498248636723, -0.27200001291930676, -0.01600000075995922, 1.008000047877431, 0.0, 0.0, 0.0, 0.0, 0.0, 1.6480856988844273E9, 0.0, 2022-03-23 20:34:58.884
72.0, -0.49740669410675764, -20.599368955940008, -0.02617929968982935, 18.778037677519023, -0.27200001291930676, -0.01600000075995922, 1.008000047877431, 0.0, 0.0, 0.0, 0.0, 0.0, 1.6480856988844273E9, 0.0, 2022-03-23 20:34:58.884
73.0, -7.098330115899444, -15.191473620012403, 0.6507425922900438, 10.112689480185509, -0.27200001291930676, -0.01600000075995922, 1.008000047877431, 0.0, 0.0, 0.0, 0.0, 0.0, 1.6480856988851411E9, 0.0, 2022-03-23 20:34:58.885
73.0, -25.188226201571524, -24.477645209990442, -28.318522464483976, -11.167341267690063, -0.27200001291930676, -0.01600000075995922, 1.008000047877431, 0.0, 0.0, 0.0, 0.0, 0.0, 1.6480856988851411E9, 0.0, 2022-03-23 20:34:58.885
74.0, -21.511904545128345, -29.242277753539383, -29.37317425198853, -10.501639075577259, -0.27200001291930676, -0.01600000075995922, 1.008000047877431, 0.0, 0.0, 0.0, 0.0, 0.0, 1.6480856988987763E9, 0.0, 2022-03-23 20:34:58.898
74.0, -26.22417848929763, -23.120061526075006, -12.315490554086864, -5.0488649401813745, -0.27200001291930676, -0.01600000075995922, 1.008000047877431, 0.0, 0.0, 0.0, 0.0, 0.0, 1.6480856988987763E9, 0.0, 2022-03-23 20:34:58.898
75.0, -21.994351639412344, -25.38644089922309, -3.021839164197445, -9.503085787408054, -0.27200001291930676, -0.01600000075995922, 1.008000047877431, 0.0, 0.0, 0.0, 0.0, 0.0, 1.6480856989144263E9, 0.0, 2022-03-23 20:34:58.914
75.0, -11.032704869285226, -15.931973811239004, 10.228626378811896, 6.350350124761462, -0.27200001291930676, -0.01600000075995922, 1.008000047877431, 0.0, 0.0, 0.0, 0.0, 0.0, 1.6480856989144263E9, 0.0, 2022-03-23 20:34:58.914
76.0, -26.725325083360076, -16.88938819989562, -4.712273944169283, -3.22005386184901, -0.27200001291930676, -0.01600000075995922, 1.008000047877431, 0.0, 0.0, 0.0, 0.0, 0.0, 1.6480856989151232E9, 0.0, 2022-03-23 20:34:58.915
76.0, -43.12478638906032, -17.929080387577415, -16.324663306586444, -15.139115020632744, -0.27200001291930676, -0.01600000075995922, 1.008000047877431, 0.0, 0.0, 0.0, 0.0, 0.0, 1.6480856989151232E9, 0.0, 2022-03-23 20:34:58.915
77.0, -35.00172368530184, -6.6607618210837245, 1.3575836839154363, -14.316337030380964, -0.27200001291930676, -0.01600000075995922, 1.008000047877431, 0.0, 0.0, 0.0, 0.0, 0.0, 1.648085698928791E9, 0.0, 2022-03-23 20:34:58.928
77.0, -23.31827622372657, -15.599122715182602, 8.770065396092832, -12.47630625218153, -0.27200001291930676, -0.01600000075995922, 1.008000047877431, 0.0, 0.0, 0.0, 0.0, 0.0, 1.648085698928791E9, 0.0, 2022-03-23 20:34:58.928
78.0, -41.73354360554367, -21.74377834238112, -10.314644077792764, -24.54496340919286, -0.27200001291930676, -0.01600000075995922, 1.008000047877431, 0.0, 0.0, 0.0, 0.0, 0.0, 1.648085698944517E9, 0.0, 2022-03-23 20:34:58.944
78.0, -43.98122347891331, -34.63895338959992, -29.3469949522987, -39.37366673350334, -0.27200001291930676, -0.01600000075995922, 1.008000047877431, 0.0, 0.0, 0.0, 0.0, 0.0, 1.648085698944517E9, 0.0, 2022-03-23 20:34:58.944
79.0, -25.943685992620885, -32.05842242017388, -16.305963806807995, -10.183747579343617, -0.27200001291930676, -0.01600000075995922, 1.008000047877431, 0.0, 0.0, 0.0, 0.0, 0.0, 1.6480856989451385E9, 0.0, 2022-03-23 20:34:58.945
79.0, -35.962877973914146, -22.4917583335191, -30.304409340955317, -16.13018850889057, -0.27200001291930676, -0.01600000075995922, 1.008000047877431, 0.0, 0.0, 0.0, 0.0, 0.0, 1.6480856989451385E9, 0.0, 2022-03-23 20:34:58.945
80.0, -40.75742971710861, -30.756937235593796, -29.79578294698149, -23.72218541894108, -0.27200001291930676, -0.01600000075995922, 1.008000047877431, 0.0, 0.0, 0.0, 0.0, 0.0, 1.6480856989588137E9, 0.0, 2022-03-23 20:34:58.958
80.0, -27.37606767565012, -32.17809921875596, -30.326848740689456, -16.227425907738507, -0.27200001291930676, -0.01600000075995922, 1.008000047877431, 0.0, 0.0, 0.0, 0.0, 0.0, 1.6480856989588137E9, 0.0, 2022-03-23 20:34:58.958
81.0, -27.30500957649201, -32.61192761361599, -30.917752933688462, -13.235505943186581, -0.27200001291930676, -0.03200000151991844, 1.008000047877431, 0.0, 0.0, 0.0, 0.0, 0.0, 1.648085698974381E9, 0.0, 2022-03-23 20:34:58.974
81.0, -25.622054596431553, -28.95804535690695, -18.88275487627834, -7.434921111911535, -0.27200001291930676, -0.03200000151991844, 1.008000047877431, 0.0, 0.0, 0.0, 0.0, 0.0, 1.648085698974381E9, 0.0, 2022-03-23 20:34:58.974
82.0, -26.93101958092302, -36.71459786500782, -23.430473222397268, -8.777545196004212, -0.25600001215934753, -0.03200000151991844, 1.008000047877431, 0.0, 0.0, 0.0, 0.0, 0.0, 1.6480856989751472E9, 0.0, 2022-03-23 20:34:58.975
82.0, -31.145886830985546, -32.447372015565634, -36.29572906997055, -22.704932630993426, -0.25600001215934753, -0.03200000151991844, 1.008000047877431, 0.0, 0.0, 0.0, 0.0, 0.0, 1.6480856989751472E9, 0.0, 2022-03-23 20:34:58.975
83.0, -39.03333583753556, -30.6447402369231, -41.18751821201295, -24.006417815573514, -0.25600001215934753, -0.03200000151991844, 1.008000047877431, 0.0, 0.0, 0.0, 0.0, 0.0, 1.648085699005133E9, 0.0, 2022-03-23 20:34:59.005
83.0, -47.00306264311075, -43.12104648910463, -50.79532119818032, -38.92113883886486, -0.25600001215934753, -0.03200000151991844, 1.008000047877431, 0.0, 0.0, 0.0, 0.0, 0.0, 1.648085699005133E9, 0.0, 2022-03-23 20:34:59.005
84.0, -43.270642487332225, -38.11706034839153, -40.465717520564795, -37.32420155778527, -0.25600001215934753, -0.03200000151991844, 1.008000047877431, 0.0, 0.0, 0.0, 0.0, 0.0, 1.648085699005942E9, 0.0, 2022-03-23 20:34:59.005
84.0, -57.50096181873232, -41.09028081316501, -53.12901877053082, -52.30624078027904, -0.25600001215934753, -0.03200000151991844, 1.008000047877431, 0.0, 0.0, 0.0, 0.0, 0.0, 1.648085699005942E9, 0.0, 2022-03-23 20:34:59.005
85.0, -52.77372827474028, -41.7597229052335, -45.03961516637355, -46.95444394368678, -0.25600001215934753, -0.03200000151991844, 1.008000047877431, 0.0, 0.0, 0.0, 0.0, 0.0, 1.6480856990066433E9, 0.0, 2022-03-23 20:34:59.006
85.0, -20.240338560193777, -29.39187375176698, -31.168326230719686, -16.47799920476973, -0.25600001215934753, -0.03200000151991844, 1.008000047877431, 0.0, 0.0, 0.0, 0.0, 0.0, 1.6480856990066433E9, 0.0, 2022-03-23 20:34:59.006
86.0, -20.659207355231047, -25.177006501704454, -24.417806810699403, -13.957306634634733, -0.25600001215934753, -0.03200000151991844, 1.008000047877431, 0.0, 0.0, 0.0, 0.0, 0.0, 1.6480856990186896E9, 0.0, 2022-03-23 20:34:59.018
86.0, -13.774051536805928, -14.207879931665957, -26.725325083360076, -19.211866072379053, -0.25600001215934753, -0.03200000151991844, 1.008000047877431, 0.0, 0.0, 0.0, 0.0, 0.0, 1.6480856990186896E9, 0.0, 2022-03-23 20:34:59.018
87.0, -23.69974601920694, -31.972404721193016, -44.70302417036146, -33.10185450781137, -0.25600001215934753, -0.03200000151991844, 1.008000047877431, 0.0, 0.0, 0.0, 0.0, 0.0, 1.648085699034434E9, 0.0, 2022-03-23 20:34:59.034
87.0, -20.853682152926922, -31.43011922761798, -42.7620160933584, -27.454605574719608, -0.25600001215934753, -0.03200000151991844, 1.008000047877431, 0.0, 0.0, 0.0, 0.0, 0.0, 1.648085699034434E9, 0.0, 2022-03-23 20:34:59.034
88.0, -33.67405920103192, -42.414205397479236, -55.57117344159633, -41.194998011924326, -0.25600001215934753, -0.03200000151991844, 1.008000047877431, 0.0, 0.0, 0.0, 0.0, 0.0, 1.6480856990351956E9, 0.0, 2022-03-23 20:34:59.035
88.0, -28.340961864218116, -33.85357439890504, -36.378006868995726, -29.8294420465827, -0.25600001215934753, -0.03200000151991844, 1.008000047877431, 0.0, 0.0, 0.0, 0.0, 0.0, 1.6480856990351956E9, 0.0, 2022-03-23 20:34:59.035
89.0, -6.597183521836996, -30.315629040822387, -30.60360133741051, -11.67970756161958, -0.25600001215934753, -0.03200000151991844, 1.008000047877431, 0.0, 0.0, 0.0, 0.0, 0.0, 1.64808569904868E9, 0.0, 2022-03-23 20:34:59.048
89.0, -29.582608649507165, -42.73957669362426, -49.08992681838572, -27.30126967653632, -0.25600001215934753, -0.03200000151991844, 1.008000047877431, 0.0, 0.0, 0.0, 0.0, 0.0, 1.64808569904868E9, 0.0, 2022-03-23 20:34:59.048
90.0, -38.087141148746014, -37.5373758552596, -43.01632929034531, -34.24626389425248, -0.25600001215934753, -0.03200000151991844, 1.0240000486373901, 0.0, 0.0, 0.0, 0.0, 0.0, 1.6480856990645003E9, 0.0, 2022-03-23 20:34:59.064
90.0, -11.713366661220789, -29.257237353362143, -28.98048475664109, -17.218499395996332, -0.25600001215934753, -0.03200000151991844, 1.0240000486373901, 0.0, 0.0, 0.0, 0.0, 0.0, 1.6480856990645003E9, 0.0, 2022-03-23 20:34:59.064
91.0, -0.923755289055407, -18.50128508079797, -25.079769102856517, -8.164201603271067, -0.25600001215934753, -0.0800000037997961, 1.0240000486373901, 0.0, 0.0, 0.0, 0.0, 0.0, 1.6480856990652175E9, 0.0, 2022-03-23 20:34:59.065
91.0, -26.317675988189876, -28.699992259964347, -42.436644797213376, -29.477891450747848, -0.25600001215934753, -0.0800000037997961, 1.0240000486373901, 0.0, 0.0, 0.0, 0.0, 0.0, 1.6480856990652175E9, 0.0, 2022-03-23 20:34:59.065
92.0, -31.35532122850418, -49.44147741422057, -66.74973440915346, -44.841400468721986, -0.25600001215934753, -0.0800000037997961, 1.0240000486373901, 0.0, 0.0, 0.0, 0.0, 0.0, 1.6480856990787027E9, 0.0, 2022-03-23 20:34:59.078
92.0, -20.778884153813124, -44.15325887687504, -56.569726729765534, -25.31538280006498, -0.25600001215934753, -0.0800000037997961, 1.0240000486373901, 0.0, 0.0, 0.0, 0.0, 0.0, 1.6480856990787027E9, 0.0, 2022-03-23 20:34:59.078
93.0, -23.034043827094138, -35.600107678212225, -43.54365518409759, -24.59732200857252, -0.25600001215934753, -0.0800000037997961, 1.0240000486373901, 0.0, 0.0, 0.0, 0.0, 0.0, 1.6480856990944703E9, 0.0, 2022-03-23 20:34:59.094
93.0, -28.797229658812284, -28.879507457837462, -39.01463633775711, -26.54954978544265, -0.25600001215934753, -0.0800000037997961, 1.0240000486373901, 0.0, 0.0, 0.0, 0.0, 0.0, 1.6480856990944703E9, 0.0, 2022-03-23 20:34:59.094
94.0, -12.132235456258059, -38.016083049587905, -36.25459017045796, -19.234305472113192, -0.25600001215934753, -0.0800000037997961, 1.0240000486373901, 0.0, 0.0, 0.0, 0.0, 0.0, 1.6480856990951643E9, 0.0, 2022-03-23 20:34:59.095
94.0, -16.14888800866902, -36.50516346748918, -43.85032698046416, -20.98831855133176, -0.25600001215934753, -0.0800000037997961, 1.0240000486373901, 0.0, 0.0, 0.0, 0.0, 0.0, 1.6480856990951643E9, 0.0, 2022-03-23 20:34:59.095
95.0, -22.416960334405303, -35.31961518153548, -34.93066558614373, -16.586456303484738, -0.25600001215934753, -0.0800000037997961, 1.0240000486373901, 0.0, 0.0, 0.0, 0.0, 0.0, 1.6480856991087484E9, 0.0, 2022-03-23 20:34:59.108
95.0, -30.397906839847565, -51.326386991888285, -59.99921498913318, -46.81606764532626, -0.25600001215934753, -0.0800000037997961, 1.0240000486373901, 0.0, 0.0, 0.0, 0.0, 0.0, 1.6480856991087484E9, 0.0, 2022-03-23 20:34:59.108
96.0, -29.03284335602075, -28.449418962933123, -41.7597229052335, -40.491896820254624, -0.25600001215934753, -0.0800000037997961, 1.0240000486373901, 0.0, 0.0, 0.0, 0.0, 0.0, 1.6480856991244192E9, 0.0, 2022-03-23 20:34:59.124
96.0, -38.072181548923254, -27.286310076713562, -46.77492874581367, -50.28669480420649, -0.25600001215934753, -0.0800000037997961, 1.0240000486373901, 0.0, 0.0, 0.0, 0.0, 0.0, 1.6480856991244192E9, 0.0, 2022-03-23 20:34:59.124
97.0, -29.694805648177862, -31.250604029744864, -43.704470882192254, -52.60169287677854, -0.25600001215934753, -0.0800000037997961, 1.0240000486373901, 0.0, 0.0, 0.0, 0.0, 0.0, 1.6480856991251533E9, 0.0, 2022-03-23 20:34:59.125
97.0, -23.77828391827643, -46.38971905037761, -51.56200068909675, -43.77552898135036, -0.25600001215934753, -0.0800000037997961, 1.0240000486373901, 0.0, 0.0, 0.0, 0.0, 0.0, 1.6480856991251533E9, 0.0, 2022-03-23 20:34:59.125
98.0, -15.857175812125206, -19.817729865200818, -23.542670221067965, -29.694805648177862, -0.25600001215934753, -0.0800000037997961, 1.0240000486373901, 0.0, 0.0, 0.0, 0.0, 0.0, 1.6480856991386917E9, 0.0, 2022-03-23 20:34:59.138
98.0, -26.62434778455645, -26.57946898508817, -29.926679445430636, -32.57452861405909, -0.25600001215934753, -0.0800000037997961, 1.0240000486373901, 0.0, 0.0, 0.0, 0.0, 0.0, 1.6480856991386917E9, 0.0, 2022-03-23 20:34:59.138
99.0, -20.288957259617746, -21.938253140076995, -47.04046164266765, -39.39610613323748, -0.25600001215934753, -0.0800000037997961, 1.0240000486373901, 0.0, 0.0, 0.0, 0.0, 0.0, 1.648085699154418E9, 0.0, 2022-03-23 20:34:59.154
99.0, -28.393320463597775, -19.088449373841286, -46.101746753789485, -54.927910649217665, -0.25600001215934753, -0.0800000037997961, 1.0240000486373901, 0.0, 0.0, 0.0, 0.0, 0.0, 1.648085699154418E9, 0.0, 2022-03-23 20:34:59.154
100.0, -28.696252360008657, -16.87068870011717, -44.18317807652056, -56.70810302812606, -0.25600001215934753, -0.0800000037997961, 0.9920000471174717, 0.0, 0.0, 0.0, 0.0, 0.0, 1.6480856991551125E9, 0.0, 2022-03-23 20:34:59.155
100.0, -30.323108840733767, -26.9384993808344, -61.49143507145345, -65.41085022501647, -0.25600001215934753, -0.0800000037997961, 0.9920000471174717, 0.0, 0.0, 0.0, 0.0, 0.0, 1.6480856991551125E9, 0.0, 2022-03-23 20:34:59.155
0.0, 930.148648029659, 522.6397991077974, 1579.1447070403956, 866.7367743309587, -0.25600001215934753, -0.0800000037997961, 0.9920000471174717, 0.0, 0.0, 0.0, 0.0, 0.0, 1.648085699169427E9, 0.0, 2022-03-23 20:34:59.169
1.0, 925.6233690832742, 530.4823693148792, 1573.3216828093864, 855.1730036679655, -0.25600001215934753, -0.06400000303983688, 0.9920000471174717, 0.0, 0.0, 0.0, 0.0, 0.0, 1.6480856991701286E9, 0.0, 2022-03-23 20:34:59.170
1.0, 931.6259085121565, 527.8756590457633, 1579.212025239598, 860.2181287081912, -0.25600001215934753, -0.06400000303983688, 0.9920000471174717, 0.0, 0.0, 0.0, 0.0, 0.0, 1.6480856991701286E9, 0.0, 2022-03-23 20:34:59.170
2.0, 925.2568588876165, 526.6078329607844, 1582.8958266959526, 865.6970821432769, -0.2240000106394291, -0.06400000303983688, 0.9920000471174717, 0.0, 0.0, 0.0, 0.0, 0.0, 1.6480856991838E9, 0.0, 2022-03-23 20:34:59.183
2.0, 924.9090481917374, 533.4107109801844, 1592.7953418786637, 853.8004603842273, -0.2240000106394291, -0.06400000303983688, 0.9920000471174717, 0.0, 0.0, 0.0, 0.0, 0.0, 1.6480856991838E9, 0.0, 2022-03-23 20:34:59.183
3.0, 911.9577746451832, 526.8584062578157, 1587.7838759380393, 834.0687482180074, -0.2240000106394291, -0.06400000303983688, 0.9920000471174717, 0.0, 0.0, 0.0, 0.0, 0.0, 1.6480856991994784E9, 0.0, 2022-03-23 20:34:59.199
3.0, 916.9916799855419, 509.2434774665162, 1571.3694550325163, 825.3959202207625, -0.2240000106394291, -0.06400000303983688, 0.9920000471174717, 0.0, 0.0, 0.0, 0.0, 0.0, 1.6480856991994784E9, 0.0, 2022-03-23 20:34:59.199
4.0, 909.3473244761117, 500.7950434666127, 1563.2239529290237, 814.1201218543574, -0.2240000106394291, -0.06400000303983688, 0.9920000471174717, 0.0, 0.0, 0.0, 0.0, 0.0, 1.6480856992002423E9, 0.0, 2022-03-23 20:34:59.200
4.0, 908.8985364814289, 496.1313882218674, 1552.8045916524716, 804.8713492639363, -0.2240000106394291, -0.06400000303983688, 0.9920000471174717, 0.0, 0.0, 0.0, 0.0, 0.0, 1.6480856992002423E9, 0.0, 2022-03-23 20:34:59.200
5.0, 919.6245695543475, 510.75065714865923, 1564.3571426155977, 814.7783442465588, -0.2240000106394291, -0.06400000303983688, 0.9920000471174717, 0.0, 0.0, 0.0, 0.0, 0.0, 1.6480856992137413E9, 0.0, 2022-03-23 20:34:59.213
5.0, 894.7766742487438, 499.4636390823871, 1558.6986739826389, 796.2284404663369, -0.2240000106394291, -0.06400000303983688, 0.9920000471174717, 0.0, 0.0, 0.0, 0.0, 0.0, 1.6480856992137413E9, 0.0, 2022-03-23 20:34:59.213
6.0, 886.3469397486188, 490.2971442909911, 1545.8595974347554, 778.2432615794241, -0.2240000106394291, -0.06400000303983688, 0.9920000471174717, 0.0, 0.0, 0.0, 0.0, 0.0, 1.6480856992294328E9, 0.0, 2022-03-23 20:34:59.229
6.0, 887.4202910359018, 492.84401616081595, 1554.4800668326207, 775.7524882089347, -0.2240000106394291, -0.06400000303983688, 0.9920000471174717, 0.0, 0.0, 0.0, 0.0, 0.0, 1.6480856992294328E9, 0.0, 2022-03-23 20:34:59.229
7.0, 895.4087173412554, 487.4249011250213, 1549.8388509876095, 768.6728575928137, -0.2240000106394291, -0.06400000303983688, 0.9920000471174717, 0.0, 0.0, 0.0, 0.0, 0.0, 1.6480856992302952E9, 0.0, 2022-03-23 20:34:59.230
7.0, 891.0928727923892, 494.20907964464277, 1561.447500450071, 779.9561357591301, -0.2240000106394291, -0.06400000303983688, 0.9920000471174717, 0.0, 0.0, 0.0, 0.0, 0.0, 1.6480856992302952E9, 0.0, 2022-03-23 20:34:59.230
8.0, 883.8786057778634, 490.73845248576254, 1558.7398128821515, 784.0662858104333, -0.2240000106394291, -0.06400000303983688, 0.9920000471174717, 0.0, 0.0, 0.0, 0.0, 0.0, 1.6480856992437153E9, 0.0, 2022-03-23 20:34:59.243
8.0, 900.6520570791326, 496.66619391553104, 1569.1554342587478, 795.4393215756863, -0.2240000106394291, -0.06400000303983688, 0.9920000471174717, 0.0, 0.0, 0.0, 0.0, 0.0, 1.6480856992437153E9, 0.0, 2022-03-23 20:34:59.243
9.0, 896.9420763230883, 495.1253551337868, 1560.6172426599078, 792.380083411932, -0.2240000106394291, -0.06400000303983688, 0.9920000471174717, 0.0, 0.0, 0.0, 0.0, 0.0, 1.6480856992593896E9, 0.0, 2022-03-23 20:34:59.259
9.0, 884.1815376742743, 484.1225694641471, 1556.6529487068765, 788.1278171623126, -0.2240000106394291, -0.06400000303983688, 0.9920000471174717, 0.0, 0.0, 0.0, 0.0, 0.0, 1.6480856992593896E9, 0.0, 2022-03-23 20:34:59.259
10.0, 886.8854853422381, 473.31425859220326, 1530.9074774119072, 776.7547813970596, -0.2240000106394291, -0.06400000303983688, 0.9760000463575125, 0.0, 0.0, 0.0, 0.0, 0.0, 1.6480856992601E9, 0.0, 2022-03-23 20:34:59.260
10.0, 874.3343810909428, 467.154643365182, 1528.353125742171, 751.5366359958425, -0.2240000106394291, -0.06400000303983688, 0.9760000463575125, 0.0, 0.0, 0.0, 0.0, 0.0, 1.6480856992601E9, 0.0, 2022-03-23 20:34:59.260
11.0, 885.8383133546449, 483.7784986682236, 1556.3387971105985, 762.1467321701348, -0.2240000106394291, -0.01600000075995922, 0.9760000463575125, 0.0, 0.0, 0.0, 0.0, 0.0, 1.648085699273792E9, 0.0, 2022-03-23 20:34:59.273
11.0, 879.0541348350234, 471.57146521285176, 1537.5757190329023, 748.5447160312906, -0.2240000106394291, -0.01600000075995922, 0.9760000463575125, 0.0, 0.0, 0.0, 0.0, 0.0, 1.648085699273792E9, 0.0, 2022-03-23 20:34:59.273
12.0, 904.1189443380572, 487.50343902409077, 1570.0717097478919, 779.4138502655551, -0.2240000106394291, -0.01600000075995922, 0.9760000463575125, 0.0, 0.0, 0.0, 0.0, 0.0, 1.6480856992894113E9, 0.0, 2022-03-23 20:34:59.289
12.0, 896.2464549313299, 484.13752906396985, 1566.3056304925121, 773.39635123685, -0.2240000106394291, -0.01600000075995922, 0.9760000463575125, 0.0, 0.0, 0.0, 0.0, 0.0, 1.6480856992894113E9, 0.0, 2022-03-23 20:34:59.289
13.0, 882.9885095884092, 481.31390459742397, 1559.5513711725362, 762.5282019656152, -0.2240000106394291, -0.01600000075995922, 0.9760000463575125, 0.0, 0.0, 0.0, 0.0, 0.0, 1.648085699290624E9, 0.0, 2022-03-23 20:34:59.290
13.0, 902.6080247559585, 481.05959140043706, 1556.3874158100225, 774.3762050252408, -0.2240000106394291, -0.01600000075995922, 0.9760000463575125, 0.0, 0.0, 0.0, 0.0, 0.0, 1.648085699290624E9, 0.0, 2022-03-23 20:34:59.290
14.0, 901.4374360698275, 487.4809996243566, 1565.8269232981838, 777.0838925931603, -0.2240000106394291, -0.01600000075995922, 0.9760000463575125, 0.0, 0.0, 0.0, 0.0, 0.0, 1.648085699303789E9, 0.0, 2022-03-23 20:34:59.303
14.0, 886.608732745517, 491.50513197667897, 1568.7590048634447, 768.4933423949406, -0.2240000106394291, -0.01600000075995922, 0.9760000463575125, 0.0, 0.0, 0.0, 0.0, 0.0, 1.648085699303789E9, 0.0, 2022-03-23 20:34:59.303
15.0, 888.6581979212351, 489.99421239458025, 1568.0783430715092, 768.7439156919718, -0.2240000106394291, -0.01600000075995922, 0.9760000463575125, 0.0, 0.0, 0.0, 0.0, 0.0, 1.64808569931945E9, 0.0, 2022-03-23 20:34:59.319
15.0, 895.943523034919, 500.8661015657708, 1577.0802822648548, 772.5773131465539, -0.2240000106394291, -0.01600000075995922, 0.9760000463575125, 0.0, 0.0, 0.0, 0.0, 0.0, 1.64808569931945E9, 0.0, 2022-03-23 20:34:59.319
16.0, 886.3656392483972, 492.76547826174647, 1579.948785530869, 772.1098256520927, -0.2240000106394291, -0.01600000075995922, 0.9760000463575125, 0.0, 0.0, 0.0, 0.0, 0.0, 1.648085699320194E9, 0.0, 2022-03-23 20:34:59.320
16.0, 901.2766203717329, 498.7567979907617, 1586.2841760558076, 780.9696486471221, -0.2240000106394291, -0.01600000075995922, 0.9760000463575125, 0.0, 0.0, 0.0, 0.0, 0.0, 1.648085699320194E9, 0.0, 2022-03-23 20:34:59.320
17.0, 903.9319493402727, 497.5413305051625, 1571.2422984340228, 779.5784058636054, -0.2240000106394291, -0.01600000075995922, 0.9760000463575125, 0.0, 0.0, 0.0, 0.0, 0.0, 1.648085699333772E9, 0.0, 2022-03-23 20:34:59.333
17.0, 886.4105180478655, 503.2783370371908, 1576.0480698770843, 767.9996756007895, -0.2240000106394291, -0.01600000075995922, 0.9760000463575125, 0.0, 0.0, 0.0, 0.0, 0.0, 1.648085699333772E9, 0.0, 2022-03-23 20:34:59.333
18.0, 896.6765434262343, 513.6827387139201, 1594.3324407604523, 768.2876478973776, -0.2240000106394291, -0.01600000075995922, 0.9760000463575125, 0.0, 0.0, 0.0, 0.0, 0.0, 1.6480856993493934E9, 0.0, 2022-03-23 20:34:59.349
18.0, 906.1609297138639, 511.9848241340369, 1596.374426136259, 775.8310261080042, -0.2240000106394291, -0.01600000075995922, 0.9760000463575125, 0.0, 0.0, 0.0, 0.0, 0.0, 1.6480856993493934E9, 0.0, 2022-03-23 20:34:59.349
19.0, 910.2262009656988, 519.6740584429353, 1606.3300398183055, 777.2110491916537, -0.2240000106394291, -0.01600000075995922, 0.9760000463575125, 0.0, 0.0, 0.0, 0.0, 0.0, 1.6480856993501792E9, 0.0, 2022-03-23 20:34:59.350
19.0, 914.1605757190846, 524.6182061843574, 1616.9700551922433, 781.2164820441976, -0.2240000106394291, -0.01600000075995922, 0.9760000463575125, 0.0, 0.0, 0.0, 0.0, 0.0, 1.6480856993501792E9, 0.0, 2022-03-23 20:34:59.350
20.0, 928.6900870469399, 520.4893566332757, 1616.588585396763, 805.742745953612, -0.2240000106394291, -0.01600000075995922, 1.008000047877431, 0.0, 0.0, 0.0, 0.0, 0.0, 1.6480856993638155E9, 0.0, 2022-03-23 20:34:59.363
20.0, 929.0117184431292, 512.489710628055, 1591.3592202956788, 806.4271476455033, -0.2240000106394291, -0.01600000075995922, 1.008000047877431, 0.0, 0.0, 0.0, 0.0, 0.0, 1.6480856993638155E9, 0.0, 2022-03-23 20:34:59.363
21.0, 929.0229381429963, 501.17651326209307, 1572.1884931228124, 806.5954431435093, -0.2240000106394291, 0.0, 1.008000047877431, 0.0, 0.0, 0.0, 0.0, 0.0, 1.6480856993794665E9, 0.0, 2022-03-23 20:34:59.379
21.0, 944.6295406580903, 499.5047779818997, 1581.5457228119485, 823.0697024483234, -0.2240000106394291, 0.0, 1.008000047877431, 0.0, 0.0, 0.0, 0.0, 0.0, 1.6480856993794665E9, 0.0, 2022-03-23 20:34:59.379
22.0, 948.4778977124952, 499.4262400828302, 1582.6190740992315, 818.9745119968429, -0.12800000607967377, 0.0, 1.008000047877431, 0.0, 0.0, 0.0, 0.0, 0.0, 1.648085699380187E9, 0.0, 2022-03-23 20:34:59.380
22.0, 932.6656006998383, 492.8365363609046, 1576.0742491767742, 798.6593754375353, -0.12800000607967377, 0.0, 1.008000047877431, 0.0, 0.0, 0.0, 0.0, 0.0, 1.648085699380187E9, 0.0, 2022-03-23 20:34:59.380
23.0, 909.766193271149, 487.862469419837, 1571.2909171334468, 781.6802296387032, -0.12800000607967377, 0.0, 1.008000047877431, 0.0, 0.0, 0.0, 0.0, 0.0, 1.648085699393712E9, 0.0, 2022-03-23 20:34:59.393
23.0, 917.5900639784522, 484.6685948576778, 1580.4387124250643, 781.1042850455269, -0.12800000607967377, 0.0, 1.008000047877431, 0.0, 0.0, 0.0, 0.0, 0.0, 1.648085699393712E9, 0.0, 2022-03-23 20:34:59.393
24.0, 904.7771667302586, 487.645555222407, 1572.9252534140833, 778.5424535758793, -0.12800000607967377, 0.0, 1.008000047877431, 0.0, 0.0, 0.0, 0.0, 0.0, 1.6480856994094017E9, 0.0, 2022-03-23 20:34:59.409
24.0, 908.318851988297, 501.0119576640427, 1583.228677792009, 788.460668258369, -0.12800000607967377, 0.0, 1.008000047877431, 0.0, 0.0, 0.0, 0.0, 0.0, 1.6480856994094017E9, 0.0, 2022-03-23 20:34:59.409
25.0, 913.154542631004, 486.7068403335288, 1573.0224908129312, 788.1764358617365, -0.12800000607967377, 0.0, 1.008000047877431, 0.0, 0.0, 0.0, 0.0, 0.0, 1.6480856994101849E9, 0.0, 2022-03-23 20:34:59.410
25.0, 928.9406603439711, 490.39438168983907, 1583.6325869872235, 789.2236078493297, -0.12800000607967377, 0.0, 1.008000047877431, 0.0, 0.0, 0.0, 0.0, 0.0, 1.6480856994101849E9, 0.0, 2022-03-23 20:34:59.410
26.0, 928.4133344502188, 485.31933744996786, 1585.4613980655558, 797.4887867514044, -0.12800000607967377, 0.0, 1.008000047877431, 0.0, 0.0, 0.0, 0.0, 0.0, 1.6480856994237509E9, 0.0, 2022-03-23 20:34:59.423
26.0, 931.5772898127325, 498.7493181908503, 1581.2166116158478, 802.6835077898577, -0.12800000607967377, 0.0, 1.008000047877431, 0.0, 0.0, 0.0, 0.0, 0.0, 1.6480856994237509E9, 0.0, 2022-03-23 20:34:59.423
27.0, 924.6285556950606, 502.5303570460528, 1589.1713788216002, 786.8786905771121, -0.12800000607967377, 0.0, 1.008000047877431, 0.0, 0.0, 0.0, 0.0, 0.0, 1.6480856994395013E9, 0.0, 2022-03-23 20:34:59.439
27.0, 930.316943527665, 507.3436082890257, 1592.9673772766255, 786.6281172800809, -0.12800000607967377, 0.0, 1.008000047877431, 0.0, 0.0, 0.0, 0.0, 0.0, 1.6480856994395013E9, 0.0, 2022-03-23 20:34:59.439
28.0, 940.4146734080277, 498.2369518969208, 1581.6018213112839, 803.970033374615, -0.12800000607967377, 0.0, 1.008000047877431, 0.0, 0.0, 0.0, 0.0, 0.0, 1.6480856994403355E9, 0.0, 2022-03-23 20:34:59.440
28.0, 964.1966972262599, 505.1744663147256, 1594.3511402602307, 827.9315723907202, -0.12800000607967377, 0.0, 1.008000047877431, 0.0, 0.0, 0.0, 0.0, 0.0, 1.6480856994403355E9, 0.0, 2022-03-23 20:34:59.440
29.0, 954.835727637168, 501.92823315318674, 1592.260536185, 827.0526959011331, -0.12800000607967377, 0.0, 1.008000047877431, 0.0, 0.0, 0.0, 0.0, 0.0, 1.6480856994537091E9, 0.0, 2022-03-23 20:34:59.453
29.0, 951.7390904738568, 499.1719268858433, 1580.7266847216524, 819.7860702872276, -0.12800000607967377, 0.0, 1.008000047877431, 0.0, 0.0, 0.0, 0.0, 0.0, 1.6480856994537091E9, 0.0, 2022-03-23 20:34:59.453
30.0, 948.6873321100138, 492.4513266654685, 1577.8656612555496, 805.3201372586191, -0.12800000607967377, 0.0, 1.0560000501573086, 0.0, 0.0, 0.0, 0.0, 0.0, 1.6480856994694211E9, 0.0, 2022-03-23 20:34:59.469
30.0, 933.8287095860578, 481.1904878988862, 1580.6294473228045, 788.0717186629772, -0.12800000607967377, 0.0, 1.0560000501573086, 0.0, 0.0, 0.0, 0.0, 0.0, 1.6480856994694211E9, 0.0, 2022-03-23 20:34:59.469
31.0, 919.7816453524865, 488.4608534127474, 1579.9824446304701, 779.8140195608139, -0.12800000607967377, -0.01600000075995922, 1.0560000501573086, 0.0, 0.0, 0.0, 0.0, 0.0, 1.6480856994702225E9, 0.0, 2022-03-23 20:34:59.470
31.0, 907.1669628019445, 483.84581686742604, 1558.08159048995, 766.9936425127089, -0.12800000607967377, -0.01600000075995922, 1.0560000501573086, 0.0, 0.0, 0.0, 0.0, 0.0, 1.6480856994702225E9, 0.0, 2022-03-23 20:34:59.470
32.0, 923.62252260698, 488.2252397155389, 1572.8392357151024, 768.8523727906868, -0.12800000607967377, -0.01600000075995922, 1.0560000501573086, 0.0, 0.0, 0.0, 0.0, 0.0, 1.6480856994837227E9, 0.0, 2022-03-23 20:34:59.483
32.0, 933.813749986235, 500.9895182643086, 1583.7859228854068, 755.0970207536593, -0.12800000607967377, -0.01600000075995922, 1.0560000501573086, 0.0, 0.0, 0.0, 0.0, 0.0, 1.6480856994837227E9, 0.0, 2022-03-23 20:34:59.483
33.0, 918.0650312728249, 489.9268941953778, 1573.048670112621, 748.4138195328414, -0.12800000607967377, -0.01600000075995922, 1.0560000501573086, 0.0, 0.0, 0.0, 0.0, 0.0, 1.6480856994994671E9, 0.0, 2022-03-23 20:34:59.499
33.0, 931.9624995081685, 494.21655944455415, 1581.5232834122144, 762.0083558717743, -0.12800000607967377, -0.01600000075995922, 1.0560000501573086, 0.0, 0.0, 0.0, 0.0, 0.0, 1.6480856994994671E9, 0.0, 2022-03-23 20:34:59.499
34.0, 909.5679785734974, 481.32886419724673, 1572.468985619489, 753.170972276479, -0.12800000607967377, -0.01600000075995922, 1.0560000501573086, 0.0, 0.0, 0.0, 0.0, 0.0, 1.6480856995002196E9, 0.0, 2022-03-23 20:34:59.500
34.0, 923.4878862085752, 492.88515506032854, 1587.6268001399003, 767.9734963010997, -0.12800000607967377, -0.01600000075995922, 1.0560000501573086, 0.0, 0.0, 0.0, 0.0, 0.0, 1.6480856995002196E9, 0.0, 2022-03-23 20:34:59.500
35.0, 944.4986441596411, 490.816990384832, 1575.5768424826674, 782.9218764239922, -0.12800000607967377, -0.01600000075995922, 1.0560000501573086, 0.0, 0.0, 0.0, 0.0, 0.0, 1.6480856995137246E9, 0.0, 2022-03-23 20:34:59.513
35.0, 938.6793598285876, 486.680661033839, 1581.3175889146514, 777.8991907835007, -0.12800000607967377, -0.01600000075995922, 1.0560000501573086, 0.0, 0.0, 0.0, 0.0, 0.0, 1.6480856995137246E9, 0.0, 2022-03-23 20:34:59.513
36.0, 930.3842617268674, 475.91722896136343, 1575.8311556796543, 776.0255009057, -0.12800000607967377, -0.01600000075995922, 1.0560000501573086, 0.0, 0.0, 0.0, 0.0, 0.0, 1.6480856995293932E9, 0.0, 2022-03-23 20:34:59.529
36.0, 917.0589981847443, 463.87475110404193, 1563.5867232247256, 766.413958019577, -0.12800000607967377, -0.01600000075995922, 1.0560000501573086, 0.0, 0.0, 0.0, 0.0, 0.0, 1.6480856995293932E9, 0.0, 2022-03-23 20:34:59.529
37.0, 938.892534126062, 469.46964143775403, 1573.9799052015878, 772.3753585489467, -0.12800000607967377, -0.01600000075995922, 1.0560000501573086, 0.0, 0.0, 0.0, 0.0, 0.0, 1.6480856995302556E9, 0.0, 2022-03-23 20:34:59.530
37.0, 950.1945117921568, 481.6355359936133, 1581.347508114297, 774.0919726286083, -0.12800000607967377, -0.01600000075995922, 1.0560000501573086, 0.0, 0.0, 0.0, 0.0, 0.0, 1.6480856995302556E9, 0.0, 2022-03-23 20:34:59.530
38.0, 951.3277014787309, 489.7174597978592, 1595.56660774583, 786.0671322867274, -0.12800000607967377, -0.01600000075995922, 1.0560000501573086, 0.0, 0.0, 0.0, 0.0, 0.0, 1.6480856995602107E9, 0.0, 2022-03-23 20:34:59.560
38.0, 951.881206672173, 490.95910658314824, 1593.9397512651049, 776.6388444984332, -0.12800000607967377, -0.01600000075995922, 1.0560000501573086, 0.0, 0.0, 0.0, 0.0, 0.0, 1.6480856995602107E9, 0.0, 2022-03-23 20:34:59.560
39.0, 932.5758431009017, 488.03076491784304, 1591.5948339928873, 755.8637002445757, -0.12800000607967377, -0.01600000075995922, 1.0560000501573086, 0.0, 0.0, 0.0, 0.0, 0.0, 1.6480856995609012E9, 0.0, 2022-03-23 20:34:59.560
39.0, 930.7881709220819, 483.57654407061636, 1585.0051302709617, 744.2812300818041, -0.12800000607967377, -0.01600000075995922, 1.0560000501573086, 0.0, 0.0, 0.0, 0.0, 0.0, 1.6480856995609012E9, 0.0, 2022-03-23 20:34:59.560
40.0, 924.2209065998904, 476.2650396572426, 1578.8043761444278, 735.466285886243, -0.12800000607967377, -0.01600000075995922, 1.0240000486373901, 0.0, 0.0, 0.0, 0.0, 0.0, 1.648085699561606E9, 0.0, 2022-03-23 20:34:59.561
40.0, 918.1734883715399, 473.79296578653157, 1572.0800360240974, 729.6208222554997, -0.12800000607967377, -0.01600000075995922, 1.0240000486373901, 0.0, 0.0, 0.0, 0.0, 0.0, 1.648085699561606E9, 0.0, 2022-03-23 20:34:59.561
41.0, 913.262999729719, 482.6415690816939, 1582.9781044949777, 731.064423638396, -0.12800000607967377, 0.03200000151991844, 1.0240000486373901, 0.0, 0.0, 0.0, 0.0, 0.0, 1.6480856995736814E9, 0.0, 2022-03-23 20:34:59.573
41.0, 910.2860393649898, 483.5167056713253, 1581.1866924162023, 724.31016431842, -0.12800000607967377, 0.03200000151991844, 1.0240000486373901, 0.0, 0.0, 0.0, 0.0, 0.0, 1.6480856995736814E9, 0.0, 2022-03-23 20:34:59.573
42.0, 890.4907488995232, 477.5927041415125, 1580.8463615202345, 705.4161897422746, -0.11200000531971455, 0.03200000151991844, 1.0240000486373901, 0.0, 0.0, 0.0, 0.0, 0.0, 1.6480856995894475E9, 0.0, 2022-03-23 20:34:59.589
42.0, 902.6716030552052, 479.54493191838264, 1582.6452533989213, 681.2751355282962, -0.11200000531971455, 0.03200000151991844, 1.0240000486373901, 0.0, 0.0, 0.0, 0.0, 0.0, 1.6480856995894475E9, 0.0, 2022-03-23 20:34:59.589
43.0, 899.369271394331, 483.6663016695529, 1586.0672618583776, 700.8946506958455, -0.11200000531971455, 0.03200000151991844, 1.0240000486373901, 0.0, 0.0, 0.0, 0.0, 0.0, 1.648085699590145E9, 0.0, 2022-03-23 20:34:59.590
43.0, 892.1063856803812, 472.4017230030149, 1575.7226985809393, 701.7136887861416, -0.11200000531971455, 0.03200000151991844, 1.0240000486373901, 0.0, 0.0, 0.0, 0.0, 0.0, 1.648085699590145E9, 0.0, 2022-03-23 20:34:59.590
44.0, 895.5396138397045, 478.5987372295931, 1576.4071002728306, 720.0952970683575, -0.11200000531971455, 0.03200000151991844, 1.0240000486373901, 0.0, 0.0, 0.0, 0.0, 0.0, 1.6480856996036985E9, 0.0, 2022-03-23 20:34:59.603
44.0, 901.2541809719987, 476.24634015746415, 1560.9089548564516, 721.2322266548872, -0.11200000531971455, 0.03200000151991844, 1.0240000486373901, 0.0, 0.0, 0.0, 0.0, 0.0, 1.6480856996036985E9, 0.0, 2022-03-23 20:34:59.603
45.0, 926.1207757773809, 476.4482947550714, 1572.0201976248063, 744.5579826785251, -0.11200000531971455, 0.03200000151991844, 1.0240000486373901, 0.0, 0.0, 0.0, 0.0, 0.0, 1.6480856996194377E9, 0.0, 2022-03-23 20:34:59.619
45.0, 929.0453775427304, 473.4114959910512, 1579.0474696415477, 742.702992300503, -0.11200000531971455, 0.03200000151991844, 1.0240000486373901, 0.0, 0.0, 0.0, 0.0, 0.0, 1.6480856996194377E9, 0.0, 2022-03-23 20:34:59.619
46.0, 915.1591290072538, 460.4826618442312, 1569.1928332583047, 728.0874632736668, -0.11200000531971455, 0.03200000151991844, 1.0240000486373901, 0.0, 0.0, 0.0, 0.0, 0.0, 1.6480856996202226E9, 0.0, 2022-03-23 20:34:59.620
46.0, 916.1876014950685, 457.50196157954633, 1572.5811826181598, 727.7770515773445, -0.11200000531971455, 0.03200000151991844, 1.0240000486373901, 0.0, 0.0, 0.0, 0.0, 0.0, 1.6480856996202226E9, 0.0, 2022-03-23 20:34:59.620
47.0, 921.8273706282489, 461.23064183536917, 1578.1798128518276, 720.0055394694209, -0.11200000531971455, 0.03200000151991844, 1.0240000486373901, 0.0, 0.0, 0.0, 0.0, 0.0, 1.6480856996337326E9, 0.0, 2022-03-23 20:34:59.633
47.0, 915.7799523998983, 465.93917587958276, 1579.5299167358316, 721.2434463547543, -0.11200000531971455, 0.03200000151991844, 1.0240000486373901, 0.0, 0.0, 0.0, 0.0, 0.0, 1.6480856996337326E9, 0.0, 2022-03-23 20:34:59.633
48.0, 917.0178592852317, 458.4444163683802, 1578.946492342744, 718.9060088824481, -0.11200000531971455, 0.03200000151991844, 1.0240000486373901, 0.0, 0.0, 0.0, 0.0, 0.0, 1.648085699649442E9, 0.0, 2022-03-23 20:34:59.649
48.0, 929.086516442243, 464.0318269021809, 1589.3733334192075, 722.1223228443414, -0.11200000531971455, 0.03200000151991844, 1.0240000486373901, 0.0, 0.0, 0.0, 0.0, 0.0, 1.648085699649442E9, 0.0, 2022-03-23 20:34:59.649
49.0, 908.5918646850623, 472.43164220266044, 1581.8823138079606, 714.1563359387219, -0.11200000531971455, 0.03200000151991844, 1.0240000486373901, 0.0, 0.0, 0.0, 0.0, 0.0, 1.6480856996501715E9, 0.0, 2022-03-23 20:34:59.650
49.0, 909.60911747301, 468.53840634878725, 1582.963144895155, 716.0674248160794, -0.11200000531971455, 0.03200000151991844, 1.0240000486373901, 0.0, 0.0, 0.0, 0.0, 0.0, 1.6480856996501715E9, 0.0, 2022-03-23 20:34:59.650
50.0, 934.3672551796772, 484.69477415736765, 1594.1940644620918, 740.8592216223478, -0.11200000531971455, 0.03200000151991844, 0.9920000471174717, 0.0, 0.0, 0.0, 0.0, 0.0, 1.648085699679186E9, 0.0, 2022-03-23 20:34:59.679
50.0, 934.5953890769742, 485.5699107469991, 1585.9625446596183, 751.6899718940258, -0.11200000531971455, 0.03200000151991844, 0.9920000471174717, 0.0, 0.0, 0.0, 0.0, 0.0, 1.648085699679186E9, 0.0, 2022-03-23 20:34:59.679
51.0, 913.4125957279466, 477.5889642415568, 1583.8495011846535, 739.7447314355522, -0.11200000531971455, 0.06400000303983688, 0.9920000471174717, 0.0, 0.0, 0.0, 0.0, 0.0, 1.6480856996958575E9, 0.0, 2022-03-23 20:34:59.695
51.0, 913.3901563282125, 464.08418550156057, 1569.92585364962, 724.8337503122166, -0.11200000531971455, 0.06400000303983688, 0.9920000471174717, 0.0, 0.0, 0.0, 0.0, 0.0, 1.6480856996958575E9, 0.0, 2022-03-23 20:34:59.695
52.0, 928.4731728495099, 480.8164979033172, 1582.0431295060553, 732.6277018198743, -0.19200000911951065, 0.06400000303983688, 0.9920000471174717, 0.0, 0.0, 0.0, 0.0, 0.0, 1.6480856996965282E9, 0.0, 2022-03-23 20:34:59.696
52.0, 903.1839693491347, 478.40052253194153, 1575.6329409820028, 712.8922497536987, -0.19200000911951065, 0.06400000303983688, 0.9920000471174717, 0.0, 0.0, 0.0, 0.0, 0.0, 1.6480856996965282E9, 0.0, 2022-03-23 20:34:59.696
53.0, 898.4866550047882, 472.7420538989827, 1579.260643939022, 703.0189138706774, -0.19200000911951065, 0.06400000303983688, 0.9920000471174717, 0.0, 0.0, 0.0, 0.0, 0.0, 1.6480856996972961E9, 0.0, 2022-03-23 20:34:59.697
53.0, 920.282791946549, 479.4065556200221, 1578.1237143524922, 715.0277326283976, -0.19200000911951065, 0.06400000303983688, 0.9920000471174717, 0.0, 0.0, 0.0, 0.0, 0.0, 1.6480856996972961E9, 0.0, 2022-03-23 20:34:59.697
54.0, 920.4660470443778, 485.9999992419034, 1591.7481698910706, 722.1223228443414, -0.19200000911951065, 0.06400000303983688, 0.9920000471174717, 0.0, 0.0, 0.0, 0.0, 0.0, 1.648085699698094E9, 0.0, 2022-03-23 20:34:59.698
54.0, 915.2002679067664, 480.8688565026969, 1583.9093395839445, 716.2992986133322, -0.19200000911951065, 0.06400000303983688, 0.9920000471174717, 0.0, 0.0, 0.0, 0.0, 0.0, 1.648085699698094E9, 0.0, 2022-03-23 20:34:59.698
55.0, 918.0201524733566, 482.8173443796113, 1589.343414219562, 726.4045082936063, -0.19200000911951065, 0.06400000303983688, 0.9920000471174717, 0.0, 0.0, 0.0, 0.0, 0.0, 1.6480856997088587E9, 0.0, 2022-03-23 20:34:59.708
55.0, 905.0314799272455, 476.39219625573605, 1583.673725886736, 716.048725316301, -0.19200000911951065, 0.06400000303983688, 0.9920000471174717, 0.0, 0.0, 0.0, 0.0, 0.0, 1.6480856997088587E9, 0.0, 2022-03-23 20:34:59.708
56.0, 896.306293330621, 483.1614151755348, 1590.6972580035217, 697.9663090305403, -0.19200000911951065, 0.06400000303983688, 0.9920000471174717, 0.0, 0.0, 0.0, 0.0, 0.0, 1.648085699723772E9, 0.0, 2022-03-23 20:34:59.723
56.0, 892.9516030703671, 488.3149973144755, 1578.789416544605, 693.1642774874344, -0.19200000911951065, 0.06400000303983688, 0.9920000471174717, 0.0, 0.0, 0.0, 0.0, 0.0, 1.648085699723772E9, 0.0, 2022-03-23 20:34:59.723
57.0, 905.7570205186494, 491.7818845734, 1587.207931344863, 717.821437895298, -0.19200000911951065, 0.06400000303983688, 0.9920000471174717, 0.0, 0.0, 0.0, 0.0, 0.0, 1.6480856997393875E9, 0.0, 2022-03-23 20:34:59.739
57.0, 931.2519185165875, 493.603215851821, 1596.0939336395822, 740.4702720269561, -0.19200000911951065, 0.06400000303983688, 0.9920000471174717, 0.0, 0.0, 0.0, 0.0, 0.0, 1.6480856997393875E9, 0.0, 2022-03-23 20:34:59.739
58.0, 953.6613990510814, 495.5704032285139, 1600.7912479839288, 753.6683789705858, -0.19200000911951065, 0.06400000303983688, 0.9920000471174717, 0.0, 0.0, 0.0, 0.0, 0.0, 1.6480856997401428E9, 0.0, 2022-03-23 20:34:59.740
58.0, 949.4166126013733, 491.4228541776538, 1590.9141722009517, 756.8024151334539, -0.19200000911951065, 0.06400000303983688, 0.9920000471174717, 0.0, 0.0, 0.0, 0.0, 0.0, 1.6480856997401428E9, 0.0, 2022-03-23 20:34:59.740
59.0, 933.6604140880518, 499.3065632842481, 1596.314587736968, 753.002676778473, -0.19200000911951065, 0.06400000303983688, 0.9920000471174717, 0.0, 0.0, 0.0, 0.0, 0.0, 1.6480856997537453E9, 0.0, 2022-03-23 20:34:59.753
59.0, 943.1896791751496, 502.3059630487114, 1593.9921098644845, 752.2397371875122, -0.19200000911951065, 0.06400000303983688, 0.9920000471174717, 0.0, 0.0, 0.0, 0.0, 0.0, 1.6480856997537453E9, 0.0, 2022-03-23 20:34:59.753
60.0, 934.9020608733408, 487.8213305203244, 1584.2122714803554, 743.1218610955402, -0.19200000911951065, 0.06400000303983688, 1.008000047877431, 0.0, 0.0, 0.0, 0.0, 0.0, 1.6480856997694905E9, 0.0, 2022-03-23 20:34:59.769
60.0, 933.5407372894697, 488.0008457181975, 1598.4687701114453, 736.973465568386, -0.19200000911951065, 0.06400000303983688, 1.008000047877431, 0.0, 0.0, 0.0, 0.0, 0.0, 1.6480856997694905E9, 0.0, 2022-03-23 20:34:59.769
61.0, 925.5036922846921, 483.086617176421, 1606.1580044203438, 734.1461012018844, -0.19200000911951065, 0.03200000151991844, 1.008000047877431, 0.0, 0.0, 0.0, 0.0, 0.0, 1.6480856997702892E9, 0.0, 2022-03-23 20:34:59.770
61.0, 943.7693636682816, 502.19002615008503, 1618.1406438783742, 749.9883174141869, -0.19200000911951065, 0.03200000151991844, 1.008000047877431, 0.0, 0.0, 0.0, 0.0, 0.0, 1.6480856997702892E9, 0.0, 2022-03-23 20:34:59.770
62.0, 955.7781824260019, 503.794443231076, 1624.6667693010531, 765.3293870324269, -0.288000013679266, 0.03200000151991844, 1.008000047877431, 0.0, 0.0, 0.0, 0.0, 0.0, 1.648085699800107E9, 0.0, 2022-03-23 20:34:59.800
62.0, 948.8631074079312, 501.47196535859257, 1614.2511479244567, 768.1043927995488, -0.288000013679266, 0.03200000151991844, 1.008000047877431, 0.0, 0.0, 0.0, 0.0, 0.0, 1.648085699800107E9, 0.0, 2022-03-23 20:34:59.800
63.0, 943.245777674485, 500.51081106998026, 1622.112417631317, 768.4409837955609, -0.288000013679266, 0.03200000151991844, 1.008000047877431, 0.0, 0.0, 0.0, 0.0, 0.0, 1.648085699800826E9, 0.0, 2022-03-23 20:34:59.800
63.0, 931.2145195170306, 499.69551287963986, 1625.3025522935204, 763.6838310519233, -0.288000013679266, 0.03200000151991844, 1.008000047877431, 0.0, 0.0, 0.0, 0.0, 0.0, 1.648085699800826E9, 0.0, 2022-03-23 20:34:59.800
64.0, 925.4812528849579, 512.960938022472, 1633.1900013000704, 754.1919649643824, -0.288000013679266, 0.03200000151991844, 1.008000047877431, 0.0, 0.0, 0.0, 0.0, 0.0, 1.6480856998016307E9, 0.0, 2022-03-23 20:34:59.801
64.0, 893.8080401602201, 511.15456634387374, 1631.0096396259032, 717.5185059988871, -0.288000013679266, 0.03200000151991844, 1.008000047877431, 0.0, 0.0, 0.0, 0.0, 0.0, 1.6480856998016307E9, 0.0, 2022-03-23 20:34:59.801
65.0, 911.273372953292, 512.6280869264156, 1630.9236219269224, 728.8541427645832, -0.288000013679266, 0.03200000151991844, 1.008000047877431, 0.0, 0.0, 0.0, 0.0, 0.0, 1.648085699813714E9, 0.0, 2022-03-23 20:34:59.813
65.0, 913.4013760280795, 523.2194836009294, 1638.8933487324975, 743.6529268892482, -0.288000013679266, 0.03200000151991844, 1.008000047877431, 0.0, 0.0, 0.0, 0.0, 0.0, 1.648085699813714E9, 0.0, 2022-03-23 20:34:59.813
66.0, 923.1662548123859, 522.3293874114752, 1647.607315629255, 751.1364667005837, -0.288000013679266, 0.03200000151991844, 1.008000047877431, 0.0, 0.0, 0.0, 0.0, 0.0, 1.6480856998294656E9, 0.0, 2022-03-23 20:34:59.829
66.0, 931.3491559154354, 523.7804685942829, 1641.903968196828, 761.7802219744772, -0.288000013679266, 0.03200000151991844, 1.008000047877431, 0.0, 0.0, 0.0, 0.0, 0.0, 1.6480856998294656E9, 0.0, 2022-03-23 20:34:59.829
67.0, 947.7972359205596, 535.2806609580293, 1642.3153571919538, 783.8830307126045, -0.288000013679266, 0.03200000151991844, 1.008000047877431, 0.0, 0.0, 0.0, 0.0, 0.0, 1.64808569983014E9, 0.0, 2022-03-23 20:34:59.830
67.0, 946.8734806315042, 523.1783447014168, 1642.8501628856175, 788.6663627559319, -0.288000013679266, 0.03200000151991844, 1.008000047877431, 0.0, 0.0, 0.0, 0.0, 0.0, 1.64808569983014E9, 0.0, 2022-03-23 20:34:59.830
68.0, 934.2064394815825, 516.5362823801115, 1636.9635603553616, 786.2952661840245, -0.288000013679266, 0.03200000151991844, 1.008000047877431, 0.0, 0.0, 0.0, 0.0, 0.0, 1.6480856998437684E9, 0.0, 2022-03-23 20:34:59.843
68.0, 942.8605679790489, 513.1853320198134, 1630.0671848370694, 793.5244927983731, -0.288000013679266, 0.03200000151991844, 1.008000047877431, 0.0, 0.0, 0.0, 0.0, 0.0, 1.6480856998437684E9, 0.0, 2022-03-23 20:34:59.843
69.0, 935.0666164713912, 505.024870316498, 1625.224014394451, 782.9891946231946, -0.288000013679266, 0.03200000151991844, 1.008000047877431, 0.0, 0.0, 0.0, 0.0, 0.0, 1.6480856998594923E9, 0.0, 2022-03-23 20:34:59.859
69.0, 924.2209065998904, 501.6103416569531, 1622.9464153214358, 783.8867706125602, -0.288000013679266, 0.03200000151991844, 1.008000047877431, 0.0, 0.0, 0.0, 0.0, 0.0, 1.6480856998594923E9, 0.0, 2022-03-23 20:34:59.859
70.0, 939.494658018928, 503.4316729353741, 1622.7781198234297, 816.042430431582, -0.288000013679266, 0.03200000151991844, 0.9760000463575125, 0.0, 0.0, 0.0, 0.0, 0.0, 1.6480856998601947E9, 0.0, 2022-03-23 20:34:59.860
70.0, 937.9500793372281, 497.1262016100809, 1606.1467847204767, 808.3831153223291, -0.288000013679266, 0.03200000151991844, 0.9760000463575125, 0.0, 0.0, 0.0, 0.0, 0.0, 1.6480856998601947E9, 0.0, 2022-03-23 20:34:59.860
71.0, 925.0436845901422, 492.7505186619237, 1611.9174503521062, 807.2723650354892, -0.288000013679266, -0.01600000075995922, 0.9760000463575125, 0.0, 0.0, 0.0, 0.0, 0.0, 1.6480856998737175E9, 0.0, 2022-03-23 20:34:59.873
71.0, 924.2770050992258, 509.5464093629271, 1623.4101629159413, 816.4538194267079, -0.288000013679266, -0.01600000075995922, 0.9760000463575125, 0.0, 0.0, 0.0, 0.0, 0.0, 1.6480856998737175E9, 0.0, 2022-03-23 20:34:59.873
72.0, 927.7326726582833, 514.6102339029312, 1617.9723483803682, 809.1722342129797, -0.33600001595914364, -0.01600000075995922, 0.9760000463575125, 0.0, 0.0, 0.0, 0.0, 0.0, 1.6480856998894396E9, 0.0, 2022-03-23 20:34:59.889
72.0, 922.0592444255017, 515.4180522933602, 1619.5131871621124, 793.3300180006772, -0.33600001595914364, -0.01600000075995922, 0.9760000463575125, 0.0, 0.0, 0.0, 0.0, 0.0, 1.6480856998894396E9, 0.0, 2022-03-23 20:34:59.889
73.0, 906.3479247116484, 504.9463324174285, 1615.6199513082393, 775.9357433067635, -0.33600001595914364, -0.01600000075995922, 0.9760000463575125, 0.0, 0.0, 0.0, 0.0, 0.0, 1.6480856998901863E9, 0.0, 2022-03-23 20:34:59.890
73.0, 914.179275218863, 504.22079182602465, 1620.676296048332, 784.4664551056921, -0.33600001595914364, -0.01600000075995922, 0.9760000463575125, 0.0, 0.0, 0.0, 0.0, 0.0, 1.6480856998901863E9, 0.0, 2022-03-23 20:34:59.890
74.0, 927.0333113665693, 512.2952358303592, 1628.406669256743, 793.718967596069, -0.33600001595914364, -0.01600000075995922, 0.9760000463575125, 0.0, 0.0, 0.0, 0.0, 0.0, 1.6480856999037094E9, 0.0, 2022-03-23 20:34:59.903
74.0, 928.2113798526116, 518.1406994611025, 1630.8899628273211, 790.5624920334667, -0.33600001595914364, -0.01600000075995922, 0.9760000463575125, 0.0, 0.0, 0.0, 0.0, 0.0, 1.6480856999037094E9, 0.0, 2022-03-23 20:34:59.903
75.0, 908.4086095872335, 491.8566825725138, 1602.694857061375, 771.3356663612649, -0.33600001595914364, -0.01600000075995922, 0.9760000463575125, 0.0, 0.0, 0.0, 0.0, 0.0, 1.6480856999194365E9, 0.0, 2022-03-23 20:34:59.919
75.0, 913.2181209302507, 490.1961669921875, 1597.0326485284604, 770.3670322727412, -0.33600001595914364, -0.01600000075995922, 0.9760000463575125, 0.0, 0.0, 0.0, 0.0, 0.0, 1.6480856999194365E9, 0.0, 2022-03-23 20:34:59.919
76.0, 906.7106950073503, 494.9047010364011, 1597.4290779237635, 752.8643004801124, -0.33600001595914364, -0.01600000075995922, 0.9760000463575125, 0.0, 0.0, 0.0, 0.0, 0.0, 1.6480856999201877E9, 0.0, 2022-03-23 20:34:59.920
76.0, 906.774273306597, 492.95247325953096, 1590.7645762027241, 747.7817764403298, -0.33600001595914364, -0.01600000075995922, 0.9760000463575125, 0.0, 0.0, 0.0, 0.0, 0.0, 1.6480856999201877E9, 0.0, 2022-03-23 20:34:59.920
77.0, 925.3017376870848, 504.37038782425225, 1598.0199821167625, 760.6470322879031, -0.33600001595914364, -0.01600000075995922, 0.9760000463575125, 0.0, 0.0, 0.0, 0.0, 0.0, 1.6480856999502037E9, 0.0, 2022-03-23 20:34:59.950
77.0, 901.6319108675234, 488.59174991119653, 1586.4225523541681, 753.4888637727126, -0.33600001595914364, -0.01600000075995922, 0.9760000463575125, 0.0, 0.0, 0.0, 0.0, 0.0, 1.6480856999502037E9, 0.0, 2022-03-23 20:34:59.950
78.0, 916.8159046876244, 494.91592073626816, 1593.2703091730364, 761.7802219744772, -0.33600001595914364, -0.01600000075995922, 0.9760000463575125, 0.0, 0.0, 0.0, 0.0, 0.0, 1.6480856999508228E9, 0.0, 2022-03-23 20:34:59.950
78.0, 931.7343656108715, 499.7291719792411, 1595.3309940486215, 763.3771592555568, -0.33600001595914364, -0.01600000075995922, 0.9760000463575125, 0.0, 0.0, 0.0, 0.0, 0.0, 1.6480856999508228E9, 0.0, 2022-03-23 20:34:59.950
79.0, 920.7203602413647, 497.0551435109228, 1599.8936719945632, 751.7984289927408, -0.33600001595914364, -0.01600000075995922, 0.9760000463575125, 0.0, 0.0, 0.0, 0.0, 0.0, 1.6480856999515955E9, 0.0, 2022-03-23 20:34:59.951
79.0, 920.2790520465933, 505.55593611020595, 1606.7900475128554, 744.5318033788353, -0.33600001595914364, -0.01600000075995922, 0.9760000463575125, 0.0, 0.0, 0.0, 0.0, 0.0, 1.6480856999515955E9, 0.0, 2022-03-23 20:34:59.951
80.0, 916.0417453967966, 511.41635934077203, 1597.7694088197313, 728.6409684671089, -0.33600001595914364, -0.01600000075995922, 0.9760000463575125, 0.0, 0.0, 0.0, 0.0, 0.0, 1.6480856999637682E9, 0.0, 2022-03-23 20:34:59.963
80.0, 925.8552428805269, 518.978437051177, 1611.4237835579552, 727.0328114861622, -0.33600001595914364, -0.01600000075995922, 0.9760000463575125, 0.0, 0.0, 0.0, 0.0, 0.0, 1.6480856999637682E9, 0.0, 2022-03-23 20:34:59.963
81.0, 921.6403756304644, 515.6761053903028, 1617.9686084804125, 735.3279095878825, -0.33600001595914364, -0.03200000151991844, 0.9760000463575125, 0.0, 0.0, 0.0, 0.0, 0.0, 1.648085699979532E9, 0.0, 2022-03-23 20:34:59.979
81.0, 919.8938423511572, 513.6640392141417, 1623.3727639163844, 734.452772998251, -0.33600001595914364, -0.03200000151991844, 0.9760000463575125, 0.0, 0.0, 0.0, 0.0, 0.0, 1.648085699979532E9, 0.0, 2022-03-23 20:34:59.979
82.0, 911.6698023485951, 509.643646761775, 1595.772302243393, 720.016759169288, -0.25600001215934753, -0.03200000151991844, 0.9760000463575125, 0.0, 0.0, 0.0, 0.0, 0.0, 1.6480856999802046E9, 0.0, 2022-03-23 20:34:59.980
82.0, 926.8051774692722, 508.15142667945474, 1611.0834526619874, 735.4849853860214, -0.25600001215934753, -0.03200000151991844, 0.9760000463575125, 0.0, 0.0, 0.0, 0.0, 0.0, 1.6480856999802046E9, 0.0, 2022-03-23 20:34:59.980
83.0, 926.4910258729942, 511.1657860437408, 1629.8465307396837, 747.5012839436531, -0.25600001215934753, -0.03200000151991844, 0.9760000463575125, 0.0, 0.0, 0.0, 0.0, 0.0, 1.6480856999937892E9, 0.0, 2022-03-23 20:34:59.993
83.0, 934.9282401730306, 494.0894028460607, 1612.9646223396994, 755.9123189439997, -0.25600001215934753, -0.03200000151991844, 0.9760000463575125, 0.0, 0.0, 0.0, 0.0, 0.0, 1.6480856999937892E9, 0.0, 2022-03-23 20:34:59.993
84.0, 946.671526033897, 501.62904115673155, 1629.9362883386202, 769.0356278885156, -0.25600001215934753, -0.03200000151991844, 0.9760000463575125, 0.0, 0.0, 0.0, 0.0, 0.0, 1.6480857000093765E9, 0.0, 2022-03-23 20:35:00.009
84.0, 961.047701463569, 506.8312419950962, 1644.2002667696215, 776.3022535024211, -0.25600001215934753, -0.03200000151991844, 0.9760000463575125, 0.0, 0.0, 0.0, 0.0, 0.0, 1.6480857000093765E9, 0.0, 2022-03-23 20:35:00.009
85.0, 953.7885556495748, 504.9425925174728, 1638.2388662402518, 770.4193908721209, -0.25600001215934753, -0.03200000151991844, 0.9760000463575125, 0.0, 0.0, 0.0, 0.0, 0.0, 1.64808570001026E9, 0.0, 2022-03-23 20:35:00.010
85.0, 951.2940423791297, 489.7959976969287, 1620.7772733471356, 765.0189753361046, -0.25600001215934753, -0.03200000151991844, 0.9760000463575125, 0.0, 0.0, 0.0, 0.0, 0.0, 1.64808570001026E9, 0.0, 2022-03-23 20:35:00.010
86.0, 964.1630381266586, 495.6713805273175, 1631.1741952239536, 763.6501719523221, -0.25600001215934753, -0.03200000151991844, 0.9760000463575125, 0.0, 0.0, 0.0, 0.0, 0.0, 1.6480857000237093E9, 0.0, 2022-03-23 20:35:00.023
86.0, 964.0321416282095, 511.03862944524735, 1636.537211760413, 765.0114955361933, -0.25600001215934753, -0.03200000151991844, 0.9760000463575125, 0.0, 0.0, 0.0, 0.0, 0.0, 1.6480857000237093E9, 0.0, 2022-03-23 20:35:00.023
87.0, 971.9121108348481, 513.1030542207882, 1637.1056765536778, 761.0621611829847, -0.25600001215934753, -0.03200000151991844, 0.9760000463575125, 0.0, 0.0, 0.0, 0.0, 0.0, 1.6480857000394092E9, 0.0, 2022-03-23 20:35:00.039
87.0, 947.7037384216674, 497.5675098048523, 1622.9052764219232, 742.8376286989078, -0.25600001215934753, -0.03200000151991844, 0.9760000463575125, 0.0, 0.0, 0.0, 0.0, 0.0, 1.6480857000394092E9, 0.0, 2022-03-23 20:35:00.039
88.0, 932.6618607998826, 483.54288497101516, 1613.2189355366863, 727.8406298765913, -0.25600001215934753, -0.03200000151991844, 0.9760000463575125, 0.0, 0.0, 0.0, 0.0, 0.0, 1.6480857000401275E9, 0.0, 2022-03-23 20:35:00.040
88.0, 932.0859162067063, 474.43622857891023, 1606.793787412811, 716.217020814307, -0.25600001215934753, -0.03200000151991844, 0.9760000463575125, 0.0, 0.0, 0.0, 0.0, 0.0, 1.6480857000401275E9, 0.0, 2022-03-23 20:35:00.040
89.0, 911.6211836491711, 467.49497426114976, 1581.96085170703, 686.2192832697183, -0.25600001215934753, -0.03200000151991844, 0.9760000463575125, 0.0, 0.0, 0.0, 0.0, 0.0, 1.6480857000537949E9, 0.0, 2022-03-23 20:35:00.053
89.0, 906.5984980086796, 465.8082793811336, 1584.2571502798237, 684.0576210953295, -0.25600001215934753, -0.03200000151991844, 0.9760000463575125, 0.0, 0.0, 0.0, 0.0, 0.0, 1.6480857000537949E9, 0.0, 2022-03-23 20:35:00.053
90.0, 905.4428689223714, 455.67315050121397, 1577.6113480585627, 676.5927807837725, -0.25600001215934753, -0.03200000151991844, 0.944000044837594, 0.0, 0.0, 0.0, 0.0, 0.0, 1.6480857000693989E9, 0.0, 2022-03-23 20:35:00.069
90.0, 914.2204141183756, 445.2799685243517, 1568.1681006704457, 677.4118188740686, -0.25600001215934753, -0.03200000151991844, 0.944000044837594, 0.0, 0.0, 0.0, 0.0, 0.0, 1.6480857000693989E9, 0.0, 2022-03-23 20:35:00.069
91.0, 903.759913942311, 440.93420477584004, 1553.5974504430778, 668.1406068839133, -0.25600001215934753, -0.01600000075995922, 0.944000044837594, 0.0, 0.0, 0.0, 0.0, 0.0, 1.6480857000702617E9, 0.0, 2022-03-23 20:35:00.070
91.0, 919.3889558571391, 449.16198467835784, 1562.087023342494, 687.3337734565139, -0.25600001215934753, -0.01600000075995922, 0.944000044837594, 0.0, 0.0, 0.0, 0.0, 0.0, 1.6480857000702617E9, 0.0, 2022-03-23 20:35:00.070
92.0, 911.8867165460251, 450.9646164570004, 1562.7302861348726, 687.6329654529691, -0.25600001215934753, -0.01600000075995922, 0.944000044837594, 0.0, 0.0, 0.0, 0.0, 0.0, 1.6480857000838883E9, 0.0, 2022-03-23 20:35:00.083
92.0, 912.1933883423917, 444.6554052317515, 1570.2699244455434, 681.8361205216497, -0.25600001215934753, -0.01600000075995922, 0.944000044837594, 0.0, 0.0, 0.0, 0.0, 0.0, 1.6480857000838883E9, 0.0, 2022-03-23 20:35:00.083
93.0, 911.658582648728, 441.682184766978, 1571.107662035618, 668.7838696762919, -0.25600001215934753, -0.01600000075995922, 0.944000044837594, 0.0, 0.0, 0.0, 0.0, 0.0, 1.6480857001158276E9, 0.0, 2022-03-23 20:35:00.115
93.0, 910.8096253587864, 437.5682948157191, 1561.8140106457286, 659.3705414878204, -0.25600001215934753, -0.01600000075995922, 0.944000044837594, 0.0, 0.0, 0.0, 0.0, 0.0, 1.6480857001158276E9, 0.0, 2022-03-23 20:35:00.115
94.0, 904.9604218280874, 450.23907586559653, 1568.1942799701355, 668.5669554788619, -0.25600001215934753, -0.01600000075995922, 0.944000044837594, 0.0, 0.0, 0.0, 0.0, 0.0, 1.6480857001165748E9, 0.0, 2022-03-23 20:35:00.116
94.0, 910.6562894606031, 453.5788065260276, 1565.897981397342, 661.6219612611458, -0.25600001215934753, -0.01600000075995922, 0.944000044837594, 0.0, 0.0, 0.0, 0.0, 0.0, 1.6480857001165748E9, 0.0, 2022-03-23 20:35:00.116
95.0, 907.0547658032738, 442.6508188555017, 1565.9952187961899, 661.3152894647792, -0.25600001215934753, -0.01600000075995922, 0.944000044837594, 0.0, 0.0, 0.0, 0.0, 0.0, 1.648085700117228E9, 0.0, 2022-03-23 20:35:00.117
95.0, 911.9390751454048, 451.8509727464989, 1570.4232603437267, 667.0148969972506, -0.25600001215934753, -0.01600000075995922, 0.944000044837594, 0.0, 0.0, 0.0, 0.0, 0.0, 1.648085700117228E9, 0.0, 2022-03-23 20:35:00.117
96.0, 909.1977284778841, 460.0039546499029, 1569.9408132494427, 656.9209070168436, -0.25600001215934753, -0.01600000075995922, 0.944000044837594, 0.0, 0.0, 0.0, 0.0, 0.0, 1.6480857001180246E9, 0.0, 2022-03-23 20:35:00.118
96.0, 899.5413067922927, 430.81777539569885, 1540.5638990974985, 642.189441091381, -0.25600001215934753, -0.01600000075995922, 0.944000044837594, 0.0, 0.0, 0.0, 0.0, 0.0, 1.6480857001180246E9, 0.0, 2022-03-23 20:35:00.118
97.0, 911.3444310524501, 424.1570135746151, 1541.3642376880161, 655.1706338375807, -0.25600001215934753, -0.01600000075995922, 0.944000044837594, 0.0, 0.0, 0.0, 0.0, 0.0, 1.6480857001288843E9, 0.0, 2022-03-23 20:35:00.128
97.0, 908.4160893871449, 423.7194452797994, 1545.6090241377242, 662.3811609521508, -0.25600001215934753, -0.01600000075995922, 0.944000044837594, 0.0, 0.0, 0.0, 0.0, 0.0, 1.6480857001288843E9, 0.0, 2022-03-23 20:35:00.128
98.0, 923.768378705252, 415.2672713799402, 1530.7130026142113, 676.1290331892669, -0.25600001215934753, -0.01600000075995922, 0.944000044837594, 0.0, 0.0, 0.0, 0.0, 0.0, 1.648085700143682E9, 0.0, 2022-03-23 20:35:00.143
98.0, 921.7226534294896, 404.3766827089712, 1519.4259845479392, 668.8474479755387, -0.25600001215934753, -0.01600000075995922, 0.944000044837594, 0.0, 0.0, 0.0, 0.0, 0.0, 1.648085700143682E9, 0.0, 2022-03-23 20:35:00.143
99.0, 899.694642690476, 405.5210920954123, 1520.1477852393873, 647.3168439306319, -0.25600001215934753, -0.01600000075995922, 0.944000044837594, 0.0, 0.0, 0.0, 0.0, 0.0, 1.6480857001594276E9, 0.0, 2022-03-23 20:35:00.159
99.0, 892.4317569765262, 387.4835546091199, 1499.2716636867262, 629.911349536851, -0.25600001215934753, -0.01600000075995922, 0.944000044837594, 0.0, 0.0, 0.0, 0.0, 0.0, 1.6480857001594276E9, 0.0, 2022-03-23 20:35:00.159
100.0, 903.5355199449696, 394.32009172812104, 1508.5540953767486, 638.3074249373749, -0.25600001215934753, -0.01600000075995922, 0.9760000463575125, 0.0, 0.0, 0.0, 0.0, 0.0, 1.648085700160134E9, 0.0, 2022-03-23 20:35:00.160
100.0, 899.4852082929574, 394.7127812234685, 1504.6085009234957, 635.2930655730888, -0.25600001215934753, -0.01600000075995922, 0.9760000463575125, 0.0, 0.0, 0.0, 0.0, 0.0, 1.648085700160134E9, 0.0, 2022-03-23 20:35:00.160
0.0, 892.8711952213198, 399.8420540126972, 1516.8155343788676, 641.57422754867, -0.25600001215934753, -0.01600000075995922, 0.9760000463575125, 0.0, 0.0, 0.0, 0.0, 0.0, 1.6480857001744115E9, 0.0, 2022-03-23 20:35:00.174
1.0, 890.2944041518494, 403.0695876744576, 1521.5315482229926, 649.1699643586762, -0.25600001215934753, -0.01600000075995922, 0.9760000463575125, 0.0, 0.0, 0.0, 0.0, 0.0, 1.6480857001750972E9, 0.0, 2022-03-23 20:35:00.175
1.0, 895.7583979871124, 409.8163671945222, 1527.2274158555083, 657.0948123647831, -0.25600001215934753, -0.01600000075995922, 0.9760000463575125, 0.0, 0.0, 0.0, 0.0, 0.0, 1.6480857001750972E9, 0.0, 2022-03-23 20:35:00.175
2.0, 883.9477939270437, 403.18552457308397, 1516.5387817821465, 642.6999374353327, -0.288000013679266, -0.01600000075995922, 0.9760000463575125, 0.0, 0.0, 0.0, 0.0, 0.0, 1.6480857001887903E9, 0.0, 2022-03-23 20:35:00.188
2.0, 868.3000525124371, 395.7543433611281, 1509.1375197698362, 621.1281944909133, -0.288000013679266, -0.01600000075995922, 0.9760000463575125, 0.0, 0.0, 0.0, 0.0, 0.0, 1.6480857001887903E9, 0.0, 2022-03-23 20:35:00.188
3.0, 867.1780825257301, 388.63357384549454, 1496.7472312166356, 601.123469627928, -0.288000013679266, -0.01600000075995922, 0.9760000463575125, 0.0, 0.0, 0.0, 0.0, 0.0, 1.6480857002044115E9, 0.0, 2022-03-23 20:35:00.204
3.0, 861.0932652978227, 395.41775236511603, 1501.601621359121, 597.7052010684274, -0.288000013679266, -0.01600000075995922, 0.9760000463575125, 0.0, 0.0, 0.0, 0.0, 0.0, 1.6480857002044115E9, 0.0, 2022-03-23 20:35:00.204
4.0, 857.5104411402717, 387.73599785612896, 1497.947739102412, 584.5781522239558, -0.288000013679266, -0.01600000075995922, 0.9760000463575125, 0.0, 0.0, 0.0, 0.0, 0.0, 1.6480857002051506E9, 0.0, 2022-03-23 20:35:00.205
4.0, 859.8964973120019, 385.7613306795247, 1497.2782970103435, 588.0300798830576, -0.288000013679266, -0.01600000075995922, 0.9760000463575125, 0.0, 0.0, 0.0, 0.0, 0.0, 1.6480857002051506E9, 0.0, 2022-03-23 20:35:00.205
5.0, 854.4773822762072, 389.22447803849354, 1485.9202208449133, 592.4656012305059, -0.288000013679266, -0.01600000075995922, 0.9760000463575125, 0.0, 0.0, 0.0, 0.0, 0.0, 1.6480857002188106E9, 0.0, 2022-03-23 20:35:00.218
5.0, 864.2721802601591, 394.5725349751301, 1492.3378891688772, 586.1638698051684, -0.288000013679266, -0.01600000075995922, 0.9760000463575125, 0.0, 0.0, 0.0, 0.0, 0.0, 1.6480857002188106E9, 0.0, 2022-03-23 20:35:00.218
6.0, 878.0088327974081, 408.8140740063973, 1510.214610957075, 591.8447778378613, -0.288000013679266, -0.01600000075995922, 0.9760000463575125, 0.0, 0.0, 0.0, 0.0, 0.0, 1.648085700234414E9, 0.0, 2022-03-23 20:35:00.234
6.0, 873.9996600449085, 408.12219251459464, 1511.9461846365593, 597.5743045699783, -0.288000013679266, -0.01600000075995922, 0.9760000463575125, 0.0, 0.0, 0.0, 0.0, 0.0, 1.648085700234414E9, 0.0, 2022-03-23 20:35:00.234
7.0, 868.8834769055247, 405.16019174968824, 1506.7140645985492, 580.318406174425, -0.288000013679266, -0.01600000075995922, 0.9760000463575125, 0.0, 0.0, 0.0, 0.0, 0.0, 1.6480857002351258E9, 0.0, 2022-03-23 20:35:00.235
7.0, 868.4010298112407, 403.6866711671464, 1503.677265834529, 575.4490564321168, -0.288000013679266, -0.01600000075995922, 0.9760000463575125, 0.0, 0.0, 0.0, 0.0, 0.0, 1.6480857002351258E9, 0.0, 2022-03-23 20:35:00.235
8.0, 869.0779517032206, 414.45384313957766, 1517.77668866748, 590.9771210481413, -0.288000013679266, -0.01600000075995922, 0.9760000463575125, 0.0, 0.0, 0.0, 0.0, 0.0, 1.64808570024876E9, 0.0, 2022-03-23 20:35:00.248
8.0, 863.2287481725216, 410.04824099177495, 1512.0060230358504, 578.9496027906425, -0.288000013679266, -0.01600000075995922, 0.9760000463575125, 0.0, 0.0, 0.0, 0.0, 0.0, 1.64808570024876E9, 0.0, 2022-03-23 20:35:00.248
9.0, 858.7782672252506, 410.78126138309017, 1504.4813443250023, 573.1340583595447, -0.288000013679266, -0.01600000075995922, 0.9760000463575125, 0.0, 0.0, 0.0, 0.0, 0.0, 1.6480857002645023E9, 0.0, 2022-03-23 20:35:00.264
9.0, 863.5915184682235, 418.82952608773485, 1515.4542107949965, 570.6507647889666, -0.288000013679266, -0.01600000075995922, 0.9760000463575125, 0.0, 0.0, 0.0, 0.0, 0.0, 1.6480857002645023E9, 0.0, 2022-03-23 20:35:00.264
10.0, 853.2357354909182, 410.1043394911103, 1516.5537413819693, 555.3134350706823, -0.288000013679266, -0.01600000075995922, 1.008000047877431, 0.0, 0.0, 0.0, 0.0, 0.0, 1.6480857002652323E9, 0.0, 2022-03-23 20:35:00.265
10.0, 812.5830229725689, 386.1241009752266, 1476.6789280544035, 514.9412150490098, -0.288000013679266, -0.01600000075995922, 1.008000047877431, 0.0, 0.0, 0.0, 0.0, 0.0, 1.6480857002652323E9, 0.0, 2022-03-23 20:35:00.265
11.0, 821.1847928706557, 406.97404322819784, 1486.129655242432, 531.2621384556405, -0.288000013679266, 0.0800000037997961, 1.008000047877431, 0.0, 0.0, 0.0, 0.0, 0.0, 1.6480857002788045E9, 0.0, 2022-03-23 20:35:00.278
11.0, 846.8666858663782, 422.64048414258286, 1511.6395128401928, 545.2493642899208, -0.288000013679266, 0.0800000037997961, 1.008000047877431, 0.0, 0.0, 0.0, 0.0, 0.0, 1.6480857002788045E9, 0.0, 2022-03-23 20:35:00.278
12.0, 857.4842618405819, 461.81967607839033, 1532.7512480900623, 562.9690102799796, -0.288000013679266, 0.0800000037997961, 1.008000047877431, 0.0, 0.0, 0.0, 0.0, 0.0, 1.648085700294464E9, 0.0, 2022-03-23 20:35:00.294
12.0, 866.8826304292306, 487.34449327597395, 1541.1211441908963, 568.3582061161287, -0.288000013679266, 0.0800000037997961, 1.008000047877431, 0.0, 0.0, 0.0, 0.0, 0.0, 1.648085700294464E9, 0.0, 2022-03-23 20:35:00.294
13.0, 868.7301410073414, 496.2940738699399, 1551.1777351717465, 570.549787490163, -0.288000013679266, 0.0800000037997961, 1.008000047877431, 0.0, 0.0, 0.0, 0.0, 0.0, 1.6480857002951128E9, 0.0, 2022-03-23 20:35:00.295
13.0, 876.2323803184554, 504.5517729721032, 1571.8893011263572, 579.1291179885156, -0.288000013679266, 0.0800000037997961, 1.008000047877431, 0.0, 0.0, 0.0, 0.0, 0.0, 1.6480857002951128E9, 0.0, 2022-03-23 20:35:00.295
14.0, 878.0125726973638, 509.13689031777903, 1582.4993973006494, 588.9164361725561, -0.288000013679266, 0.0800000037997961, 1.008000047877431, 0.0, 0.0, 0.0, 0.0, 0.0, 1.648085700308957E9, 0.0, 2022-03-23 20:35:00.308
14.0, 880.8623764635995, 514.3166517564096, 1587.3388278433122, 597.6715419688262, -0.288000013679266, 0.0800000037997961, 1.008000047877431, 0.0, 0.0, 0.0, 0.0, 0.0, 1.648085700308957E9, 0.0, 2022-03-23 20:35:00.308
15.0, 888.1402217773721, 503.2203685878776, 1559.0090856789611, 599.361976748798, -0.288000013679266, 0.0800000037997961, 1.008000047877431, 0.0, 0.0, 0.0, 0.0, 0.0, 1.6480857003244386E9, 0.0, 2022-03-23 20:35:00.324
15.0, 895.1338346945122, 493.34703270485625, 1552.0005131619982, 605.6412687744014, -0.288000013679266, 0.0800000037997961, 1.008000047877431, 0.0, 0.0, 0.0, 0.0, 0.0, 1.6480857003244386E9, 0.0, 2022-03-23 20:35:00.324
16.0, 900.2425380339846, 478.22661718400195, 1535.0251072631218, 597.5855242698453, -0.288000013679266, 0.0800000037997961, 1.008000047877431, 0.0, 0.0, 0.0, 0.0, 0.0, 1.6480857003251264E9, 0.0, 2022-03-23 20:35:00.325
16.0, 889.4716261615977, 452.91123438393697, 1508.8607671731152, 591.197775145527, -0.288000013679266, 0.0800000037997961, 1.008000047877431, 0.0, 0.0, 0.0, 0.0, 0.0, 1.6480857003251264E9, 0.0, 2022-03-23 20:35:00.325
17.0, 899.176666546613, 462.2422847733833, 1524.11955899233, 615.0246777632274, -0.288000013679266, 0.0800000037997961, 1.008000047877431, 0.0, 0.0, 0.0, 0.0, 0.0, 1.6480857003387697E9, 0.0, 2022-03-23 20:35:00.338
17.0, 898.7465780517086, 472.7888026484288, 1534.5576197686605, 624.5651625501923, -0.288000013679266, 0.0800000037997961, 1.008000047877431, 0.0, 0.0, 0.0, 0.0, 0.0, 1.6480857003387697E9, 0.0, 2022-03-23 20:35:00.338
18.0, 905.4559585722163, 463.77190385526046, 1520.0692473403178, 623.2973364652134, -0.288000013679266, 0.0800000037997961, 1.008000047877431, 0.0, 0.0, 0.0, 0.0, 0.0, 1.6480857003544407E9, 0.0, 2022-03-23 20:35:00.354
18.0, 898.9672321490943, 458.29669032013044, 1526.8646455598064, 620.4624922988005, -0.288000013679266, 0.0800000037997961, 1.008000047877431, 0.0, 0.0, 0.0, 0.0, 0.0, 1.6480857003544407E9, 0.0, 2022-03-23 20:35:00.354
19.0, 910.7890559090301, 466.80870261928067, 1540.4591818987392, 627.8600144111551, -0.288000013679266, 0.0800000037997961, 1.008000047877431, 0.0, 0.0, 0.0, 0.0, 0.0, 1.6480857003551419E9, 0.0, 2022-03-23 20:35:00.355
19.0, 911.8698869962245, 475.3655937178992, 1543.1444300669245, 635.6053472193889, -0.288000013679266, 0.0800000037997961, 1.008000047877431, 0.0, 0.0, 0.0, 0.0, 0.0, 1.6480857003551419E9, 0.0, 2022-03-23 20:35:00.355
20.0, 910.3739270139486, 467.4183063120581, 1538.5817521209829, 634.3188216346316, -0.288000013679266, 0.0800000037997961, 0.944000044837594, 0.0, 0.0, 0.0, 0.0, 0.0, 1.6480857003687012E9, 0.0, 2022-03-23 20:35:00.368
20.0, 899.4010605439544, 458.2069327211939, 1535.74690795457, 628.1105877081864, -0.288000013679266, 0.0800000037997961, 0.944000044837594, 0.0, 0.0, 0.0, 0.0, 0.0, 1.6480857003687012E9, 0.0, 2022-03-23 20:35:00.368
21.0, 889.7745580580086, 450.0876099173911, 1529.3217598306946, 623.7835234594531, -0.288000013679266, 0.04800000227987766, 0.944000044837594, 0.0, 0.0, 0.0, 0.0, 0.0, 1.648085700384416E9, 0.0, 2022-03-23 20:35:00.384
21.0, 880.3911490691826, 453.50587847689167, 1529.1272850329988, 621.7901567830704, -0.288000013679266, 0.04800000227987766, 0.944000044837594, 0.0, 0.0, 0.0, 0.0, 0.0, 1.648085700384416E9, 0.0, 2022-03-23 20:35:00.384
22.0, 869.6127573968843, 442.3834160086699, 1523.0873466045596, 598.2699259617366, -0.3040000144392252, 0.04800000227987766, 0.944000044837594, 0.0, 0.0, 0.0, 0.0, 0.0, 1.6480857003851128E9, 0.0, 2022-03-23 20:35:00.385
22.0, 872.8814299581572, 458.69311971543357, 1540.7321945955046, 615.7202991549857, -0.3040000144392252, 0.04800000227987766, 0.944000044837594, 0.0, 0.0, 0.0, 0.0, 0.0, 1.6480857003851128E9, 0.0, 2022-03-23 20:35:00.385
23.0, 873.6742887487635, 465.69795233244076, 1542.8227986707352, 633.5334426439367, -0.3040000144392252, 0.04800000227987766, 0.944000044837594, 0.0, 0.0, 0.0, 0.0, 0.0, 1.6480857003987632E9, 0.0, 2022-03-23 20:35:00.398
23.0, 874.9907335331663, 467.7586372080259, 1545.6651226370595, 639.3901259745471, -0.3040000144392252, 0.04800000227987766, 0.944000044837594, 0.0, 0.0, 0.0, 0.0, 0.0, 1.6480857003987632E9, 0.0, 2022-03-23 20:35:00.398
24.0, 882.3807758456096, 477.15700579667464, 1556.5781507077627, 658.9385830429383, -0.3040000144392252, 0.04800000227987766, 0.944000044837594, 0.0, 0.0, 0.0, 0.0, 0.0, 1.6480857004144516E9, 0.0, 2022-03-23 20:35:00.414
24.0, 898.3875476559624, 485.366086199414, 1564.8545493097045, 685.4731732285582, -0.3040000144392252, 0.04800000227987766, 0.944000044837594, 0.0, 0.0, 0.0, 0.0, 0.0, 1.6480857004144516E9, 0.0, 2022-03-23 20:35:00.414
25.0, 916.3241078434512, 502.86133819213137, 1581.515803612303, 710.8596141277812, -0.3040000144392252, 0.04800000227987766, 0.944000044837594, 0.0, 0.0, 0.0, 0.0, 0.0, 1.648085700415151E9, 0.0, 2022-03-23 20:35:00.415
25.0, 916.024915846996, 495.86398537503555, 1573.7106324047782, 724.9029384613968, -0.3040000144392252, 0.04800000227987766, 0.944000044837594, 0.0, 0.0, 0.0, 0.0, 0.0, 1.648085700415151E9, 0.0, 2022-03-23 20:35:00.415
26.0, 908.3992598373443, 483.37645942298695, 1558.6313557834364, 726.8701258380897, -0.3040000144392252, 0.04800000227987766, 0.944000044837594, 0.0, 0.0, 0.0, 0.0, 0.0, 1.6480857004287763E9, 0.0, 2022-03-23 20:35:00.428
26.0, 911.2228843038902, 494.63729818956926, 1574.593248794321, 736.4218303249218, -0.3040000144392252, 0.04800000227987766, 0.944000044837594, 0.0, 0.0, 0.0, 0.0, 0.0, 1.6480857004287763E9, 0.0, 2022-03-23 20:35:00.428
27.0, 913.2312105800956, 518.4417614075355, 1601.0455611809157, 748.3521111835726, -0.3040000144392252, 0.04800000227987766, 0.944000044837594, 0.0, 0.0, 0.0, 0.0, 0.0, 1.6480857004444287E9, 0.0, 2022-03-23 20:35:00.444
27.0, 903.6458469936624, 524.0777906407602, 1612.6953495428897, 737.2446083151735, -0.3040000144392252, 0.04800000227987766, 0.944000044837594, 0.0, 0.0, 0.0, 0.0, 0.0, 1.6480857004444287E9, 0.0, 2022-03-23 20:35:00.444
28.0, 895.2834306927398, 522.1966209630482, 1606.674110614229, 723.3882789793424, -0.3040000144392252, 0.04800000227987766, 0.944000044837594, 0.0, 0.0, 0.0, 0.0, 0.0, 1.6480857004451559E9, 0.0, 2022-03-23 20:35:00.445
28.0, 884.3928420217708, 516.6840084283613, 1600.5331948869862, 719.6035002241842, -0.3040000144392252, 0.04800000227987766, 0.944000044837594, 0.0, 0.0, 0.0, 0.0, 0.0, 1.6480857004451559E9, 0.0, 2022-03-23 20:35:00.445
29.0, 874.1155969435349, 506.6947356467135, 1594.6428524567746, 713.3316879984923, -0.3040000144392252, 0.04800000227987766, 0.944000044837594, 0.0, 0.0, 0.0, 0.0, 0.0, 1.6480857004587896E9, 0.0, 2022-03-23 20:35:00.458
29.0, 862.8510182769969, 508.93867562012747, 1595.0318020521663, 712.0825614132918, -0.3040000144392252, 0.04800000227987766, 0.944000044837594, 0.0, 0.0, 0.0, 0.0, 0.0, 1.6480857004587896E9, 0.0, 2022-03-23 20:35:00.458
30.0, 858.9577824231237, 502.9884947906248, 1585.8428678610362, 723.0068091838621, -0.3040000144392252, 0.04800000227987766, 1.0240000486373901, 0.0, 0.0, 0.0, 0.0, 0.0, 1.6480857004743752E9, 0.0, 2022-03-23 20:35:00.474
30.0, 870.8207450825721, 501.780507104937, 1593.7639759671874, 733.8749584550969, -0.3040000144392252, 0.04800000227987766, 1.0240000486373901, 0.0, 0.0, 0.0, 0.0, 0.0, 1.6480857004743752E9, 0.0, 2022-03-23 20:35:00.474
31.0, 868.5394061096013, 492.86084571061656, 1594.2464230614714, 752.5146198342554, -0.3040000144392252, 0.03200000151991844, 1.0240000486373901, 0.0, 0.0, 0.0, 0.0, 0.0, 1.6480857004752064E9, 0.0, 2022-03-23 20:35:00.475
31.0, 861.0558662982658, 476.52496270416304, 1569.0619367598556, 738.8527652961202, -0.3040000144392252, 0.03200000151991844, 1.0240000486373901, 0.0, 0.0, 0.0, 0.0, 0.0, 1.6480857004752064E9, 0.0, 2022-03-23 20:35:00.475
32.0, 851.223669314757, 470.0624155807309, 1566.1522945943289, 734.9969284418039, -0.17600000835955143, 0.03200000151991844, 1.0240000486373901, 0.0, 0.0, 0.0, 0.0, 0.0, 1.6480857004888203E9, 0.0, 2022-03-23 20:35:00.488
32.0, 843.8598063020036, 470.26063027838245, 1563.9494935204275, 735.0567668410949, -0.17600000835955143, 0.03200000151991844, 1.0240000486373901, 0.0, 0.0, 0.0, 0.0, 0.0, 1.6480857004888203E9, 0.0, 2022-03-23 20:35:00.488
33.0, 855.5544734634459, 472.84864104771987, 1566.8479159860872, 756.9314416819252, -0.17600000835955143, 0.03200000151991844, 1.0240000486373901, 0.0, 0.0, 0.0, 0.0, 0.0, 1.6480857005043776E9, 0.0, 2022-03-23 20:35:00.504
33.0, 842.8425535140559, 458.3789681191556, 1555.8488702164032, 752.821291630622, -0.17600000835955143, 0.03200000151991844, 1.0240000486373901, 0.0, 0.0, 0.0, 0.0, 0.0, 1.6480857005043776E9, 0.0, 2022-03-23 20:35:00.504
34.0, 838.1041002701968, 450.39428171375766, 1550.2689394825138, 755.7271938961931, -0.17600000835955143, 0.03200000151991844, 1.0240000486373901, 0.0, 0.0, 0.0, 0.0, 0.0, 1.6480857005051465E9, 0.0, 2022-03-23 20:35:00.505
34.0, 834.3305412149057, 443.90181539068, 1544.1242838553153, 761.0079326336272, -0.17600000835955143, 0.03200000151991844, 1.0240000486373901, 0.0, 0.0, 0.0, 0.0, 0.0, 1.6480857005051465E9, 0.0, 2022-03-23 20:35:00.505
35.0, 827.2022918993607, 445.84282346768305, 1541.667169584427, 768.0239849505015, -0.17600000835955143, 0.03200000151991844, 1.0240000486373901, 0.0, 0.0, 0.0, 0.0, 0.0, 1.6480857005187707E9, 0.0, 2022-03-23 20:35:00.518
35.0, 831.7238309457898, 457.0438238349743, 1557.3560498985462, 785.276143446099, -0.17600000835955143, 0.03200000151991844, 1.0240000486373901, 0.0, 0.0, 0.0, 0.0, 0.0, 1.6480857005187707E9, 0.0, 2022-03-23 20:35:00.518
36.0, 830.1231537647545, 448.9768596305512, 1551.256273070816, 793.597420847509, -0.17600000835955143, 0.03200000151991844, 1.0240000486373901, 0.0, 0.0, 0.0, 0.0, 0.0, 1.648085700534406E9, 0.0, 2022-03-23 20:35:00.534
36.0, 821.3942272681743, 428.9908342673443, 1534.0863923742436, 775.1709337658249, -0.17600000835955143, 0.03200000151991844, 1.0240000486373901, 0.0, 0.0, 0.0, 0.0, 0.0, 1.648085700534406E9, 0.0, 2022-03-23 20:35:00.534
37.0, 822.9612453496084, 425.7707804054953, 1542.246854077559, 782.1907259826548, -0.17600000835955143, 0.03200000151991844, 1.0240000486373901, 0.0, 0.0, 0.0, 0.0, 0.0, 1.6480857005351508E9, 0.0, 2022-03-23 20:35:00.535
37.0, 821.1399140711874, 421.5185141558759, 1538.9108633170836, 789.8201218922623, -0.17600000835955143, 0.03200000151991844, 1.0240000486373901, 0.0, 0.0, 0.0, 0.0, 0.0, 1.6480857005351508E9, 0.0, 2022-03-23 20:35:00.535
38.0, 837.6029536761343, 453.36002237861976, 1552.6475158543326, 812.7531884205528, -0.17600000835955143, 0.03200000151991844, 1.0240000486373901, 0.0, 0.0, 0.0, 0.0, 0.0, 1.648085700548751E9, 0.0, 2022-03-23 20:35:00.548
38.0, 845.9803295768797, 456.3743817429058, 1552.7821522527374, 826.1569898617454, -0.17600000835955143, 0.03200000151991844, 1.0240000486373901, 0.0, 0.0, 0.0, 0.0, 0.0, 1.648085700548751E9, 0.0, 2022-03-23 20:35:00.548
39.0, 853.1497177919373, 445.32297737384215, 1549.2329871947877, 855.9078940092586, -0.17600000835955143, 0.03200000151991844, 1.0240000486373901, 0.0, 0.0, 0.0, 0.0, 0.0, 1.648085700564505E9, 0.0, 2022-03-23 20:35:00.564
39.0, 871.1872552782297, 453.62555527547374, 1568.441113367211, 877.6217531519942, -0.17600000835955143, 0.03200000151991844, 1.0240000486373901, 0.0, 0.0, 0.0, 0.0, 0.0, 1.648085700564505E9, 0.0, 2022-03-23 20:35:00.564
40.0, 869.6202371967956, 455.91811394831166, 1576.3622214733623, 881.447670806665, -0.17600000835955143, 0.03200000151991844, 0.9760000463575125, 0.0, 0.0, 0.0, 0.0, 0.0, 1.6480857005651648E9, 0.0, 2022-03-23 20:35:00.565
40.0, 860.5135808046907, 462.70603236788884, 1568.2653380692936, 882.1096330988221, -0.17600000835955143, 0.03200000151991844, 0.9760000463575125, 0.0, 0.0, 0.0, 0.0, 0.0, 1.6480857005651648E9, 0.0, 2022-03-23 20:35:00.565
41.0, 849.5257547348738, 467.63522050948814, 1577.0877620647661, 891.7024764851667, -0.17600000835955143, 0.0, 0.9760000463575125, 0.0, 0.0, 0.0, 0.0, 0.0, 1.6480857005787885E9, 0.0, 2022-03-23 20:35:00.578
41.0, 853.4825688879937, 464.63582074502483, 1572.6821599169634, 876.4362048660405, -0.17600000835955143, 0.0, 0.9760000463575125, 0.0, 0.0, 0.0, 0.0, 0.0, 1.6480857005787885E9, 0.0, 2022-03-23 20:35:00.578
42.0, 852.4615762000903, 466.165439826902, 1562.917281132657, 874.8130882852711, -0.12800000607967377, 0.0, 0.9760000463575125, 0.0, 0.0, 0.0, 0.0, 0.0, 1.648085700594434E9, 0.0, 2022-03-23 20:35:00.594
42.0, 846.0177285764366, 467.66139980917796, 1570.262444645632, 887.7568820319138, -0.12800000607967377, 0.0, 0.9760000463575125, 0.0, 0.0, 0.0, 0.0, 0.0, 1.648085700594434E9, 0.0, 2022-03-23 20:35:00.594
43.0, 856.5156277520582, 452.6083024875261, 1567.0461306837387, 892.0278477813117, -0.12800000607967377, 0.0, 0.9760000463575125, 0.0, 0.0, 0.0, 0.0, 0.0, 1.6480857005951385E9, 0.0, 2022-03-23 20:35:00.595
43.0, 854.7765742726624, 456.1686872453429, 1564.6862538116984, 893.7930805603974, -0.12800000607967377, 0.0, 0.9760000463575125, 0.0, 0.0, 0.0, 0.0, 0.0, 1.6480857005951385E9, 0.0, 2022-03-23 20:35:00.595
44.0, 869.9792675925419, 472.7701031486504, 1573.9724254016764, 918.8541501634754, -0.12800000607967377, 0.0, 0.9760000463575125, 0.0, 0.0, 0.0, 0.0, 0.0, 1.6480857006088057E9, 0.0, 2022-03-23 20:35:00.608
44.0, 875.5330190267414, 466.63666722131893, 1568.5607901657932, 916.049225196708, -0.12800000607967377, 0.0, 0.9760000463575125, 0.0, 0.0, 0.0, 0.0, 0.0, 1.6480857006088057E9, 0.0, 2022-03-23 20:35:00.608
45.0, 869.1415300024673, 463.92897965339944, 1570.1278082472272, 910.2673398652114, -0.12800000607967377, 0.0, 0.9760000463575125, 0.0, 0.0, 0.0, 0.0, 0.0, 1.6480857006243732E9, 0.0, 2022-03-23 20:35:00.624
45.0, 867.4997139219195, 463.36425476009026, 1575.1542337876745, 909.018213280011, -0.12800000607967377, 0.0, 0.9760000463575125, 0.0, 0.0, 0.0, 0.0, 0.0, 1.6480857006243732E9, 0.0, 2022-03-23 20:35:00.624
46.0, 875.6751352250576, 469.5089103872888, 1588.9357651243918, 914.0184595207684, -0.12800000607967377, 0.0, 0.9760000463575125, 0.0, 0.0, 0.0, 0.0, 0.0, 1.6480857006251364E9, 0.0, 2022-03-23 20:35:00.625
46.0, 869.4930805983022, 466.6142278215848, 1580.2330179275014, 919.6096099545248, -0.12800000607967377, 0.0, 0.9760000463575125, 0.0, 0.0, 0.0, 0.0, 0.0, 1.6480857006251364E9, 0.0, 2022-03-23 20:35:00.625
47.0, 874.9084557341412, 461.39706738339737, 1578.475264948327, 916.5503717907704, -0.12800000607967377, 0.0, 0.9760000463575125, 0.0, 0.0, 0.0, 0.0, 0.0, 1.6480857006387165E9, 0.0, 2022-03-23 20:35:00.638
47.0, 897.2431382695213, 471.3564209653996, 1591.8977658892982, 929.183753841091, -0.12800000607967377, 0.0, 0.9760000463575125, 0.0, 0.0, 0.0, 0.0, 0.0, 1.6480857006387165E9, 0.0, 2022-03-23 20:35:00.638
48.0, 912.1915183924139, 494.2520884941332, 1606.9134642113931, 935.7173590636812, -0.12800000607967377, 0.0, 0.9760000463575125, 0.0, 0.0, 0.0, 0.0, 0.0, 1.6480857006708431E9, 0.0, 2022-03-23 20:35:00.670
48.0, 925.3372667366639, 518.2173674101941, 1638.4071617382579, 957.6481324038468, -0.12800000607967377, 0.0, 0.9760000463575125, 0.0, 0.0, 0.0, 0.0, 0.0, 1.6480857006708431E9, 0.0, 2022-03-23 20:35:00.670
49.0, 939.5488865682855, 528.2926578908227, 1652.7982967677526, 965.3972051120363, -0.12800000607967377, 0.0, 0.9760000463575125, 0.0, 0.0, 0.0, 0.0, 0.0, 1.6480857006715689E9, 0.0, 2022-03-23 20:35:00.671
49.0, 958.0277322493494, 534.4447933179326, 1657.5554495113902, 989.6130573251285, -0.12800000607967377, 0.0, 0.9760000463575125, 0.0, 0.0, 0.0, 0.0, 0.0, 1.6480857006715689E9, 0.0, 2022-03-23 20:35:00.671
50.0, 959.9986595259979, 536.7111726910807, 1660.5922482754104, 981.0935652260669, -0.12800000607967377, 0.0, 1.008000047877431, 0.0, 0.0, 0.0, 0.0, 0.0, 1.6480857006722217E9, 0.0, 2022-03-23 20:35:00.672
50.0, 958.7906718403101, 535.1366748097353, 1656.4858381240629, 967.921637582127, -0.12800000607967377, 0.0, 1.008000047877431, 0.0, 0.0, 0.0, 0.0, 0.0, 1.6480857006722217E9, 0.0, 2022-03-23 20:35:00.672
51.0, 961.9957661023363, 545.077328891959, 1658.367007801775, 958.6691250917502, -0.12800000607967377, -0.06400000303983688, 1.008000047877431, 0.0, 0.0, 0.0, 0.0, 0.0, 1.6480857006729548E9, 0.0, 2022-03-23 20:35:00.672
51.0, 964.460360173136, 554.8758667758666, 1661.5795818637125, 955.7108642267995, -0.12800000607967377, -0.06400000303983688, 1.008000047877431, 0.0, 0.0, 0.0, 0.0, 0.0, 1.6480857006729548E9, 0.0, 2022-03-23 20:35:00.672
52.0, 952.122430219315, 559.5283023207448, 1664.4667846295051, 945.815088944044, -0.17600000835955143, -0.06400000303983688, 1.008000047877431, 0.0, 0.0, 0.0, 0.0, 0.0, 1.648085700683751E9, 0.0, 2022-03-23 20:35:00.683
52.0, 959.7219069292769, 555.8108417647891, 1666.108600710053, 941.3421685970388, -0.17600000835955143, -0.06400000303983688, 1.008000047877431, 0.0, 0.0, 0.0, 0.0, 0.0, 1.648085700683751E9, 0.0, 2022-03-23 20:35:00.683
53.0, 972.1869934815913, 556.3980060578324, 1675.7538026957773, 944.1919723632745, -0.17600000835955143, -0.06400000303983688, 1.008000047877431, 0.0, 0.0, 0.0, 0.0, 0.0, 1.6480857006987844E9, 0.0, 2022-03-23 20:35:00.698
53.0, 995.4603909058496, 581.1673634643666, 1704.954941549804, 972.2711412305944, -0.17600000835955143, -0.06400000303983688, 1.008000047877431, 0.0, 0.0, 0.0, 0.0, 0.0, 1.6480857006987844E9, 0.0, 2022-03-23 20:35:00.698
54.0, 974.8984209494665, 564.0648009669967, 1698.3240989283659, 963.0410681399517, -0.17600000835955143, -0.06400000303983688, 1.008000047877431, 0.0, 0.0, 0.0, 0.0, 0.0, 1.6480857007145357E9, 0.0, 2022-03-23 20:35:00.714
54.0, 976.3831612318754, 565.6318190484308, 1680.4885160396807, 934.9581593726762, -0.17600000835955143, -0.06400000303983688, 1.008000047877431, 0.0, 0.0, 0.0, 0.0, 0.0, 1.6480857007145357E9, 0.0, 2022-03-23 20:35:00.714
55.0, 983.5413297470659, 582.1322576529346, 1689.1837834366597, 939.5133575187065, -0.17600000835955143, -0.06400000303983688, 1.008000047877431, 0.0, 0.0, 0.0, 0.0, 0.0, 1.6480857007152581E9, 0.0, 2022-03-23 20:35:00.715
55.0, 986.7464240090922, 593.2135812216438, 1699.9247761094011, 942.5239769830368, -0.17600000835955143, -0.06400000303983688, 1.008000047877431, 0.0, 0.0, 0.0, 0.0, 0.0, 1.6480857007152581E9, 0.0, 2022-03-23 20:35:00.715
56.0, 997.2705024844036, 607.7056935499422, 1715.6809746227227, 942.2247849865817, -0.17600000835955143, -0.06400000303983688, 1.008000047877431, 0.0, 0.0, 0.0, 0.0, 0.0, 1.6480857007287652E9, 0.0, 2022-03-23 20:35:00.728
56.0, 1004.5595674980432, 622.747571171727, 1735.9661919823848, 942.3482016851194, -0.17600000835955143, -0.06400000303983688, 1.008000047877431, 0.0, 0.0, 0.0, 0.0, 0.0, 1.6480857007287652E9, 0.0, 2022-03-23 20:35:00.728
57.0, 993.3436075309291, 629.4158127927221, 1734.0887622046284, 925.541091284249, -0.17600000835955143, -0.06400000303983688, 1.008000047877431, 0.0, 0.0, 0.0, 0.0, 0.0, 1.6480857007444756E9, 0.0, 2022-03-23 20:35:00.744
57.0, 994.600213916041, 627.1569132194854, 1726.9081542897038, 916.4980131913908, -0.17600000835955143, -0.06400000303983688, 1.008000047877431, 0.0, 0.0, 0.0, 0.0, 0.0, 1.6480857007444756E9, 0.0, 2022-03-23 20:35:00.744
58.0, 1007.0428610686213, 644.7793218106963, 1747.8254147418775, 927.8860085564665, -0.17600000835955143, -0.06400000303983688, 1.008000047877431, 0.0, 0.0, 0.0, 0.0, 0.0, 1.6480857007451143E9, 0.0, 2022-03-23 20:35:00.745
58.0, 1005.2776282895356, 636.1364130130969, 1755.006022656802, 915.08433100814, -0.17600000835955143, -0.06400000303983688, 1.008000047877431, 0.0, 0.0, 0.0, 0.0, 0.0, 1.6480857007451143E9, 0.0, 2022-03-23 20:35:00.745
59.0, 1029.4336421033368, 654.0916727003641, 1780.624337353278, 920.8437769399025, -0.17600000835955143, -0.06400000303983688, 1.008000047877431, 0.0, 0.0, 0.0, 0.0, 0.0, 1.648085700758818E9, 0.0, 2022-03-23 20:35:00.758
59.0, 1025.65634314809, 656.1336580761708, 1763.7648683530279, 913.3826765283011, -0.17600000835955143, -0.06400000303983688, 1.008000047877431, 0.0, 0.0, 0.0, 0.0, 0.0, 1.648085700758818E9, 0.0, 2022-03-23 20:35:00.758
60.0, 1031.34847088065, 660.87211132003, 1758.3195740175433, 911.4865472507663, -0.17600000835955143, -0.06400000303983688, 1.0400000493973494, 0.0, 0.0, 0.0, 0.0, 0.0, 1.6480857007744236E9, 0.0, 2022-03-23 20:35:00.774
60.0, 1039.3593365857378, 648.0330347721465, 1747.5711015448906, 926.7902178694494, -0.17600000835955143, -0.06400000303983688, 1.0400000493973494, 0.0, 0.0, 0.0, 0.0, 0.0, 1.6480857007744236E9, 0.0, 2022-03-23 20:35:00.774
61.0, 1054.696666304022, 659.967055530753, 1757.9231446222402, 944.4799446598627, -0.17600000835955143, -0.03200000151991844, 1.0400000493973494, 0.0, 0.0, 0.0, 0.0, 0.0, 1.6480857007751431E9, 0.0, 2022-03-23 20:35:00.775
61.0, 1061.5219837231562, 663.0262936945073, 1761.1656378838234, 929.8606757330708, -0.17600000835955143, -0.03200000151991844, 1.0400000493973494, 0.0, 0.0, 0.0, 0.0, 0.0, 1.6480857007751431E9, 0.0, 2022-03-23 20:35:00.775
62.0, 1061.645400421694, 653.9682560018264, 1761.4162111808546, 926.8425764688291, -0.19200000911951065, -0.03200000151991844, 1.0400000493973494, 0.0, 0.0, 0.0, 0.0, 0.0, 1.6480857008050907E9, 0.0, 2022-03-23 20:35:00.805
62.0, 1068.5006370404735, 662.1997758042999, 1766.996141914744, 943.8666010671295, -0.19200000911951065, -0.03200000151991844, 1.0400000493973494, 0.0, 0.0, 0.0, 0.0, 0.0, 1.6480857008050907E9, 0.0, 2022-03-23 20:35:00.805
63.0, 1096.2506947116926, 669.2607069206424, 1777.7371345874853, 958.5980669925921, -0.19200000911951065, -0.03200000151991844, 1.0400000493973494, 0.0, 0.0, 0.0, 0.0, 0.0, 1.6480857008058197E9, 0.0, 2022-03-23 20:35:00.805
63.0, 1091.1270317723975, 664.9224229720421, 1770.1226982777007, 950.9836306828074, -0.19200000911951065, -0.03200000151991844, 1.0400000493973494, 0.0, 0.0, 0.0, 0.0, 0.0, 1.6480857008058197E9, 0.0, 2022-03-23 20:35:00.805
64.0, 1082.2709486773238, 661.0478866179474, 1769.5430137845688, 949.3866934017278, -0.19200000911951065, -0.03200000151991844, 1.0400000493973494, 0.0, 0.0, 0.0, 0.0, 0.0, 1.6480857008065453E9, 0.0, 2022-03-23 20:35:00.806
64.0, 1083.4677166631445, 667.854504537303, 1773.713002235163, 960.2324032732286, -0.19200000911951065, -0.03200000151991844, 1.0400000493973494, 0.0, 0.0, 0.0, 0.0, 0.0, 1.6480857008065453E9, 0.0, 2022-03-23 20:35:00.806
65.0, 1082.8132341708988, 668.8156588259153, 1773.4212900386192, 956.8029150138609, -0.19200000911951065, -0.03200000151991844, 1.0400000493973494, 0.0, 0.0, 0.0, 0.0, 0.0, 1.6480857008188393E9, 0.0, 2022-03-23 20:35:00.818
65.0, 1069.2747963313013, 664.8476249729283, 1764.4829291445203, 943.6609065695666, -0.19200000911951065, -0.03200000151991844, 1.0400000493973494, 0.0, 0.0, 0.0, 0.0, 0.0, 1.6480857008188393E9, 0.0, 2022-03-23 20:35:00.818
66.0, 1076.1973511492833, 673.4419150711037, 1775.003267719876, 954.1588057451881, -0.19200000911951065, -0.03200000151991844, 1.0400000493973494, 0.0, 0.0, 0.0, 0.0, 0.0, 1.648085700834488E9, 0.0, 2022-03-23 20:35:00.834
66.0, 1082.8768124701455, 678.7974518076517, 1785.5946643943898, 963.0298484400846, -0.19200000911951065, -0.03200000151991844, 1.0400000493973494, 0.0, 0.0, 0.0, 0.0, 0.0, 1.648085700834488E9, 0.0, 2022-03-23 20:35:00.834
67.0, 1069.1887786323205, 678.154189015273, 1777.4117632913403, 955.9165587243624, -0.19200000911951065, -0.03200000151991844, 1.0400000493973494, 0.0, 0.0, 0.0, 0.0, 0.0, 1.6480857008351603E9, 0.0, 2022-03-23 20:35:00.835
67.0, 1064.2708101905882, 681.3518034773879, 1768.9521095915698, 942.7820300799794, -0.19200000911951065, -0.03200000151991844, 1.0400000493973494, 0.0, 0.0, 0.0, 0.0, 0.0, 1.6480857008351603E9, 0.0, 2022-03-23 20:35:00.835
68.0, 1079.664238408208, 694.6434079199098, 1791.2755724270828, 958.9196983887814, -0.19200000911951065, -0.03200000151991844, 1.0400000493973494, 0.0, 0.0, 0.0, 0.0, 0.0, 1.6480857008487568E9, 0.0, 2022-03-23 20:35:00.848
68.0, 1070.7894558133557, 682.7430462609045, 1783.5227598189376, 947.0118569298647, -0.19200000911951065, -0.03200000151991844, 1.0400000493973494, 0.0, 0.0, 0.0, 0.0, 0.0, 1.6480857008487568E9, 0.0, 2022-03-23 20:35:00.848
69.0, 1068.6951118381694, 674.7508800555952, 1780.1194508592598, 951.6381131750531, -0.19200000911951065, -0.03200000151991844, 1.0400000493973494, 0.0, 0.0, 0.0, 0.0, 0.0, 1.6480857008644173E9, 0.0, 2022-03-23 20:35:00.864
69.0, 1080.1317259026691, 679.4070555004291, 1773.3053531399928, 967.8543193829246, -0.19200000911951065, -0.03200000151991844, 1.0400000493973494, 0.0, 0.0, 0.0, 0.0, 0.0, 1.6480857008644173E9, 0.0, 2022-03-23 20:35:00.864
70.0, 1081.9343576813117, 691.0568438624032, 1784.2109014107846, 971.683976937551, -0.19200000911951065, -0.03200000151991844, 1.0240000486373901, 0.0, 0.0, 0.0, 0.0, 0.0, 1.6480857008651588E9, 0.0, 2022-03-23 20:35:00.865
70.0, 1077.925184928812, 682.3727961652912, 1785.4749875958078, 976.7852004771121, -0.19200000911951065, -0.03200000151991844, 1.0240000486373901, 0.0, 0.0, 0.0, 0.0, 0.0, 1.6480857008651588E9, 0.0, 2022-03-23 20:35:00.865
71.0, 1061.222791726701, 673.3596372720785, 1778.4140564794652, 979.3171127471142, -0.19200000911951065, 0.01600000075995922, 1.0240000486373901, 0.0, 0.0, 0.0, 0.0, 0.0, 1.6480857008951783E9, 0.0, 2022-03-23 20:35:00.895
71.0, 1062.718751708977, 680.4691870878451, 1774.9284697207622, 971.8148734360002, -0.19200000911951065, 0.01600000075995922, 1.0240000486373901, 0.0, 0.0, 0.0, 0.0, 0.0, 1.6480857008951783E9, 0.0, 2022-03-23 20:35:00.895
72.0, 1054.9808987006545, 677.2715726257302, 1775.6128714126535, 959.5218222816475, -0.19200000911951065, 0.01600000075995922, 1.0240000486373901, 0.0, 0.0, 0.0, 0.0, 0.0, 1.648085700895841E9, 0.0, 2022-03-23 20:35:00.895
72.0, 1046.8615758968517, 683.1170362564735, 1778.2532407813706, 961.97519665258, -0.19200000911951065, 0.01600000075995922, 1.0240000486373901, 0.0, 0.0, 0.0, 0.0, 0.0, 1.648085700895841E9, 0.0, 2022-03-23 20:35:00.895
73.0, 1044.482999525033, 676.598390633706, 1787.0906243766658, 952.1916183684953, -0.19200000911951065, 0.01600000075995922, 1.0240000486373901, 0.0, 0.0, 0.0, 0.0, 0.0, 1.6480857008966048E9, 0.0, 2022-03-23 20:35:00.896
73.0, 1036.1916413232684, 676.224400638137, 1785.5984042943455, 941.6824994930066, -0.19200000911951065, 0.01600000075995922, 1.0240000486373901, 0.0, 0.0, 0.0, 0.0, 0.0, 1.6480857008966048E9, 0.0, 2022-03-23 20:35:00.896
