%OpenBCI Raw EEG Data
%Number of channels = 4
%Sample Rate = 200 Hz
%Board = OpenBCI_GUI$BoardGanglionBLE
Sample Index, EXG Channel 0, EXG Channel 1, EXG Channel 2, EXG Channel 3, Accel Channel 0, Accel Channel 1, Accel Channel 2, Other, Other, Other, Other, Other, Timestamp, Other, Timestamp (Formatted)
2.0, -18.269411283545196, -14.783824524842203, -13.639415138401091, -29.73968444764614, 0.3680000174790621, 0.0, 0.0, 0.0, 0.0, 0.0, 0.0, 0.0, 1.65066837918126E9, 0.0, 2022-04-22 17:59:39.181
2.0, 2.617929968982935, -17.192320096306503, -15.789857612922788, 22.446879534050822, 0.3680000174790621, 0.0, 0.0, 0.0, 0.0, 0.0, 0.0, 0.0, 1.65066837918126E9, 0.0, 2022-04-22 17:59:39.181
3.0, -18.53120428044349, -17.929080387577415, -10.84196997154504, -26.377514387480915, 0.3680000174790621, 0.0, 0.0, 0.0, 0.0, 0.0, 0.0, 0.0, 1.6506683791955657E9, 0.0, 2022-04-22 17:59:39.195
3.0, 3.459407459013164, 4.188687950372696, 1.6193766808137298, 4.132589451037347, 0.3680000174790621, 0.0, 0.0, 0.0, 0.0, 0.0, 0.0, 0.0, 1.6506683791955657E9, 0.0, 2022-04-22 17:59:39.195
4.0, -21.122954949736595, -21.76621774211526, -14.536991127766669, -48.19609072897583, 0.3680000174790621, 0.0, 0.0, 0.0, 0.0, 0.0, 0.0, 0.0, 1.650668379196306E9, 0.0, 2022-04-22 17:59:39.196
4.0, 0.9536744887009263, -18.235752183943987, -14.020884933881462, 5.377976136282086, 0.3680000174790621, 0.0, 0.0, 0.0, 0.0, 0.0, 0.0, 0.0, 1.650668379196306E9, 0.0, 2022-04-22 17:59:39.196
5.0, -18.400307781994343, -10.292204678058624, -3.025579064153135, -18.5274643804878, 0.3680000174790621, 0.0, 0.0, 0.0, 0.0, 0.0, 0.0, 0.0, 1.6506683792099133E9, 0.0, 2022-04-22 17:59:39.209
5.0, -30.741977635771036, -31.36654092837125, -26.055882991291583, -31.273043429479003, 0.3680000174790621, 0.0, 0.0, 0.0, 0.0, 0.0, 0.0, 0.0, 1.6506683792099133E9, 0.0, 2022-04-22 17:59:39.209
6.0, -4.267225849442184, -20.53205075673759, -11.002785669639707, 7.083370516076684, 0.3680000174790621, 0.0, 0.0, 0.0, 0.0, 0.0, 0.0, 0.0, 1.6506683792255363E9, 0.0, 2022-04-22 17:59:39.225
6.0, -12.782978048548102, -15.120415520854294, -12.947533646598458, -14.780084624886513, 0.3680000174790621, 0.0, 0.0, 0.0, 0.0, 0.0, 0.0, 0.0, 1.6506683792255363E9, 0.0, 2022-04-22 17:59:39.225
7.0, -2.4271950712427497, 8.44469409994781, 4.334544048644602, -1.5483185816556215, 0.3680000174790621, 0.0, 0.0, 0.0, 0.0, 0.0, 0.0, 0.0, 1.650668379226333E9, 0.0, 2022-04-22 17:59:39.226
7.0, 2.1018237750977278, 1.6829549800604582, -8.126802603714168, 19.159507472999394, 0.3680000174790621, 0.0, 0.0, 0.0, 0.0, 0.0, 0.0, 0.0, 1.650668379226333E9, 0.0, 2022-04-22 17:59:39.226
8.0, -42.7994150929153, -28.812189258635044, -15.183993820101023, -71.67518265079707, 0.3680000174790621, 0.0, 0.0, 0.0, 0.0, 0.0, 0.0, 0.0, 1.6506683792399695E9, 0.0, 2022-04-22 17:59:39.239
8.0, -17.218499395996332, -16.47051940485835, -4.342023848555982, -29.00292415637523, 0.3680000174790621, 0.0, 0.0, 0.0, 0.0, 0.0, 0.0, 0.0, 1.6506683792399695E9, 0.0, 2022-04-22 17:59:39.239
9.0, -14.155521332286298, -14.035844533704221, -8.354936501011252, -10.112689480185509, 0.3680000174790621, 0.0, 0.0, 0.0, 0.0, 0.0, 0.0, 0.0, 1.6506683792555985E9, 0.0, 2022-04-22 17:59:39.255
9.0, -4.510319346562028, -9.173974591307342, -2.659068868495524, 8.579330498352647, 0.3680000174790621, 0.0, 0.0, 0.0, 0.0, 0.0, 0.0, 0.0, 1.6506683792555985E9, 0.0, 2022-04-22 17:59:39.255
10.0, -17.050203897990286, -11.634828762151301, -10.09398998040706, 16.216206207871437, 0.3680000174790621, 0.0, 0.944000044837594, 0.0, 0.0, 0.0, 0.0, 0.0, 1.6506683792563756E9, 0.0, 2022-04-22 17:59:39.256
10.0, -24.242031512781978, -24.758137706667185, -11.907841458916664, -11.440353964455426, 0.3680000174790621, 0.0, 0.944000044837594, 0.0, 0.0, 0.0, 0.0, 0.0, 1.6506683792563756E9, 0.0, 2022-04-22 17:59:39.256
11.0, -15.976852610707283, -3.018099264241755, -7.491019611246884, -22.259884536266327, 0.3680000174790621, 0.09600000455975533, 0.944000044837594, 0.0, 0.0, 0.0, 0.0, 0.0, 1.6506683792698917E9, 0.0, 2022-04-22 17:59:39.269
11.0, -22.364601735025644, -9.959353582002223, -11.417914564721286, -12.771758348681033, 0.3680000174790621, 0.09600000455975533, 0.944000044837594, 0.0, 0.0, 0.0, 0.0, 0.0, 1.6506683792698917E9, 0.0, 2022-04-22 17:59:39.269
12.0, -32.6829857127741, -37.279322758316994, -21.579222744330764, -33.793735999614, 0.3680000174790621, 0.09600000455975533, 0.944000044837594, 0.0, 0.0, 0.0, 0.0, 0.0, 1.6506683792855864E9, 0.0, 2022-04-22 17:59:39.285
12.0, -26.91979988105595, -24.698299307376146, -18.53868408035487, -29.34325505234301, 0.3680000174790621, 0.09600000455975533, 0.944000044837594, 0.0, 0.0, 0.0, 0.0, 0.0, 1.6506683792855864E9, 0.0, 2022-04-22 17:59:39.285
13.0, -21.612881843931973, -23.79698341805488, -20.210419360548258, -10.793351272121072, 0.3680000174790621, 0.09600000455975533, 0.944000044837594, 0.0, 0.0, 0.0, 0.0, 0.0, 1.650668379286294E9, 0.0, 2022-04-22 17:59:39.286
13.0, -18.344209282658994, -11.65352826192975, -17.480292392894626, -9.708780284970999, 0.3680000174790621, 0.09600000455975533, 0.944000044837594, 0.0, 0.0, 0.0, 0.0, 0.0, 1.650668379286294E9, 0.0, 2022-04-22 17:59:39.286
14.0, -17.36061559431255, -12.790457848459482, -9.394628688693047, -17.31199689488858, 0.3680000174790621, 0.09600000455975533, 0.944000044837594, 0.0, 0.0, 0.0, 0.0, 0.0, 1.6506683792999027E9, 0.0, 2022-04-22 17:59:39.299
14.0, 8.796244695782661, -2.0307656759396195, 5.015205840580165, 60.582639382220805, 0.3680000174790621, 0.09600000455975533, 0.944000044837594, 0.0, 0.0, 0.0, 0.0, 0.0, 1.6506683792999027E9, 0.0, 2022-04-22 17:59:39.299
15.0, -22.312243135645986, -13.504778739996254, -17.207279696129262, -22.94802612811327, 0.3680000174790621, 0.09600000455975533, 0.944000044837594, 0.0, 0.0, 0.0, 0.0, 0.0, 1.6506683793156173E9, 0.0, 2022-04-22 17:59:39.315
15.0, -49.96132350806147, -48.28584832791239, -44.478630173020065, -68.18585599213839, 0.3680000174790621, 0.09600000455975533, 0.944000044837594, 0.0, 0.0, 0.0, 0.0, 0.0, 1.6506683793156173E9, 0.0, 2022-04-22 17:59:39.315
16.0, -23.905440516769886, -29.646186948753893, -17.225979195907712, -39.687818329781294, 0.3680000174790621, 0.09600000455975533, 0.944000044837594, 0.0, 0.0, 0.0, 0.0, 0.0, 1.6506683793163576E9, 0.0, 2022-04-22 17:59:39.316
16.0, -11.829303559847176, 11.791904560290277, -4.304624848999083, -13.587056539021432, 0.3680000174790621, 0.09600000455975533, 0.944000044837594, 0.0, 0.0, 0.0, 0.0, 0.0, 1.6506683793163576E9, 0.0, 2022-04-22 17:59:39.316
17.0, -21.152874149382114, -12.595983050763607, -20.004724862985313, -5.879122730344534, 0.3680000174790621, 0.09600000455975533, 0.944000044837594, 0.0, 0.0, 0.0, 0.0, 0.0, 1.6506683793298385E9, 0.0, 2022-04-22 17:59:39.329
17.0, -18.706979578360915, -21.29499034769833, -21.956952639855444, -5.422854935750365, 0.3680000174790621, 0.09600000455975533, 0.944000044837594, 0.0, 0.0, 0.0, 0.0, 0.0, 1.6506683793298385E9, 0.0, 2022-04-22 17:59:39.329
18.0, -20.53205075673759, -19.77659096568823, -25.147087302058935, -12.91387454699725, 0.3680000174790621, 0.09600000455975533, 0.944000044837594, 0.0, 0.0, 0.0, 0.0, 0.0, 1.6506683793456163E9, 0.0, 2022-04-22 17:59:39.345
18.0, -35.996537073515356, -28.55413616169244, -25.539776797406375, -30.794336235150695, 0.3680000174790621, 0.09600000455975533, 0.944000044837594, 0.0, 0.0, 0.0, 0.0, 0.0, 1.6506683793456163E9, 0.0, 2022-04-22 17:59:39.345
19.0, -14.619268926791847, -23.942839516326785, -30.102454743348062, -15.524324716068804, 0.3680000174790621, 0.09600000455975533, 0.944000044837594, 0.0, 0.0, 0.0, 0.0, 0.0, 1.6506683793463624E9, 0.0, 2022-04-22 17:59:39.346
19.0, -20.92474025208503, -19.589595967903733, -23.030303927138448, -20.838722553104162, 0.3680000174790621, 0.09600000455975533, 0.944000044837594, 0.0, 0.0, 0.0, 0.0, 0.0, 1.6506683793463624E9, 0.0, 2022-04-22 17:59:39.346
20.0, -27.106794878840446, -27.79493647068739, -21.474505545571446, -29.485371250659227, 0.3680000174790621, 0.09600000455975533, 0.944000044837594, 0.0, 0.0, 0.0, 0.0, 0.0, 1.6506683793597834E9, 0.0, 2022-04-22 17:59:39.359
20.0, -21.829796041361988, -10.595136574469507, -15.217652919702232, -17.484032292850316, 0.3680000174790621, 0.09600000455975533, 0.944000044837594, 0.0, 0.0, 0.0, 0.0, 0.0, 1.6506683793597834E9, 0.0, 2022-04-22 17:59:39.359
21.0, -34.1265870956704, -37.14094645995647, -33.236490906216204, -15.086756421253085, 0.3680000174790621, 0.09600000455975533, 0.944000044837594, 0.0, 0.0, 0.0, 0.0, 0.0, 1.6506683793755672E9, 0.0, 2022-04-22 17:59:39.375
21.0, -23.68852631933987, -24.18219311349094, -25.861408193595707, -25.992304692044854, 0.3680000174790621, 0.09600000455975533, 0.944000044837594, 0.0, 0.0, 0.0, 0.0, 0.0, 1.6506683793755672E9, 0.0, 2022-04-22 17:59:39.375
22.0, -26.328895688056946, -34.422039192169905, -40.880846415646374, 9.22259329073131, 0.3680000174790621, 0.09600000455975533, 0.944000044837594, 0.0, 0.0, 0.0, 0.0, 0.0, 1.6506683793762915E9, 0.0, 2022-04-22 17:59:39.376
22.0, -24.324309311807156, -36.075074972584844, -26.97963828034699, -27.80241627059877, 0.3680000174790621, 0.09600000455975533, 0.944000044837594, 0.0, 0.0, 0.0, 0.0, 0.0, 1.6506683793762915E9, 0.0, 2022-04-22 17:59:39.376
23.0, -5.2134205382317305, -5.497652934864163, -1.3912427835166454, -11.563770662993193, 0.3680000174790621, 0.09600000455975533, 0.944000044837594, 0.0, 0.0, 0.0, 0.0, 0.0, 1.6506683793899248E9, 0.0, 2022-04-22 17:59:39.389
23.0, -14.551950727589428, -9.23755289055407, -6.0960369277745485, -15.430827217176557, 0.3680000174790621, 0.09600000455975533, 0.944000044837594, 0.0, 0.0, 0.0, 0.0, 0.0, 1.6506683793899248E9, 0.0, 2022-04-22 17:59:39.389
24.0, -18.303070383146405, -22.312243135645986, -20.236598660238087, -11.840523259714246, 0.3680000174790621, 0.09600000455975533, 0.944000044837594, 0.0, 0.0, 0.0, 0.0, 0.0, 1.6506683794056182E9, 0.0, 2022-04-22 17:59:39.405
24.0, 1.5744978813454509, -14.170480932109058, -2.7076875679194927, 11.24961906671524, 0.3680000174790621, 0.09600000455975533, 0.944000044837594, 0.0, 0.0, 0.0, 0.0, 0.0, 1.6506683794056182E9, 0.0, 2022-04-22 17:59:39.405
25.0, -8.298838001675904, 2.745086567476392, -0.9611542886123061, -13.239245843142271, 0.3680000174790621, 0.09600000455975533, 0.944000044837594, 0.0, 0.0, 0.0, 0.0, 0.0, 1.6506683794062605E9, 0.0, 2022-04-22 17:59:39.406
25.0, -11.328156965784729, -8.639168897643685, -18.217052684165537, 5.579930733889341, 0.3680000174790621, 0.09600000455975533, 0.944000044837594, 0.0, 0.0, 0.0, 0.0, 0.0, 1.6506683794062605E9, 0.0, 2022-04-22 17:59:39.406
26.0, -11.814343960024416, -9.402108488604426, -11.25709886662662, -5.265779137611389, 0.3680000174790621, 0.09600000455975533, 0.944000044837594, 0.0, 0.0, 0.0, 0.0, 0.0, 1.650668379419858E9, 0.0, 2022-04-22 17:59:39.419
26.0, -22.52541743312031, -25.951165792532265, -26.89362058136612, -16.350842606276274, 0.3680000174790621, 0.09600000455975533, 0.944000044837594, 0.0, 0.0, 0.0, 0.0, 0.0, 1.650668379419858E9, 0.0, 2022-04-22 17:59:39.419
27.0, -21.971912239678204, -19.462439369410276, -17.73086568992585, -25.981084992177784, 0.3680000174790621, 0.09600000455975533, 0.944000044837594, 0.0, 0.0, 0.0, 0.0, 0.0, 1.6506683794355345E9, 0.0, 2022-04-22 17:59:39.435
27.0, -25.139607502147555, -35.349534381181, -25.76417079474777, -24.56366290897131, 0.3680000174790621, 0.09600000455975533, 0.944000044837594, 0.0, 0.0, 0.0, 0.0, 0.0, 1.6506683794355345E9, 0.0, 2022-04-22 17:59:39.435
28.0, -18.4900653809309, -23.965278916060925, -21.422146946191788, -9.510565587319434, 0.3680000174790621, 0.09600000455975533, 0.944000044837594, 0.0, 0.0, 0.0, 0.0, 0.0, 1.65066837943626E9, 0.0, 2022-04-22 17:59:39.436
28.0, -28.026810267940164, -15.655221214517951, -21.945732939988375, -12.195813755504787, 0.3680000174790621, 0.09600000455975533, 0.944000044837594, 0.0, 0.0, 0.0, 0.0, 0.0, 1.65066837943626E9, 0.0, 2022-04-22 17:59:39.436
29.0, -25.494897997938097, -33.43844550382346, -26.669226584024727, -19.428780269809067, 0.3680000174790621, 0.09600000455975533, 0.944000044837594, 0.0, 0.0, 0.0, 0.0, 0.0, 1.6506683794499037E9, 0.0, 2022-04-22 17:59:39.449
29.0, -31.628333925269544, -35.11766058392823, -32.9036398101598, -36.93899186234921, 0.3680000174790621, 0.09600000455975533, 0.944000044837594, 0.0, 0.0, 0.0, 0.0, 0.0, 1.6506683794499037E9, 0.0, 2022-04-22 17:59:39.449
30.0, -23.613728320226073, -4.558938045985997, -10.157568279653788, -33.154213107191026, 0.3680000174790621, 0.09600000455975533, 0.944000044837594, 0.0, 0.0, 0.0, 0.0, 0.0, 1.6506683794655805E9, 0.0, 2022-04-22 17:59:39.465
30.0, -11.219699867069721, 9.536744887009263, 0.5123662939295173, 7.479799911379814, 0.3680000174790621, 0.09600000455975533, 0.944000044837594, 0.0, 0.0, 0.0, 0.0, 0.0, 1.6506683794655805E9, 0.0, 2022-04-22 17:59:39.465
31.0, -1.290265484713018, 0.7928587906062603, -2.049465175718069, 21.597922244109213, 0.3680000174790621, 0.09600000455975533, 0.944000044837594, 0.0, 0.0, 0.0, 0.0, 0.0, 1.6506683794662712E9, 0.0, 2022-04-22 17:59:39.466
31.0, -16.91556749958545, 3.8109580548480153, -7.722893408499658, 1.290265484713018, 0.3680000174790621, 0.09600000455975533, 0.944000044837594, 0.0, 0.0, 0.0, 0.0, 0.0, 1.6506683794662712E9, 0.0, 2022-04-22 17:59:39.466
32.0, -21.485725245438516, -12.771758348681033, -20.689126554876566, -0.5684647932648659, 0.35200001671910286, 0.09600000455975533, 0.944000044837594, 0.0, 0.0, 0.0, 0.0, 0.0, 1.6506683794799044E9, 0.0, 2022-04-22 17:59:39.479
32.0, -33.82739509921521, -39.17171213589609, -40.51433621998876, -13.100869544781744, 0.35200001671910286, 0.09600000455975533, 0.944000044837594, 0.0, 0.0, 0.0, 0.0, 0.0, 1.6506683794799044E9, 0.0, 2022-04-22 17:59:39.479
33.0, -33.8685339987278, -18.617221979424357, -28.673812960274518, -25.76417079474777, 0.35200001671910286, 0.09600000455975533, 0.944000044837594, 0.0, 0.0, 0.0, 0.0, 0.0, 1.650668379495566E9, 0.0, 2022-04-22 17:59:39.495
33.0, -49.665871411561966, -34.32106189336628, -45.709057258442044, -39.51952283177525, 0.35200001671910286, 0.09600000455975533, 0.944000044837594, 0.0, 0.0, 0.0, 0.0, 0.0, 1.650668379495566E9, 0.0, 2022-04-22 17:59:39.495
34.0, -65.23507492709905, -72.52787984069437, -59.12033849954605, -25.74921119492501, 0.35200001671910286, 0.09600000455975533, 0.944000044837594, 0.0, 0.0, 0.0, 0.0, 0.0, 1.650668379496404E9, 0.0, 2022-04-22 17:59:39.496
34.0, -66.34208531398326, -84.17018840275705, -53.15893797017634, -69.21432847995311, 0.35200001671910286, 0.09600000455975533, 0.944000044837594, 0.0, 0.0, 0.0, 0.0, 0.0, 1.650668379496404E9, 0.0, 2022-04-22 17:59:39.496
35.0, -58.70894950442016, -56.41265093162656, -31.467518227174878, -41.52036930806935, 0.35200001671910286, 0.09600000455975533, 0.944000044837594, 0.0, 0.0, 0.0, 0.0, 0.0, 1.650668379509881E9, 0.0, 2022-04-22 17:59:39.509
35.0, -36.004016873426735, -46.58045394811779, -7.543378210626543, -16.208726407960057, 0.35200001671910286, 0.09600000455975533, 0.944000044837594, 0.0, 0.0, 0.0, 0.0, 0.0, 1.650668379509881E9, 0.0, 2022-04-22 17:59:39.509
36.0, -24.58984220866114, -54.950350048951805, -5.22838013805449, -12.113535956479609, 0.35200001671910286, 0.09600000455975533, 0.944000044837594, 0.0, 0.0, 0.0, 0.0, 0.0, 1.6506683795255895E9, 0.0, 2022-04-22 17:59:39.525
36.0, -22.98168522771448, -38.382593245245516, 21.167833749204874, 37.10728736035526, 0.35200001671910286, 0.09600000455975533, 0.944000044837594, 0.0, 0.0, 0.0, 0.0, 0.0, 1.6506683795255895E9, 0.0, 2022-04-22 17:59:39.525
37.0, -72.14267014525831, -102.17032688949257, -32.29029621742666, -63.50350124761462, 0.35200001671910286, 0.09600000455975533, 0.944000044837594, 0.0, 0.0, 0.0, 0.0, 0.0, 1.6506683795263135E9, 0.0, 2022-04-22 17:59:39.526
37.0, -37.642093054018915, -92.33065010607243, -9.26747209019959, -12.91013464704156, 0.35200001671910286, 0.09600000455975533, 0.944000044837594, 0.0, 0.0, 0.0, 0.0, 0.0, 1.6506683795263135E9, 0.0, 2022-04-22 17:59:39.526
38.0, -41.75598300527781, -100.5659098085016, -8.05574450455606, -16.717352801933885, 0.35200001671910286, 0.09600000455975533, 0.944000044837594, 0.0, 0.0, 0.0, 0.0, 0.0, 1.6506683795399175E9, 0.0, 2022-04-22 17:59:39.539
38.0, -51.95469018444419, -96.16030766069889, -22.757291230373085, -28.53543666191399, 0.35200001671910286, 0.09600000455975533, 0.944000044837594, 0.0, 0.0, 0.0, 0.0, 0.0, 1.6506683795399175E9, 0.0, 2022-04-22 17:59:39.539
39.0, -49.695790611207485, -95.87607526406646, -16.02921121008694, -65.50060782395303, 0.35200001671910286, 0.09600000455975533, 0.944000044837594, 0.0, 0.0, 0.0, 0.0, 0.0, 1.650668379555574E9, 0.0, 2022-04-22 17:59:39.555
39.0, -50.451250402256846, -87.24438616633415, -17.540130792185664, -33.87601379863918, 0.35200001671910286, 0.09600000455975533, 0.944000044837594, 0.0, 0.0, 0.0, 0.0, 0.0, 1.650668379555574E9, 0.0, 2022-04-22 17:59:39.555
40.0, -72.53161974065006, -106.60958813689649, -37.3129818579182, -56.498668630607426, 0.35200001671910286, 0.09600000455975533, 0.944000044837594, 0.0, 0.0, 0.0, 0.0, 0.0, 1.6506683795563135E9, 0.0, 2022-04-22 17:59:39.556
40.0, -52.25014228094369, -78.21626767329872, -24.357968411408365, -41.658745606429875, 0.35200001671910286, 0.09600000455975533, 0.944000044837594, 0.0, 0.0, 0.0, 0.0, 0.0, 1.6506683795563135E9, 0.0, 2022-04-22 17:59:39.556
41.0, -75.1832088092342, -112.99359736125916, -54.26220845710486, -54.45294335484505, 0.35200001671910286, 0.09600000455975533, 0.944000044837594, 0.0, 0.0, 0.0, 0.0, 0.0, 1.6506683795699174E9, 0.0, 2022-04-22 17:59:39.569
41.0, -50.3203539038077, -78.3359444718808, -28.733651359565556, -18.314290083013475, 0.35200001671910286, 0.09600000455975533, 0.944000044837594, 0.0, 0.0, 0.0, 0.0, 0.0, 1.6506683795699174E9, 0.0, 2022-04-22 17:59:39.569
42.0, -65.11165822856128, -86.51136577501893, -28.95430545695126, -30.323108840733767, 0.3680000174790621, 0.09600000455975533, 0.944000044837594, 0.0, 0.0, 0.0, 0.0, 0.0, 1.6506683796019273E9, 0.0, 2022-04-22 17:59:39.601
42.0, -55.19718344602734, -89.69776053726673, -39.16049243602902, -9.24877259042114, 0.3680000174790621, 0.09600000455975533, 0.944000044837594, 0.0, 0.0, 0.0, 0.0, 0.0, 1.6506683796019273E9, 0.0, 2022-04-22 17:59:39.601
43.0, -63.331465849652886, -86.49266627524048, -33.49454400315881, -17.869241988286376, 0.3680000174790621, 0.09600000455975533, 0.944000044837594, 0.0, 0.0, 0.0, 0.0, 0.0, 1.6506683796027884E9, 0.0, 2022-04-22 17:59:39.602
43.0, -74.1472565215081, -99.75435151811689, -52.26510188076645, -75.87135040108114, 0.3680000174790621, 0.09600000455975533, 0.944000044837594, 0.0, 0.0, 0.0, 0.0, 0.0, 1.6506683796027884E9, 0.0, 2022-04-22 17:59:39.602
44.0, -48.2821084279567, -76.55201219301671, -20.52457095682621, -38.14323964808136, 0.3680000174790621, 0.09600000455975533, 0.944000044837594, 0.0, 0.0, 0.0, 0.0, 0.0, 1.6506683796034036E9, 0.0, 2022-04-22 17:59:39.603
44.0, -57.83755281474441, -69.25172747951001, -35.199938382953405, -46.01946895476431, 0.3680000174790621, 0.09600000455975533, 0.944000044837594, 0.0, 0.0, 0.0, 0.0, 0.0, 1.6506683796034036E9, 0.0, 2022-04-22 17:59:39.603
45.0, -37.45883795619011, -49.14602531772107, -24.89651400502771, -2.81240476667881, 0.3680000174790621, 0.09600000455975533, 0.944000044837594, 0.0, 0.0, 0.0, 0.0, 0.0, 1.6506683796042593E9, 0.0, 2022-04-22 17:59:39.604
45.0, -54.38936505559832, -63.09585215244442, -26.732804883271456, -55.41409764345735, 0.3680000174790621, 0.09600000455975533, 0.944000044837594, 0.0, 0.0, 0.0, 0.0, 0.0, 1.6506683796042593E9, 0.0, 2022-04-22 17:59:39.604
46.0, -44.115859877318144, -58.07690641190857, -27.82111577037722, -42.61615999508649, 0.3680000174790621, 0.09600000455975533, 0.944000044837594, 0.0, 0.0, 0.0, 0.0, 0.0, 1.650668379614946E9, 0.0, 2022-04-22 17:59:39.614
46.0, -59.96929578948766, -83.03325881622732, -42.006556302309036, -24.058776414953172, 0.3680000174790621, 0.09600000455975533, 0.944000044837594, 0.0, 0.0, 0.0, 0.0, 0.0, 1.650668379614946E9, 0.0, 2022-04-22 17:59:39.614
47.0, -57.23168902192265, -61.89534426666796, -38.9061792390421, -27.869734469801188, 0.3680000174790621, 0.09600000455975533, 0.944000044837594, 0.0, 0.0, 0.0, 0.0, 0.0, 1.650668379629944E9, 0.0, 2022-04-22 17:59:39.629
47.0, -63.769034144468606, -74.06871862243861, -42.70217769406736, -55.25328194536269, 0.3680000174790621, 0.09600000455975533, 0.944000044837594, 0.0, 0.0, 0.0, 0.0, 0.0, 1.650668379629944E9, 0.0, 2022-04-22 17:59:39.629
48.0, -56.00126193650067, -75.58711800444871, -43.16218538861722, -25.76791069470346, 0.3680000174790621, 0.09600000455975533, 0.944000044837594, 0.0, 0.0, 0.0, 0.0, 0.0, 1.6506683796455276E9, 0.0, 2022-04-22 17:59:39.645
48.0, -51.4311041906476, -75.05605221074075, -44.69928427040577, -28.95056555699557, 0.3680000174790621, 0.09600000455975533, 0.944000044837594, 0.0, 0.0, 0.0, 0.0, 0.0, 1.6506683796455276E9, 0.0, 2022-04-22 17:59:39.645
49.0, -60.27596758585423, -83.44090791139752, -55.0999460471794, -61.27078097406775, 0.3680000174790621, 0.09600000455975533, 0.944000044837594, 0.0, 0.0, 0.0, 0.0, 0.0, 1.65066837964645E9, 0.0, 2022-04-22 17:59:39.646
49.0, -52.00330888386816, -72.89065013639629, -45.81003455724567, -47.62762593571097, 0.3680000174790621, 0.09600000455975533, 0.944000044837594, 0.0, 0.0, 0.0, 0.0, 0.0, 1.65066837964645E9, 0.0, 2022-04-22 17:59:39.646
50.0, -57.29152742121369, -74.12481712177396, -43.50999608449638, -17.412974193692207, 0.3680000174790621, 0.09600000455975533, 0.944000044837594, 0.0, 0.0, 0.0, 0.0, 0.0, 1.6506683796598897E9, 0.0, 2022-04-22 17:59:39.659
50.0, -65.25751432683319, -83.70270090829581, -64.24774133879691, -32.96721810940653, 0.3680000174790621, 0.09600000455975533, 0.944000044837594, 0.0, 0.0, 0.0, 0.0, 0.0, 1.6506683796598897E9, 0.0, 2022-04-22 17:59:39.659
51.0, -63.64187754597515, -76.72404759097844, -57.710396216250956, -46.105486653745174, 0.3680000174790621, 0.09600000455975533, 0.944000044837594, 0.0, 0.0, 0.0, 0.0, 0.0, 1.6506683796755264E9, 0.0, 2022-04-22 17:59:39.675
51.0, -52.29128118045628, -51.95469018444419, -41.78964210487902, -30.753197335638106, 0.3680000174790621, 0.09600000455975533, 0.944000044837594, 0.0, 0.0, 0.0, 0.0, 0.0, 1.6506683796755264E9, 0.0, 2022-04-22 17:59:39.675
52.0, -66.42436311300844, -77.08307798672467, -54.43050395511091, -62.04868016485125, 0.3680000174790621, 0.09600000455975533, 0.944000044837594, 0.0, 0.0, 0.0, 0.0, 0.0, 1.650668379676251E9, 0.0, 2022-04-22 17:59:39.676
52.0, -45.38368596229702, -55.23084254562855, -48.19983062893152, -49.88278560899198, 0.3680000174790621, 0.09600000455975533, 0.944000044837594, 0.0, 0.0, 0.0, 0.0, 0.0, 1.650668379676251E9, 0.0, 2022-04-22 17:59:39.676
53.0, -29.537729850038886, -25.76417079474777, -25.79782989434898, -4.3270642487332225, 0.3680000174790621, 0.09600000455975533, 0.944000044837594, 0.0, 0.0, 0.0, 0.0, 0.0, 1.650668379689966E9, 0.0, 2022-04-22 17:59:39.689
53.0, -65.75118112098426, -66.01297411788255, -53.03926117159426, -63.24918805062771, 0.3680000174790621, 0.09600000455975533, 0.944000044837594, 0.0, 0.0, 0.0, 0.0, 0.0, 1.650668379689966E9, 0.0, 2022-04-22 17:59:39.689
54.0, -28.075428967364132, -30.869134234264493, -18.56112348008901, -16.414420905523002, 0.3680000174790621, 0.09600000455975533, 0.944000044837594, 0.0, 0.0, 0.0, 0.0, 0.0, 1.6506683797056627E9, 0.0, 2022-04-22 17:59:39.705
54.0, -48.69349742308259, -61.27078097406775, -47.92681793216616, -36.774436264298856, 0.3680000174790621, 0.09600000455975533, 0.944000044837594, 0.0, 0.0, 0.0, 0.0, 0.0, 1.6506683797056627E9, 0.0, 2022-04-22 17:59:39.705
55.0, -34.010650197044015, -57.736575515940785, -33.26641010586172, 9.899515182711184, 0.3680000174790621, 0.09600000455975533, 0.944000044837594, 0.0, 0.0, 0.0, 0.0, 0.0, 1.6506683797063096E9, 0.0, 2022-04-22 17:59:39.706
55.0, -62.76300105638802, -88.2616389542818, -55.04010764788836, -58.01706801261753, 0.3680000174790621, 0.09600000455975533, 0.944000044837594, 0.0, 0.0, 0.0, 0.0, 0.0, 1.6506683797063096E9, 0.0, 2022-04-22 17:59:39.706
56.0, -39.998230026103556, -51.360046091489494, -46.63655244745314, -42.904132291674614, 0.3680000174790621, 0.09600000455975533, 0.944000044837594, 0.0, 0.0, 0.0, 0.0, 0.0, 1.650668379719856E9, 0.0, 2022-04-22 17:59:39.719
56.0, -37.197044959291816, -39.16049243602902, -31.45629852730781, -39.687818329781294, 0.3680000174790621, 0.09600000455975533, 0.944000044837594, 0.0, 0.0, 0.0, 0.0, 0.0, 1.650668379719856E9, 0.0, 2022-04-22 17:59:39.719
57.0, -45.08075406588614, -50.82898029778153, -35.84694107528776, -49.48261631373316, 0.3680000174790621, 0.09600000455975533, 0.944000044837594, 0.0, 0.0, 0.0, 0.0, 0.0, 1.6506683797355895E9, 0.0, 2022-04-22 17:59:39.735
57.0, -58.510734806768596, -84.32352430094033, -58.211542810313404, -72.55779904033989, 0.3680000174790621, 0.09600000455975533, 0.944000044837594, 0.0, 0.0, 0.0, 0.0, 0.0, 1.6506683797355895E9, 0.0, 2022-04-22 17:59:39.735
58.0, -48.03527503088117, -70.14930346887559, -43.06868788972497, -47.253635940141976, 0.3680000174790621, 0.09600000455975533, 0.944000044837594, 0.0, 0.0, 0.0, 0.0, 0.0, 1.6506683797362735E9, 0.0, 2022-04-22 17:59:39.736
58.0, -32.66428621299565, -50.103439706377685, -31.34410152863711, -16.84450940042734, 0.3680000174790621, 0.09600000455975533, 0.944000044837594, 0.0, 0.0, 0.0, 0.0, 0.0, 1.6506683797362735E9, 0.0, 2022-04-22 17:59:39.736
59.0, -53.48804916627705, -76.5557520929724, -59.15399759914726, -55.82174673862755, 0.3680000174790621, 0.09600000455975533, 0.944000044837594, 0.0, 0.0, 0.0, 0.0, 0.0, 1.6506683797498999E9, 0.0, 2022-04-22 17:59:39.749
59.0, -37.02874946128577, -67.16860320419073, -41.84200070425868, -34.68009228911251, 0.3680000174790621, 0.09600000455975533, 0.944000044837594, 0.0, 0.0, 0.0, 0.0, 0.0, 1.6506683797498999E9, 0.0, 2022-04-22 17:59:39.749
60.0, -37.80664865206927, -54.87555204983801, -46.026948754675686, -31.32540202885866, 0.3680000174790621, 0.09600000455975533, 0.9600000455975533, 0.0, 0.0, 0.0, 0.0, 0.0, 1.650668379765594E9, 0.0, 2022-04-22 17:59:39.765
60.0, -40.858407015912235, -56.977375824935734, -42.440384697169065, -32.57452861405909, 0.3680000174790621, 0.09600000455975533, 0.9600000455975533, 0.0, 0.0, 0.0, 0.0, 0.0, 1.650668379765594E9, 0.0, 2022-04-22 17:59:39.765
61.0, -14.798784124664962, -56.07232003565878, -34.410819492302835, 15.995552110485733, 0.3680000174790621, 0.09600000455975533, 0.9600000455975533, 0.0, 0.0, 0.0, 0.0, 0.0, 1.6506683797663276E9, 0.0, 2022-04-22 17:59:39.766
61.0, -33.28136970568448, -31.953705221414566, -24.99749130383134, -28.090388567186892, 0.3680000174790621, 0.09600000455975533, 0.9600000455975533, 0.0, 0.0, 0.0, 0.0, 0.0, 1.6506683797663276E9, 0.0, 2022-04-22 17:59:39.766
62.0, -39.661639030091465, -46.15036545321345, -36.10499417223036, -49.81546740978956, 0.3680000174790621, 0.09600000455975533, 0.9600000455975533, 0.0, 0.0, 0.0, 0.0, 0.0, 1.6506683797798543E9, 0.0, 2022-04-22 17:59:39.779
62.0, -34.92318578623235, -53.97049626056105, -38.823901440016925, -32.58200841397047, 0.3680000174790621, 0.09600000455975533, 0.9600000455975533, 0.0, 0.0, 0.0, 0.0, 0.0, 1.6506683797798543E9, 0.0, 2022-04-22 17:59:39.779
63.0, -52.130465482361615, -53.63390526454896, -43.311781386844814, -43.92886487953365, 0.3680000174790621, 0.09600000455975533, 0.9600000455975533, 0.0, 0.0, 0.0, 0.0, 0.0, 1.650668379795566E9, 0.0, 2022-04-22 17:59:39.795
63.0, -42.94153129123151, -57.01851472444832, -45.249049563892186, -58.00210841279477, 0.3680000174790621, 0.09600000455975533, 0.9600000455975533, 0.0, 0.0, 0.0, 0.0, 0.0, 1.650668379795566E9, 0.0, 2022-04-22 17:59:39.795
64.0, -39.257729834876955, -70.22784136794508, -52.34737967979163, -30.99255093280226, 0.3680000174790621, 0.09600000455975533, 0.9600000455975533, 0.0, 0.0, 0.0, 0.0, 0.0, 1.650668379796301E9, 0.0, 2022-04-22 17:59:39.796
64.0, -43.76430928148329, -66.63005761057138, -51.25158899277449, -57.878691714257, 0.3680000174790621, 0.09600000455975533, 0.9600000455975533, 0.0, 0.0, 0.0, 0.0, 0.0, 1.650668379796301E9, 0.0, 2022-04-22 17:59:39.796
65.0, -40.15904572419822, -63.021054153330624, -47.657545135356486, -40.72003071755171, 0.3680000174790621, 0.09600000455975533, 0.9600000455975533, 0.0, 0.0, 0.0, 0.0, 0.0, 1.6506683798098965E9, 0.0, 2022-04-22 17:59:39.809
65.0, -21.814836441539228, -40.039368925616145, -34.66513268928975, 0.033659099601209164, 0.3680000174790621, 0.09600000455975533, 0.9600000455975533, 0.0, 0.0, 0.0, 0.0, 0.0, 1.6506683798098965E9, 0.0, 2022-04-22 17:59:39.809
66.0, -2.337437472306192, -18.57982297986746, -17.33817619457841, 11.589949962683022, 0.3680000174790621, 0.09600000455975533, 0.9600000455975533, 0.0, 0.0, 0.0, 0.0, 0.0, 1.650668379825584E9, 0.0, 2022-04-22 17:59:39.825
66.0, -46.056867954321206, -71.87339734844863, -65.7362215211615, -42.26460939925164, 0.3680000174790621, 0.09600000455975533, 0.9600000455975533, 0.0, 0.0, 0.0, 0.0, 0.0, 1.650668379825584E9, 0.0, 2022-04-22 17:59:39.825
67.0, -66.46924191247672, -86.57494407426566, -70.37743736617267, -89.06945734471083, 0.3680000174790621, 0.09600000455975533, 0.9600000455975533, 0.0, 0.0, 0.0, 0.0, 0.0, 1.6506683798262808E9, 0.0, 2022-04-22 17:59:39.826
67.0, -35.75344357639551, -69.99970747064799, -50.29417460411787, -18.93137357570231, 0.3680000174790621, 0.09600000455975533, 0.9600000455975533, 0.0, 0.0, 0.0, 0.0, 0.0, 1.6506683798262808E9, 0.0, 2022-04-22 17:59:39.826
68.0, -25.651973796077073, -33.39730660431087, -35.87312037497759, -27.536883373744786, 0.3680000174790621, 0.09600000455975533, 0.9600000455975533, 0.0, 0.0, 0.0, 0.0, 0.0, 1.650668379839857E9, 0.0, 2022-04-22 17:59:39.839
68.0, -28.456898762844503, -45.652958759106696, -36.93151206243783, -31.205725230276585, 0.3680000174790621, 0.09600000455975533, 0.9600000455975533, 0.0, 0.0, 0.0, 0.0, 0.0, 1.650668379839857E9, 0.0, 2022-04-22 17:59:39.839
69.0, -16.193766808137298, -20.57318965625018, -16.55279720388353, -15.038137721829116, 0.3680000174790621, 0.09600000455975533, 0.9600000455975533, 0.0, 0.0, 0.0, 0.0, 0.0, 1.6506683798555937E9, 0.0, 2022-04-22 17:59:39.855
69.0, -36.96143126208335, -48.39804532658309, -46.6515120472759, -29.986517844721675, 0.3680000174790621, 0.09600000455975533, 0.9600000455975533, 0.0, 0.0, 0.0, 0.0, 0.0, 1.6506683798555937E9, 0.0, 2022-04-22 17:59:39.855
70.0, -52.23892258107662, -66.94794910680503, -50.911258096806705, -80.6659021442756, 0.3680000174790621, 0.09600000455975533, 0.944000044837594, 0.0, 0.0, 0.0, 0.0, 0.0, 1.6506683798563094E9, 0.0, 2022-04-22 17:59:39.856
70.0, -19.993505163118243, -19.813989965245128, -21.059376650489867, -14.86610232386738, 0.3680000174790621, 0.09600000455975533, 0.944000044837594, 0.0, 0.0, 0.0, 0.0, 0.0, 1.6506683798563094E9, 0.0, 2022-04-22 17:59:39.856
71.0, -38.042262349277735, -54.44546355493367, -52.130465482361615, -35.199938382953405, 0.3680000174790621, 0.0800000037997961, 0.944000044837594, 0.0, 0.0, 0.0, 0.0, 0.0, 1.6506683798861823E9, 0.0, 2022-04-22 17:59:39.886
71.0, -43.289341987110674, -50.68686409946531, -44.23927657585591, -43.45389758516103, 0.3680000174790621, 0.0800000037997961, 0.944000044837594, 0.0, 0.0, 0.0, 0.0, 0.0, 1.6506683798861823E9, 0.0, 2022-04-22 17:59:39.886
72.0, -25.251804500818253, -25.637014196254313, -26.807602882385254, -7.461100411601365, 0.3680000174790621, 0.0800000037997961, 0.944000044837594, 0.0, 0.0, 0.0, 0.0, 0.0, 1.650668379886942E9, 0.0, 2022-04-22 17:59:39.886
72.0, -32.87372061051428, -28.59901496116072, -34.70253168884665, -41.34459401015192, 0.3680000174790621, 0.0800000037997961, 0.944000044837594, 0.0, 0.0, 0.0, 0.0, 0.0, 1.650668379886942E9, 0.0, 2022-04-22 17:59:39.886
73.0, -48.510242325253785, -63.67179674562067, -55.84418613836169, -57.81885331496596, 0.3680000174790621, 0.0800000037997961, 0.944000044837594, 0.0, 0.0, 0.0, 0.0, 0.0, 1.650668379887656E9, 0.0, 2022-04-22 17:59:39.887
73.0, -48.495282725431025, -57.57949971780181, -51.51712188962847, -41.206217711791396, 0.3680000174790621, 0.0800000037997961, 0.944000044837594, 0.0, 0.0, 0.0, 0.0, 0.0, 1.650668379887656E9, 0.0, 2022-04-22 17:59:39.887
74.0, -31.246864129789174, -46.135405853390694, -39.75139662902802, -28.090388567186892, 0.3680000174790621, 0.0800000037997961, 0.944000044837594, 0.0, 0.0, 0.0, 0.0, 0.0, 1.6506683798998911E9, 0.0, 2022-04-22 17:59:39.899
74.0, -35.30091568175703, -43.296821787022054, -43.304301586933434, -37.204524759203196, 0.3680000174790621, 0.0800000037997961, 0.944000044837594, 0.0, 0.0, 0.0, 0.0, 0.0, 1.6506683798998911E9, 0.0, 2022-04-22 17:59:39.899
75.0, -42.36558669805527, -43.95878407917917, -58.21528271026909, -20.12440166156739, 0.3680000174790621, 0.0800000037997961, 0.944000044837594, 0.0, 0.0, 0.0, 0.0, 0.0, 1.650668379915582E9, 0.0, 2022-04-22 17:59:39.915
75.0, -36.867933763191104, -37.44387835636735, -40.480677120387554, -40.21888412348926, 0.3680000174790621, 0.0800000037997961, 0.944000044837594, 0.0, 0.0, 0.0, 0.0, 0.0, 1.650668379915582E9, 0.0, 2022-04-22 17:59:39.915
76.0, -49.692050711251795, -69.27790677919984, -58.07316651195288, -54.72221615165472, 0.3680000174790621, 0.0800000037997961, 0.944000044837594, 0.0, 0.0, 0.0, 0.0, 0.0, 1.6506683799163263E9, 0.0, 2022-04-22 17:59:39.916
76.0, -22.47679873369634, -21.571742944419384, -27.74631777126342, -18.706979578360915, 0.3680000174790621, 0.0800000037997961, 0.944000044837594, 0.0, 0.0, 0.0, 0.0, 0.0, 1.6506683799163263E9, 0.0, 2022-04-22 17:59:39.916
77.0, -34.23130429442972, -28.11282796692103, -37.215744459070265, -33.580561702139676, 0.3680000174790621, 0.0800000037997961, 0.944000044837594, 0.0, 0.0, 0.0, 0.0, 0.0, 1.6506683799298935E9, 0.0, 2022-04-22 17:59:39.929
77.0, -43.984963378869, -42.80315499287099, -43.18088488839567, -51.90233158506453, 0.3680000174790621, 0.0800000037997961, 0.944000044837594, 0.0, 0.0, 0.0, 0.0, 0.0, 1.6506683799298935E9, 0.0, 2022-04-22 17:59:39.929
78.0, -35.81702187564224, -31.478737927041948, -31.901346622034907, -32.009803720749915, 0.3680000174790621, 0.0800000037997961, 0.944000044837594, 0.0, 0.0, 0.0, 0.0, 0.0, 1.6506683799455423E9, 0.0, 2022-04-22 17:59:39.945
78.0, -38.72666404116899, -38.52470944356173, -41.55402840767056, -34.003170397132635, 0.3680000174790621, 0.0800000037997961, 0.944000044837594, 0.0, 0.0, 0.0, 0.0, 0.0, 1.6506683799455423E9, 0.0, 2022-04-22 17:59:39.945
79.0, -39.613020330667496, -44.98725656699389, -38.61446704249829, -41.88313960377127, 0.3680000174790621, 0.0800000037997961, 0.944000044837594, 0.0, 0.0, 0.0, 0.0, 0.0, 1.650668379946319E9, 0.0, 2022-04-22 17:59:39.946
79.0, -31.104747931472957, -37.90014615096152, -37.71315115317702, -19.30162367131561, 0.3680000174790621, 0.0800000037997961, 0.944000044837594, 0.0, 0.0, 0.0, 0.0, 0.0, 1.650668379946319E9, 0.0, 2022-04-22 17:59:39.946
80.0, -37.08110806066543, -26.706625583581626, -28.000630968250334, -61.45029617194086, 0.3680000174790621, 0.0800000037997961, 0.944000044837594, 0.0, 0.0, 0.0, 0.0, 0.0, 1.6506683799598968E9, 0.0, 2022-04-22 17:59:39.959
80.0, -19.507318168878555, -14.394874929450452, -30.816775634884834, 5.306918037123978, 0.3680000174790621, 0.0800000037997961, 0.944000044837594, 0.0, 0.0, 0.0, 0.0, 0.0, 1.6506683799598968E9, 0.0, 2022-04-22 17:59:39.959
81.0, -44.32529427483678, -41.88687950372696, -39.620500130578876, -62.70690255705267, 0.3680000174790621, 0.09600000455975533, 0.944000044837594, 0.0, 0.0, 0.0, 0.0, 0.0, 1.6506683799755056E9, 0.0, 2022-04-22 17:59:39.975
81.0, -29.7920430470258, -40.35726042184979, -27.36110807582736, -29.664886448532343, 0.3680000174790621, 0.09600000455975533, 0.944000044837594, 0.0, 0.0, 0.0, 0.0, 0.0, 1.6506683799755056E9, 0.0, 2022-04-22 17:59:39.975
82.0, -32.24167751800269, -26.52337048575282, -34.14528659544885, -31.243124229833484, 0.3680000174790621, 0.09600000455975533, 0.944000044837594, 0.0, 0.0, 0.0, 0.0, 0.0, 1.6506683799762483E9, 0.0, 2022-04-22 17:59:39.976
82.0, -31.81906882300973, -22.701192731037736, -30.326848740689456, -23.595028820447624, 0.3680000174790621, 0.09600000455975533, 0.944000044837594, 0.0, 0.0, 0.0, 0.0, 0.0, 1.6506683799762483E9, 0.0, 2022-04-22 17:59:39.976
83.0, -30.95141203328967, -29.32829545252025, -25.74547129496932, -17.977699087001383, 0.3680000174790621, 0.09600000455975533, 0.944000044837594, 0.0, 0.0, 0.0, 0.0, 0.0, 1.6506683799899478E9, 0.0, 2022-04-22 17:59:39.989
83.0, -18.232012283988297, -24.20089261326939, -24.268210812471807, -2.7189072677865624, 0.3680000174790621, 0.09600000455975533, 0.944000044837594, 0.0, 0.0, 0.0, 0.0, 0.0, 1.6506683799899478E9, 0.0, 2022-04-22 17:59:39.989
84.0, -34.23504419438541, -26.429872986860573, -26.070842591114342, -37.40647935681045, 0.3680000174790621, 0.09600000455975533, 0.944000044837594, 0.0, 0.0, 0.0, 0.0, 0.0, 1.6506683800056152E9, 0.0, 2022-04-22 17:59:40.005
84.0, -35.93295877426863, -33.31502880528569, -30.753197335638106, -45.249049563892186, 0.3680000174790621, 0.09600000455975533, 0.944000044837594, 0.0, 0.0, 0.0, 0.0, 0.0, 1.6506683800056152E9, 0.0, 2022-04-22 17:59:40.005
85.0, -33.76007690001279, -41.45305110886693, -39.16049243602902, -38.25543664675206, 0.3680000174790621, 0.09600000455975533, 0.944000044837594, 0.0, 0.0, 0.0, 0.0, 0.0, 1.650668380006379E9, 0.0, 2022-04-22 17:59:40.006
85.0, -33.11307420767844, -38.479830644093454, -36.08255477249622, -19.989765263162553, 0.3680000174790621, 0.09600000455975533, 0.944000044837594, 0.0, 0.0, 0.0, 0.0, 0.0, 1.650668380006379E9, 0.0, 2022-04-22 17:59:40.006
86.0, -22.387041134759784, -14.86610232386738, -22.757291230373085, -6.585963821969926, 0.3680000174790621, 0.09600000455975533, 0.944000044837594, 0.0, 0.0, 0.0, 0.0, 0.0, 1.650668380019912E9, 0.0, 2022-04-22 17:59:40.019
86.0, -22.94428622815758, -24.97879180405289, -29.231058053672314, -24.391627511009574, 0.3680000174790621, 0.09600000455975533, 0.944000044837594, 0.0, 0.0, 0.0, 0.0, 0.0, 1.650668380019912E9, 0.0, 2022-04-22 17:59:40.019
87.0, -30.296929541043937, -46.40841855015606, -28.449418962933123, -19.537237368524075, 0.3680000174790621, 0.09600000455975533, 0.944000044837594, 0.0, 0.0, 0.0, 0.0, 0.0, 1.650668380035532E9, 0.0, 2022-04-22 17:59:40.035
87.0, -37.7954289522022, -49.52375521324575, -37.241923758760095, -47.21249704062939, 0.3680000174790621, 0.09600000455975533, 0.944000044837594, 0.0, 0.0, 0.0, 0.0, 0.0, 1.650668380035532E9, 0.0, 2022-04-22 17:59:40.035
88.0, -42.78819539304823, -46.068087654188275, -33.92837239801884, -47.88567903265357, 0.3680000174790621, 0.09600000455975533, 0.944000044837594, 0.0, 0.0, 0.0, 0.0, 0.0, 1.6506683800363295E9, 0.0, 2022-04-22 17:59:40.036
88.0, -48.99642931949347, -66.96290870662779, -47.302254639565945, -38.064701749011874, 0.3680000174790621, 0.09600000455975533, 0.944000044837594, 0.0, 0.0, 0.0, 0.0, 0.0, 1.6506683800363295E9, 0.0, 2022-04-22 17:59:40.036
89.0, -48.59999992419034, -69.98848777078092, -47.95673713181168, -47.76600223407149, 0.3680000174790621, 0.09600000455975533, 0.944000044837594, 0.0, 0.0, 0.0, 0.0, 0.0, 1.650668380049853E9, 0.0, 2022-04-22 17:59:40.049
89.0, -29.949118845164776, -56.577206529676914, -40.21140432357788, -32.21923811826855, 0.3680000174790621, 0.09600000455975533, 0.944000044837594, 0.0, 0.0, 0.0, 0.0, 0.0, 1.650668380049853E9, 0.0, 2022-04-22 17:59:40.049
90.0, -44.25423617567867, -49.99498260766268, -41.52036930806935, -40.439538220874965, 0.3680000174790621, 0.09600000455975533, 0.944000044837594, 0.0, 0.0, 0.0, 0.0, 0.0, 1.6506683800655067E9, 0.0, 2022-04-22 17:59:40.065
90.0, -27.72761827148497, -30.659699836745858, -29.623747549019754, -24.406587110832334, 0.3680000174790621, 0.09600000455975533, 0.944000044837594, 0.0, 0.0, 0.0, 0.0, 0.0, 1.6506683800655067E9, 0.0, 2022-04-22 17:59:40.065
91.0, -20.9359599519521, -34.56041549053043, -31.72557132411748, -18.94259327556938, 0.3680000174790621, 0.09600000455975533, 0.944000044837594, 0.0, 0.0, 0.0, 0.0, 0.0, 1.65066838006627E9, 0.0, 2022-04-22 17:59:40.066
91.0, -36.841754463501275, -36.56126196682453, -24.20463251322508, -38.76780294068158, 0.3680000174790621, 0.09600000455975533, 0.944000044837594, 0.0, 0.0, 0.0, 0.0, 0.0, 1.65066838006627E9, 0.0, 2022-04-22 17:59:40.066
92.0, -55.27946124505252, -61.91030386649072, -40.899545915424824, -57.25786832161248, 0.3680000174790621, 0.09600000455975533, 0.944000044837594, 0.0, 0.0, 0.0, 0.0, 0.0, 1.650668380079954E9, 0.0, 2022-04-22 17:59:40.079
92.0, -35.8693804750219, -72.86821073666215, -36.060115372762084, -11.320677165873349, 0.3680000174790621, 0.09600000455975533, 0.944000044837594, 0.0, 0.0, 0.0, 0.0, 0.0, 1.650668380079954E9, 0.0, 2022-04-22 17:59:40.079
93.0, -65.03686022944748, -93.91262778732926, -47.81462093349546, -56.517368130385876, 0.3680000174790621, 0.09600000455975533, 0.944000044837594, 0.0, 0.0, 0.0, 0.0, 0.0, 1.6506683800955791E9, 0.0, 2022-04-22 17:59:40.095
93.0, -36.34060786943883, -48.869272721000016, -30.341808340512216, -17.951519787311554, 0.3680000174790621, 0.09600000455975533, 0.944000044837594, 0.0, 0.0, 0.0, 0.0, 0.0, 1.6506683800955791E9, 0.0, 2022-04-22 17:59:40.095
94.0, -23.32201612368226, -45.46222386136651, -11.432874164544046, 18.269411283545196, 0.3680000174790621, 0.09600000455975533, 0.944000044837594, 0.0, 0.0, 0.0, 0.0, 0.0, 1.650668380096347E9, 0.0, 2022-04-22 17:59:40.096
94.0, -59.19513649865985, -77.86471707746387, -39.3138283342123, -58.46959590725601, 0.3680000174790621, 0.09600000455975533, 0.944000044837594, 0.0, 0.0, 0.0, 0.0, 0.0, 1.650668380096347E9, 0.0, 2022-04-22 17:59:40.096
95.0, -54.924170749261975, -80.2208540495485, -33.80869559943676, -57.24664862174541, 0.3680000174790621, 0.09600000455975533, 0.944000044837594, 0.0, 0.0, 0.0, 0.0, 0.0, 1.6506683801098733E9, 0.0, 2022-04-22 17:59:40.109
95.0, -46.39719885028899, -80.8154981425032, -37.50371675565839, -33.80869559943676, 0.3680000174790621, 0.09600000455975533, 0.944000044837594, 0.0, 0.0, 0.0, 0.0, 0.0, 1.6506683801098733E9, 0.0, 2022-04-22 17:59:40.109
96.0, -61.379238072782755, -102.24138498865068, -60.23108878638595, -60.03661398869008, 0.3680000174790621, 0.09600000455975533, 0.944000044837594, 0.0, 0.0, 0.0, 0.0, 0.0, 1.65066838012551E9, 0.0, 2022-04-22 17:59:40.125
96.0, -53.25991526897997, -96.62779515516013, -50.20441700518131, -42.35810689814389, 0.3680000174790621, 0.09600000455975533, 0.944000044837594, 0.0, 0.0, 0.0, 0.0, 0.0, 1.65066838012551E9, 0.0, 2022-04-22 17:59:40.125
97.0, -40.70133121777326, -68.64212378673255, -34.75115038827062, -33.258930305950344, 0.3680000174790621, 0.09600000455975533, 0.944000044837594, 0.0, 0.0, 0.0, 0.0, 0.0, 1.6506683801262698E9, 0.0, 2022-04-22 17:59:40.126
97.0, -38.461131144315004, -71.01322035863996, -40.102947224862874, -16.384501705877483, 0.3680000174790621, 0.09600000455975533, 0.944000044837594, 0.0, 0.0, 0.0, 0.0, 0.0, 1.6506683801262698E9, 0.0, 2022-04-22 17:59:40.126
98.0, -43.629672883078456, -81.71681403182447, -49.19838391710073, 6.02497882861644, 0.3680000174790621, 0.09600000455975533, 0.944000044837594, 0.0, 0.0, 0.0, 0.0, 0.0, 1.650668380139949E9, 0.0, 2022-04-22 17:59:40.139
98.0, -49.18342431727797, -75.19442850910127, -35.06904188450426, -37.174605559557676, 0.3680000174790621, 0.09600000455975533, 0.944000044837594, 0.0, 0.0, 0.0, 0.0, 0.0, 1.650668380139949E9, 0.0, 2022-04-22 17:59:40.139
99.0, -54.082693259231746, -89.90345503482968, -46.105486653745174, -92.85049619991332, 0.3680000174790621, 0.09600000455975533, 0.944000044837594, 0.0, 0.0, 0.0, 0.0, 0.0, 1.6506683801556005E9, 0.0, 2022-04-22 17:59:40.155
99.0, -44.27293567545712, -62.76300105638802, -29.941639045253396, -57.53462091833353, 0.3680000174790621, 0.09600000455975533, 0.944000044837594, 0.0, 0.0, 0.0, 0.0, 0.0, 1.6506683801556005E9, 0.0, 2022-04-22 17:59:40.155
100.0, -30.835475134663284, -48.27088872808963, -18.792997277341783, -23.942839516326785, 0.3680000174790621, 0.09600000455975533, 0.944000044837594, 0.0, 0.0, 0.0, 0.0, 0.0, 1.6506683801562295E9, 0.0, 2022-04-22 17:59:40.156
100.0, -45.51832236070186, -63.30154665000737, -39.16049243602902, -27.76501727104187, 0.3680000174790621, 0.09600000455975533, 0.944000044837594, 0.0, 0.0, 0.0, 0.0, 0.0, 1.6506683801562295E9, 0.0, 2022-04-22 17:59:40.156
0.0, -101.3643784490414, -232.08510160027072, -122.53969199815765, -45.063924516085535, 0.3680000174790621, 0.09600000455975533, 0.944000044837594, 0.0, 0.0, 0.0, 0.0, 0.0, 1.6506683801706123E9, 0.0, 2022-04-22 17:59:40.170
1.0, -105.24639460304752, -245.63475913973525, -124.36850307649001, -73.30016918154433, 0.3680000174790621, 0.11200000531971455, 0.944000044837594, 0.0, 0.0, 0.0, 0.0, 0.0, 1.6506683801713595E9, 0.0, 2022-04-22 17:59:40.171
1.0, -105.01826070575044, -226.56126936571673, -116.69048846745864, -41.54841855773702, 0.3680000174790621, 0.11200000531971455, 0.944000044837594, 0.0, 0.0, 0.0, 0.0, 0.0, 1.6506683801713595E9, 0.0, 2022-04-22 17:59:40.171
2.0, -109.87265084823593, -225.62629437679425, -125.95422065770254, -98.05082708830014, 0.3680000174790621, 0.11200000531971455, 0.944000044837594, 0.0, 0.0, 0.0, 0.0, 0.0, 1.650668380184848E9, 0.0, 2022-04-22 17:59:40.184
2.0, -116.49975356971845, -242.538121976424, -128.8975219228305, -86.70397062273696, 0.3680000174790621, 0.11200000531971455, 0.944000044837594, 0.0, 0.0, 0.0, 0.0, 0.0, 1.650668380184848E9, 0.0, 2022-04-22 17:59:40.184
3.0, -107.94660237105563, -233.2444705865346, -118.25002674898133, -70.46906491508707, 0.3680000174790621, 0.11200000531971455, 0.944000044837594, 0.0, 0.0, 0.0, 0.0, 0.0, 1.6506683802005703E9, 0.0, 2022-04-22 17:59:40.200
3.0, -100.25736806215718, -213.29584422288463, -106.03551349369809, -46.94135429384187, 0.3680000174790621, 0.11200000531971455, 0.944000044837594, 0.0, 0.0, 0.0, 0.0, 0.0, 1.6506683802005703E9, 0.0, 2022-04-22 17:59:40.200
4.0, -111.70894172647968, -241.1356594930403, -125.07160426815972, -51.571350438985974, 0.3680000174790621, 0.11200000531971455, 0.944000044837594, 0.0, 0.0, 0.0, 0.0, 0.0, 1.6506683802013137E9, 0.0, 2022-04-22 17:59:40.201
4.0, -103.52978052338585, -235.45101156039163, -117.5581452571787, -61.36614842293784, 0.3680000174790621, 0.11200000531971455, 0.944000044837594, 0.0, 0.0, 0.0, 0.0, 0.0, 1.6506683802013137E9, 0.0, 2022-04-22 17:59:40.201
5.0, -104.95094250654802, -238.26341632707044, -122.90994209377095, -45.7445863080211, 0.3680000174790621, 0.11200000531971455, 0.944000044837594, 0.0, 0.0, 0.0, 0.0, 0.0, 1.650668380214902E9, 0.0, 2022-04-22 17:59:40.214
5.0, -121.17088861437514, -249.41205809498206, -126.72837994853035, -55.74507878953591, 0.3680000174790621, 0.11200000531971455, 0.944000044837594, 0.0, 0.0, 0.0, 0.0, 0.0, 1.650668380214902E9, 0.0, 2022-04-22 17:59:40.214
6.0, -127.25570584228262, -250.40313158323988, -124.79485167143866, -77.18966513546184, 0.3680000174790621, 0.11200000531971455, 0.944000044837594, 0.0, 0.0, 0.0, 0.0, 0.0, 1.6506683802305627E9, 0.0, 2022-04-22 17:59:40.230
6.0, -118.81101174233481, -238.62618662277237, -114.20719489688054, -89.23962279269472, 0.3680000174790621, 0.11200000531971455, 0.944000044837594, 0.0, 0.0, 0.0, 0.0, 0.0, 1.6506683802305627E9, 0.0, 2022-04-22 17:59:40.230
7.0, -101.4354365481995, -230.83971491502598, -104.97712180623785, -57.33453627070412, 0.3680000174790621, 0.11200000531971455, 0.944000044837594, 0.0, 0.0, 0.0, 0.0, 0.0, 1.650668380231315E9, 0.0, 2022-04-22 17:59:40.231
7.0, -97.56464009406045, -206.2311732065864, -90.98241617204621, -29.805132696870714, 0.3680000174790621, 0.11200000531971455, 0.944000044837594, 0.0, 0.0, 0.0, 0.0, 0.0, 1.650668380231315E9, 0.0, 2022-04-22 17:59:40.231
8.0, -121.87398980604485, -229.44473223155364, -114.10247769812122, -59.30920344730839, 0.3680000174790621, 0.11200000531971455, 0.944000044837594, 0.0, 0.0, 0.0, 0.0, 0.0, 1.6506683802449942E9, 0.0, 2022-04-22 17:59:40.244
8.0, -113.50783360516652, -240.62703309906647, -116.7054480672814, -67.6417005485855, 0.3680000174790621, 0.11200000531971455, 0.944000044837594, 0.0, 0.0, 0.0, 0.0, 0.0, 1.6506683802449942E9, 0.0, 2022-04-22 17:59:40.244
9.0, -107.66984977433458, -238.36439362587407, -113.64620990352705, -66.36265476373956, 0.3680000174790621, 0.11200000531971455, 0.944000044837594, 0.0, 0.0, 0.0, 0.0, 0.0, 1.650668380260606E9, 0.0, 2022-04-22 17:59:40.260
9.0, -129.07329722074792, -234.44123857235536, -114.82053848961368, -69.55652932589874, 0.3680000174790621, 0.11200000531971455, 0.944000044837594, 0.0, 0.0, 0.0, 0.0, 0.0, 1.650668380260606E9, 0.0, 2022-04-22 17:59:40.260
10.0, -134.5298112560995, -248.97822970012203, -120.94649461703375, -47.895028782542795, 0.3680000174790621, 0.11200000531971455, 0.944000044837594, 0.0, 0.0, 0.0, 0.0, 0.0, 1.650668380261336E9, 0.0, 2022-04-22 17:59:40.261
10.0, -123.31011138902977, -232.54510929482058, -119.37573663564399, -84.08230075379834, 0.3680000174790621, 0.11200000531971455, 0.944000044837594, 0.0, 0.0, 0.0, 0.0, 0.0, 1.650668380261336E9, 0.0, 2022-04-22 17:59:40.261
11.0, -131.5229316917248, -256.8469792068936, -134.57095015561208, -83.2408232637681, 0.3680000174790621, 0.12800000607967377, 0.944000044837594, 0.0, 0.0, 0.0, 0.0, 0.0, 1.6506683802749765E9, 0.0, 2022-04-22 17:59:40.274
11.0, -113.30213910760358, -234.81896846788004, -115.46754118194804, -50.89068864705041, 0.3680000174790621, 0.12800000607967377, 0.944000044837594, 0.0, 0.0, 0.0, 0.0, 0.0, 1.6506683802749765E9, 0.0, 2022-04-22 17:59:40.274
12.0, -107.42675627721474, -245.34304694319144, -118.02937265159562, -38.90804918901995, 0.3680000174790621, 0.12800000607967377, 0.944000044837594, 0.0, 0.0, 0.0, 0.0, 0.0, 1.6506683802905667E9, 0.0, 2022-04-22 17:59:40.290
12.0, -116.62317026825622, -243.44317776570097, -120.76697941916063, -77.58609453076497, 0.3680000174790621, 0.12800000607967377, 0.944000044837594, 0.0, 0.0, 0.0, 0.0, 0.0, 1.6506683802905667E9, 0.0, 2022-04-22 17:59:40.290
13.0, -112.3335050190799, -246.53607502905652, -128.44125412823632, -84.97987674316391, 0.3680000174790621, 0.12800000607967377, 0.944000044837594, 0.0, 0.0, 0.0, 0.0, 0.0, 1.6506683802913263E9, 0.0, 2022-04-22 17:59:40.291
13.0, -96.52868780633435, -246.23314313264564, -126.25341265415773, -48.82626387150958, 0.3680000174790621, 0.12800000607967377, 0.944000044837594, 0.0, 0.0, 0.0, 0.0, 0.0, 1.6506683802913263E9, 0.0, 2022-04-22 17:59:40.291
14.0, -104.52833381155506, -242.96821047132835, -118.96808754047379, -56.96428617509082, 0.3680000174790621, 0.12800000607967377, 0.944000044837594, 0.0, 0.0, 0.0, 0.0, 0.0, 1.650668380304878E9, 0.0, 2022-04-22 17:59:40.304
14.0, -115.33664468349889, -239.5761212115176, -120.58372432133183, -90.12597908219323, 0.3680000174790621, 0.12800000607967377, 0.944000044837594, 0.0, 0.0, 0.0, 0.0, 0.0, 1.650668380304878E9, 0.0, 2022-04-22 17:59:40.304
15.0, -88.12139270594344, -218.46438596164808, -96.9924354008399, -47.71925348462537, 0.3680000174790621, 0.12800000607967377, 0.944000044837594, 0.0, 0.0, 0.0, 0.0, 0.0, 1.6506683803205912E9, 0.0, 2022-04-22 17:59:40.320
15.0, -97.92741038976237, -218.11657526576892, -111.87723722448573, -54.20424000779167, 0.3680000174790621, 0.12800000607967377, 0.944000044837594, 0.0, 0.0, 0.0, 0.0, 0.0, 1.6506683803205912E9, 0.0, 2022-04-22 17:59:40.320
16.0, -104.26280091470107, -217.81738326931372, -108.46644846489653, -66.05598296737298, 0.3680000174790621, 0.12800000607967377, 0.944000044837594, 0.0, 0.0, 0.0, 0.0, 0.0, 1.6506683803213017E9, 0.0, 2022-04-22 17:59:40.321
16.0, -116.92236226471141, -256.2485952139832, -131.4182144929655, -78.62204681849107, 0.3680000174790621, 0.12800000607967377, 0.944000044837594, 0.0, 0.0, 0.0, 0.0, 0.0, 1.6506683803213017E9, 0.0, 2022-04-22 17:59:40.321
17.0, -111.05071933427826, -239.47514391271397, -125.95422065770254, -60.719145730603486, 0.3680000174790621, 0.12800000607967377, 0.944000044837594, 0.0, 0.0, 0.0, 0.0, 0.0, 1.6506683803349092E9, 0.0, 2022-04-22 17:59:40.334
17.0, -107.90546347154304, -240.982323594857, -127.1173295439221, -20.440423207823187, 0.3680000174790621, 0.12800000607967377, 0.944000044837594, 0.0, 0.0, 0.0, 0.0, 0.0, 1.6506683803349092E9, 0.0, 2022-04-22 17:59:40.334
18.0, -105.807379596401, -227.54112315410748, -118.07051155110821, -77.6085339304991, 0.3680000174790621, 0.12800000607967377, 0.944000044837594, 0.0, 0.0, 0.0, 0.0, 0.0, 1.650668380350609E9, 0.0, 2022-04-22 17:59:40.350
18.0, -113.41433610627428, -225.92174647329375, -120.2246939255856, -87.7249633106403, 0.3680000174790621, 0.12800000607967377, 0.944000044837594, 0.0, 0.0, 0.0, 0.0, 0.0, 1.650668380350609E9, 0.0, 2022-04-22 17:59:40.350
19.0, -110.58323183981702, -238.28959562676027, -122.06098480382934, -76.39306644489989, 0.3680000174790621, 0.12800000607967377, 0.944000044837594, 0.0, 0.0, 0.0, 0.0, 0.0, 1.6506683803512945E9, 0.0, 2022-04-22 17:59:40.351
19.0, -96.07989981165156, -208.40031518088654, -96.02006141236052, -45.25839931378141, 0.3680000174790621, 0.12800000607967377, 0.944000044837594, 0.0, 0.0, 0.0, 0.0, 0.0, 1.6506683803512945E9, 0.0, 2022-04-22 17:59:40.351
20.0, -101.85430534323677, -208.0076256855391, -106.19258929183707, -61.224032224621624, 0.3680000174790621, 0.12800000607967377, 0.944000044837594, 0.0, 0.0, 0.0, 0.0, 0.0, 1.6506683803648481E9, 0.0, 2022-04-22 17:59:40.364
20.0, -93.83595983823761, -225.15506698237732, -104.5507732112892, -22.837699079420418, 0.3680000174790621, 0.12800000607967377, 0.944000044837594, 0.0, 0.0, 0.0, 0.0, 0.0, 1.6506683803648481E9, 0.0, 2022-04-22 17:59:40.364
21.0, -121.28682551300153, -235.04710236517712, -121.76179280737415, -96.85031920252368, 0.3680000174790621, 0.1600000075995922, 0.944000044837594, 0.0, 0.0, 0.0, 0.0, 0.0, 1.650668380380542E9, 0.0, 2022-04-22 17:59:40.380
21.0, -107.5165138761513, -211.97939943848178, -121.47756041074172, -75.77224305225536, 0.3680000174790621, 0.1600000075995922, 0.944000044837594, 0.0, 0.0, 0.0, 0.0, 0.0, 1.650668380380542E9, 0.0, 2022-04-22 17:59:40.380
22.0, -108.78060006117448, -232.829341691453, -126.11877625575289, -61.32126962346956, 0.3840000182390213, 0.1600000075995922, 0.944000044837594, 0.0, 0.0, 0.0, 0.0, 0.0, 1.6506683803812828E9, 0.0, 2022-04-22 17:59:40.381
22.0, -113.50783360516652, -231.25484381010756, -124.76867237174883, -64.15611378988251, 0.3840000182390213, 0.1600000075995922, 0.944000044837594, 0.0, 0.0, 0.0, 0.0, 0.0, 1.6506683803812828E9, 0.0, 2022-04-22 17:59:40.381
23.0, -96.87649850221351, -207.05395119683817, -110.6655096388422, -32.965348159428686, 0.3840000182390213, 0.1600000075995922, 0.944000044837594, 0.0, 0.0, 0.0, 0.0, 0.0, 1.6506683803949232E9, 0.0, 2022-04-22 17:59:40.394
23.0, -94.73353582760319, -219.36196195101365, -116.7054480672814, -20.38806460844353, 0.3840000182390213, 0.1600000075995922, 0.944000044837594, 0.0, 0.0, 0.0, 0.0, 0.0, 1.6506683803949232E9, 0.0, 2022-04-22 17:59:40.394
24.0, -95.94152351329103, -215.22563260002062, -117.4085492589511, -76.63989984197542, 0.3840000182390213, 0.1600000075995922, 0.944000044837594, 0.0, 0.0, 0.0, 0.0, 0.0, 1.6506683804103005E9, 0.0, 2022-04-22 17:59:40.410
24.0, -113.38815680658445, -221.77045752247795, -114.53256619302556, -70.59248161362484, 0.3840000182390213, 0.1600000075995922, 0.944000044837594, 0.0, 0.0, 0.0, 0.0, 0.0, 1.6506683804103005E9, 0.0, 2022-04-22 17:59:40.410
25.0, -103.54474012320861, -232.48901079548523, -126.43292785203084, -25.777260444592685, 0.3840000182390213, 0.1600000075995922, 0.944000044837594, 0.0, 0.0, 0.0, 0.0, 0.0, 1.6506683804420455E9, 0.0, 2022-04-22 17:59:40.442
25.0, -128.66564812557772, -248.58928010473028, -135.68170044245198, -103.82897251984105, 0.3840000182390213, 0.1600000075995922, 0.944000044837594, 0.0, 0.0, 0.0, 0.0, 0.0, 1.6506683804420455E9, 0.0, 2022-04-22 17:59:40.442
26.0, -116.91862236475572, -220.61482843616977, -123.20913409022614, -70.7906963112764, 0.3840000182390213, 0.1600000075995922, 0.944000044837594, 0.0, 0.0, 0.0, 0.0, 0.0, 1.6506683804426978E9, 0.0, 2022-04-22 17:59:40.442
26.0, -119.2224007374607, -229.72896462818608, -129.13687551999465, -62.51055780937895, 0.3840000182390213, 0.1600000075995922, 0.944000044837594, 0.0, 0.0, 0.0, 0.0, 0.0, 1.6506683804426978E9, 0.0, 2022-04-22 17:59:40.442
27.0, -129.83997671166435, -253.42497074743733, -143.2325584529899, -74.58295486634597, 0.3840000182390213, 0.1600000075995922, 0.944000044837594, 0.0, 0.0, 0.0, 0.0, 0.0, 1.6506683804434664E9, 0.0, 2022-04-22 17:59:40.443
27.0, -117.87977665336803, -232.95649828994647, -126.76951884804294, -75.61516725411639, 0.3840000182390213, 0.1600000075995922, 0.944000044837594, 0.0, 0.0, 0.0, 0.0, 0.0, 1.6506683804434664E9, 0.0, 2022-04-22 17:59:40.443
28.0, -95.36931882007048, -209.34650986967608, -110.14940344495699, -36.08816462242976, 0.3840000182390213, 0.1600000075995922, 0.944000044837594, 0.0, 0.0, 0.0, 0.0, 0.0, 1.6506683804441457E9, 0.0, 2022-04-22 17:59:40.444
28.0, -100.18630996299908, -230.465724919457, -133.95760656287894, -38.15258939797059, 0.3840000182390213, 0.1600000075995922, 0.944000044837594, 0.0, 0.0, 0.0, 0.0, 0.0, 1.6506683804441457E9, 0.0, 2022-04-22 17:59:40.444
29.0, -117.47586745815352, -236.50940324785188, -136.50073853274807, -92.96830304851755, 0.3840000182390213, 0.1600000075995922, 0.944000044837594, 0.0, 0.0, 0.0, 0.0, 0.0, 1.6506683804549923E9, 0.0, 2022-04-22 17:59:40.454
29.0, -118.75117334304377, -234.06350867683068, -133.66589436633512, -88.74595599854365, 0.3840000182390213, 0.1600000075995922, 0.944000044837594, 0.0, 0.0, 0.0, 0.0, 0.0, 1.6506683804549923E9, 0.0, 2022-04-22 17:59:40.454
30.0, -109.292966355104, -236.00077685387805, -123.09319719159976, -66.92363975709304, 0.3840000182390213, 0.1600000075995922, 0.944000044837594, 0.0, 0.0, 0.0, 0.0, 0.0, 1.65066838047059E9, 0.0, 2022-04-22 17:59:40.470
30.0, -95.83680631453171, -219.11138865398243, -109.53605985222384, -65.24068477703258, 0.3840000182390213, 0.1600000075995922, 0.944000044837594, 0.0, 0.0, 0.0, 0.0, 0.0, 1.65066838047059E9, 0.0, 2022-04-22 17:59:40.470
31.0, -117.4085492589511, -219.5713963485323, -123.10815679142252, -78.6856251177378, 0.3840000182390213, 0.17600000835955143, 0.944000044837594, 0.0, 0.0, 0.0, 0.0, 0.0, 1.650668380471507E9, 0.0, 2022-04-22 17:59:40.471
31.0, -107.6249709748663, -231.4567984077148, -131.9679797864519, -66.06346276728436, 0.3840000182390213, 0.17600000835955143, 0.944000044837594, 0.0, 0.0, 0.0, 0.0, 0.0, 1.650668380471507E9, 0.0, 2022-04-22 17:59:40.471
32.0, -110.740307637956, -227.52242365432903, -126.52642535092309, -69.47051162691787, 0.4000000189989805, 0.17600000835955143, 0.944000044837594, 0.0, 0.0, 0.0, 0.0, 0.0, 1.6506683804848456E9, 0.0, 2022-04-22 17:59:40.484
32.0, -103.88881091913208, -216.42614048579708, -109.32288555474952, -56.2686647833325, 0.4000000189989805, 0.17600000835955143, 0.944000044837594, 0.0, 0.0, 0.0, 0.0, 0.0, 1.6506683804848456E9, 0.0, 2022-04-22 17:59:40.484
33.0, -105.2912734025158, -213.25844522332773, -118.56417834525928, -58.66594065492973, 0.4000000189989805, 0.17600000835955143, 0.944000044837594, 0.0, 0.0, 0.0, 0.0, 0.0, 1.6506683805005465E9, 0.0, 2022-04-22 17:59:40.500
33.0, -106.7012156858109, -225.13636748259887, -124.66395517298952, -37.045579011086375, 0.4000000189989805, 0.17600000835955143, 0.944000044837594, 0.0, 0.0, 0.0, 0.0, 0.0, 1.6506683805005465E9, 0.0, 2022-04-22 17:59:40.500
34.0, -93.84717953810468, -219.7135125468485, -123.669141784776, -51.61996913840994, 0.4000000189989805, 0.17600000835955143, 0.944000044837594, 0.0, 0.0, 0.0, 0.0, 0.0, 1.6506683805012562E9, 0.0, 2022-04-22 17:59:40.501
34.0, -127.94758733408526, -242.4670638772659, -149.03314328426495, -90.83656007377431, 0.4000000189989805, 0.17600000835955143, 0.944000044837594, 0.0, 0.0, 0.0, 0.0, 0.0, 1.6506683805012562E9, 0.0, 2022-04-22 17:59:40.501
35.0, -116.92236226471141, -229.19415893452242, -131.7809847886674, -68.91326653352007, 0.4000000189989805, 0.17600000835955143, 0.944000044837594, 0.0, 0.0, 0.0, 0.0, 0.0, 1.6506683805148757E9, 0.0, 2022-04-22 17:59:40.514
35.0, -102.16845693951473, -219.7172524468042, -130.98812599806115, -58.68838005466387, 0.4000000189989805, 0.17600000835955143, 0.944000044837594, 0.0, 0.0, 0.0, 0.0, 0.0, 1.6506683805148757E9, 0.0, 2022-04-22 17:59:40.514
36.0, -111.17039613286033, -220.0127045433037, -121.97496710484847, -38.70983449136838, 0.4000000189989805, 0.17600000835955143, 0.944000044837594, 0.0, 0.0, 0.0, 0.0, 0.0, 1.650668380546986E9, 0.0, 2022-04-22 17:59:40.546
36.0, -114.03141959896311, -224.55294308951125, -128.9349209223874, -73.22163128247485, 0.4000000189989805, 0.17600000835955143, 0.944000044837594, 0.0, 0.0, 0.0, 0.0, 0.0, 1.650668380546986E9, 0.0, 2022-04-22 17:59:40.546
37.0, -124.91452847002074, -241.90607888391241, -136.72887243004516, -87.88951890869066, 0.4000000189989805, 0.17600000835955143, 0.944000044837594, 0.0, 0.0, 0.0, 0.0, 0.0, 1.6506683805476012E9, 0.0, 2022-04-22 17:59:40.547
37.0, -120.23591362545267, -226.26581726921722, -120.4827470225282, -73.41236618021503, 0.4000000189989805, 0.17600000835955143, 0.944000044837594, 0.0, 0.0, 0.0, 0.0, 0.0, 1.6506683805476012E9, 0.0, 2022-04-22 17:59:40.547
38.0, -108.44774896511808, -212.70120012992993, -120.84551731823012, -56.8969679758884, 0.4000000189989805, 0.17600000835955143, 0.944000044837594, 0.0, 0.0, 0.0, 0.0, 0.0, 1.650668380548355E9, 0.0, 2022-04-22 17:59:40.548
38.0, -105.40721030114219, -227.26437055738643, -122.15448230272159, -53.61333581479266, 0.4000000189989805, 0.17600000835955143, 0.944000044837594, 0.0, 0.0, 0.0, 0.0, 0.0, 1.650668380548355E9, 0.0, 2022-04-22 17:59:40.548
39.0, -100.86697175493464, -226.18727937014773, -117.77131955465302, -38.32462479593232, 0.4000000189989805, 0.17600000835955143, 0.944000044837594, 0.0, 0.0, 0.0, 0.0, 0.0, 1.650668380549135E9, 0.0, 2022-04-22 17:59:40.549
39.0, -105.9233164950274, -225.66369337635115, -122.65562889678404, -98.27896098559722, 0.4000000189989805, 0.17600000835955143, 0.944000044837594, 0.0, 0.0, 0.0, 0.0, 0.0, 1.650668380549135E9, 0.0, 2022-04-22 17:59:40.549
40.0, -98.93344347784296, -226.28825666895136, -116.52967276936397, -56.2686647833325, 0.4000000189989805, 0.17600000835955143, 0.9280000440776348, 0.0, 0.0, 0.0, 0.0, 0.0, 1.6506683805599377E9, 0.0, 2022-04-22 17:59:40.559
40.0, -78.45001142052934, -195.06009203894064, -101.98520184168592, -48.75894567230716, 0.4000000189989805, 0.17600000835955143, 0.9280000440776348, 0.0, 0.0, 0.0, 0.0, 0.0, 1.6506683805599377E9, 0.0, 2022-04-22 17:59:40.559
41.0, -103.52230072347447, -216.11198888951913, -114.67468239134178, -86.61047312384471, 0.4000000189989805, -0.04800000227987766, 0.9280000440776348, 0.0, 0.0, 0.0, 0.0, 0.0, 1.6506683805749729E9, 0.0, 2022-04-22 17:59:40.574
41.0, -100.9567293538712, -224.98677148437127, -105.69518259773031, -72.24177749408409, 0.4000000189989805, -0.04800000227987766, 0.9280000440776348, 0.0, 0.0, 0.0, 0.0, 0.0, 1.6506683805749729E9, 0.0, 2022-04-22 17:59:40.574
42.0, -91.82389366207644, -240.30914160283282, -117.12057696236297, -75.69370515318587, 0.288000013679266, -0.04800000227987766, 0.9280000440776348, 0.0, 0.0, 0.0, 0.0, 0.0, 1.6506683805905645E9, 0.0, 2022-04-22 17:59:40.590
42.0, -96.96625610115007, -228.7229315401055, -117.94335495261475, -59.77669094176963, 0.288000013679266, -0.04800000227987766, 0.9280000440776348, 0.0, 0.0, 0.0, 0.0, 0.0, 1.6506683805905645E9, 0.0, 2022-04-22 17:59:40.590
43.0, -81.22127728769556, -209.1931739714928, -108.5898651634343, -40.52368596987799, 0.288000013679266, -0.04800000227987766, 0.9280000440776348, 0.0, 0.0, 0.0, 0.0, 0.0, 1.6506683805912976E9, 0.0, 2022-04-22 17:59:40.591
43.0, -77.67211222974584, -209.57464376697317, -110.42241614172235, -29.281546703074127, 0.288000013679266, -0.04800000227987766, 0.9280000440776348, 0.0, 0.0, 0.0, 0.0, 0.0, 1.6506683805912976E9, 0.0, 2022-04-22 17:59:40.591
44.0, -99.48320877132937, -218.8682951568626, -120.20599442580715, -62.84340890543535, 0.288000013679266, -0.04800000227987766, 0.9280000440776348, 0.0, 0.0, 0.0, 0.0, 0.0, 1.6506683806049411E9, 0.0, 2022-04-22 17:59:40.604
44.0, -94.84947272622958, -219.88180804485455, -114.12491709785536, -68.51309723826125, 0.288000013679266, -0.04800000227987766, 0.9280000440776348, 0.0, 0.0, 0.0, 0.0, 0.0, 1.6506683806049411E9, 0.0, 2022-04-22 17:59:40.604
45.0, -82.26470937533304, -214.17472071247175, -110.61315103946254, -35.7403539265506, 0.288000013679266, -0.04800000227987766, 0.9280000440776348, 0.0, 0.0, 0.0, 0.0, 0.0, 1.6506683806206357E9, 0.0, 2022-04-22 17:59:40.620
45.0, -124.70135417254642, -257.0601535043679, -143.460692350287, -118.67637534392998, 0.288000013679266, -0.04800000227987766, 0.9280000440776348, 0.0, 0.0, 0.0, 0.0, 0.0, 1.6506683806206357E9, 0.0, 2022-04-22 17:59:40.620
46.0, -108.05879936972633, -236.00825665378943, -131.02552499761805, -81.84958048025146, 0.288000013679266, -0.04800000227987766, 0.9280000440776348, 0.0, 0.0, 0.0, 0.0, 0.0, 1.6506683806214316E9, 0.0, 2022-04-22 17:59:40.621
46.0, -88.59636000031605, -221.81159642199054, -116.372596971225, -31.469388177152723, 0.288000013679266, -0.04800000227987766, 0.9280000440776348, 0.0, 0.0, 0.0, 0.0, 0.0, 1.6506683806214316E9, 0.0, 2022-04-22 17:59:40.621
47.0, -73.99953047325835, -212.1551747363992, -108.74694096157327, -78.50984981982037, 0.288000013679266, -0.04800000227987766, 0.9280000440776348, 0.0, 0.0, 0.0, 0.0, 0.0, 1.6506683806348972E9, 0.0, 2022-04-22 17:59:40.634
47.0, -91.78275476256385, -213.58381651947275, -113.18994210893288, -72.14827999519184, 0.288000013679266, -0.04800000227987766, 0.9280000440776348, 0.0, 0.0, 0.0, 0.0, 0.0, 1.6506683806348972E9, 0.0, 2022-04-22 17:59:40.634
48.0, -103.45498252427205, -234.5721350708045, -124.58541727392003, -69.89686022186652, 0.288000013679266, -0.04800000227987766, 0.9280000440776348, 0.0, 0.0, 0.0, 0.0, 0.0, 1.6506683806505497E9, 0.0, 2022-04-22 17:59:40.650
48.0, -66.92363975709304, -205.92076151026413, -106.9218697831966, -43.115436639171094, 0.288000013679266, -0.04800000227987766, 0.9280000440776348, 0.0, 0.0, 0.0, 0.0, 0.0, 1.6506683806505497E9, 0.0, 2022-04-22 17:59:40.650
49.0, -93.40587134333327, -218.7897572577931, -123.13059619115666, -59.997345039155334, 0.288000013679266, -0.04800000227987766, 0.9280000440776348, 0.0, 0.0, 0.0, 0.0, 0.0, 1.6506683806512797E9, 0.0, 2022-04-22 17:59:40.651
49.0, -75.81712185172364, -210.1505883601494, -112.08667162200436, -58.68464015470818, 0.288000013679266, -0.04800000227987766, 0.9280000440776348, 0.0, 0.0, 0.0, 0.0, 0.0, 1.6506683806512797E9, 0.0, 2022-04-22 17:59:40.651
50.0, -96.31177360890433, -239.4302651132457, -125.64380896138027, -49.31993066566065, 0.288000013679266, -0.04800000227987766, 1.0560000501573086, 0.0, 0.0, 0.0, 0.0, 0.0, 1.6506683806648672E9, 0.0, 2022-04-22 17:59:40.664
50.0, -75.15515955956653, -227.45136555517092, -118.43328184681013, -46.50752589898184, 0.288000013679266, -0.04800000227987766, 1.0560000501573086, 0.0, 0.0, 0.0, 0.0, 0.0, 1.6506683806648672E9, 0.0, 2022-04-22 17:59:40.664
51.0, -104.46101561235264, -225.4617387787439, -123.68036148464307, -114.28199289599434, 0.288000013679266, 0.03200000151991844, 1.0560000501573086, 0.0, 0.0, 0.0, 0.0, 0.0, 1.6506683806806188E9, 0.0, 2022-04-22 17:59:40.680
51.0, -103.69433612143621, -228.18064604653046, -119.67866853205487, -80.58923419518396, 0.288000013679266, 0.03200000151991844, 1.0560000501573086, 0.0, 0.0, 0.0, 0.0, 0.0, 1.6506683806806188E9, 0.0, 2022-04-22 17:59:40.680
52.0, -93.61156584089622, -231.36330090882257, -126.01405905699357, -51.4516736404039, 0.35200001671910286, 0.03200000151991844, 1.0560000501573086, 0.0, 0.0, 0.0, 0.0, 0.0, 1.650668380681314E9, 0.0, 2022-04-22 17:59:40.681
52.0, -102.6621237336658, -234.85636746743694, -124.8546900707297, -73.6853788769804, 0.35200001671910286, 0.03200000151991844, 1.0560000501573086, 0.0, 0.0, 0.0, 0.0, 0.0, 1.650668380681314E9, 0.0, 2022-04-22 17:59:40.681
53.0, -100.61265855794773, -233.43894538423046, -124.5966369737871, -68.95814533298835, 0.35200001671910286, 0.03200000151991844, 1.0560000501573086, 0.0, 0.0, 0.0, 0.0, 0.0, 1.6506683806949396E9, 0.0, 2022-04-22 17:59:40.694
53.0, -99.96191596565768, -232.85178109118715, -123.37742958823219, -65.47255857428536, 0.35200001671910286, 0.03200000151991844, 1.0560000501573086, 0.0, 0.0, 0.0, 0.0, 0.0, 1.6506683806949396E9, 0.0, 2022-04-22 17:59:40.694
54.0, -86.93210452003404, -213.61747561907396, -105.86721799569204, -52.708280025515705, 0.35200001671910286, 0.03200000151991844, 1.0560000501573086, 0.0, 0.0, 0.0, 0.0, 0.0, 1.650668380710549E9, 0.0, 2022-04-22 17:59:40.710
54.0, -100.01801446499303, -232.9826775896363, -125.45307406364009, -57.951619763392955, 0.35200001671910286, 0.03200000151991844, 1.0560000501573086, 0.0, 0.0, 0.0, 0.0, 0.0, 1.650668380710549E9, 0.0, 2022-04-22 17:59:40.710
55.0, -88.4654635018669, -215.6370215951465, -107.27342037903145, -49.24139276659116, 0.35200001671910286, 0.03200000151991844, 1.0560000501573086, 0.0, 0.0, 0.0, 0.0, 0.0, 1.6506683807112541E9, 0.0, 2022-04-22 17:59:40.711
55.0, -80.14792600041255, -216.03719089040533, -111.01706023467705, -54.86246239999309, 0.35200001671910286, 0.03200000151991844, 1.0560000501573086, 0.0, 0.0, 0.0, 0.0, 0.0, 1.6506683807112541E9, 0.0, 2022-04-22 17:59:40.711
56.0, -98.09196598781273, -229.88230052636936, -118.1116504506208, -74.67645236523822, 0.35200001671910286, 0.03200000151991844, 1.0560000501573086, 0.0, 0.0, 0.0, 0.0, 0.0, 1.6506683807248907E9, 0.0, 2022-04-22 17:59:40.724
56.0, -85.690457734745, -219.59009584831074, -110.22420144407079, -59.27928424766287, 0.35200001671910286, 0.03200000151991844, 1.0560000501573086, 0.0, 0.0, 0.0, 0.0, 0.0, 1.6506683807248907E9, 0.0, 2022-04-22 17:59:40.724
57.0, -66.25045776506886, -189.50634060474113, -92.86732574971393, -50.40824155276641, 0.35200001671910286, 0.03200000151991844, 1.0560000501573086, 0.0, 0.0, 0.0, 0.0, 0.0, 1.6506683807405949E9, 0.0, 2022-04-22 17:59:40.740
57.0, -89.08628689451143, -216.44110008561984, -109.94370894739404, -57.75340506574139, 0.35200001671910286, 0.03200000151991844, 1.0560000501573086, 0.0, 0.0, 0.0, 0.0, 0.0, 1.6506683807405949E9, 0.0, 2022-04-22 17:59:40.740
58.0, -110.11574434535578, -221.44508622633293, -115.2955057839863, -58.88659475231543, 0.35200001671910286, 0.03200000151991844, 1.0560000501573086, 0.0, 0.0, 0.0, 0.0, 0.0, 1.6506683807413833E9, 0.0, 2022-04-22 17:59:40.741
58.0, -107.75586747331545, -235.0882412646897, -115.28802598407492, -61.40354742249474, 0.35200001671910286, 0.03200000151991844, 1.0560000501573086, 0.0, 0.0, 0.0, 0.0, 0.0, 1.6506683807413833E9, 0.0, 2022-04-22 17:59:40.741
59.0, -114.28199289599434, -233.82415507966653, -112.10537112178281, -78.08724112482741, 0.35200001671910286, 0.03200000151991844, 1.0560000501573086, 0.0, 0.0, 0.0, 0.0, 0.0, 1.6506683807549853E9, 0.0, 2022-04-22 17:59:40.754
59.0, -110.73282783804461, -230.89207351440564, -107.09016528120264, -86.5057559250854, 0.35200001671910286, 0.03200000151991844, 1.0560000501573086, 0.0, 0.0, 0.0, 0.0, 0.0, 1.6506683807549853E9, 0.0, 2022-04-22 17:59:40.754
60.0, -121.62715640896931, -240.48491690075025, -119.64500943245366, -71.45639850338921, 0.35200001671910286, 0.03200000151991844, 0.9760000463575125, 0.0, 0.0, 0.0, 0.0, 0.0, 1.650668380770588E9, 0.0, 2022-04-22 17:59:40.770
60.0, -104.48719491204247, -236.47948404820636, -115.80039227800444, -56.50801838049665, 0.35200001671910286, 0.03200000151991844, 0.9760000463575125, 0.0, 0.0, 0.0, 0.0, 0.0, 1.650668380770588E9, 0.0, 2022-04-22 17:59:40.770
61.0, -100.45558275980875, -201.19726786622778, -92.396098355297, -68.27748354105279, 0.35200001671910286, 0.01600000075995922, 0.9760000463575125, 0.0, 0.0, 0.0, 0.0, 0.0, 1.6506683807714176E9, 0.0, 2022-04-22 17:59:40.771
61.0, -110.8113657371141, -229.73644442809746, -106.95178898284212, -62.53299720911309, 0.35200001671910286, 0.01600000075995922, 0.9760000463575125, 0.0, 0.0, 0.0, 0.0, 0.0, 1.6506683807714176E9, 0.0, 2022-04-22 17:59:40.771
62.0, -105.96071549458429, -233.41276608454064, -104.46475551230833, -41.30158516066149, 0.3680000174790621, 0.01600000075995922, 0.9760000463575125, 0.0, 0.0, 0.0, 0.0, 0.0, 1.65066838078485E9, 0.0, 2022-04-22 17:59:40.784
62.0, -116.23422067286447, -239.6883182101883, -109.93996904743835, -89.71085018711165, 0.3680000174790621, 0.01600000075995922, 0.9760000463575125, 0.0, 0.0, 0.0, 0.0, 0.0, 1.65066838078485E9, 0.0, 2022-04-22 17:59:40.784
63.0, -87.83342040935531, -198.53071919782087, -87.34349351515993, -37.875836801249534, 0.3680000174790621, 0.01600000075995922, 0.9760000463575125, 0.0, 0.0, 0.0, 0.0, 0.0, 1.6506683808005478E9, 0.0, 2022-04-22 17:59:40.800
63.0, -95.38053851993755, -216.03719089040533, -97.20186979835853, -45.23595991404727, 0.3680000174790621, 0.01600000075995922, 0.9760000463575125, 0.0, 0.0, 0.0, 0.0, 0.0, 1.6506683808005478E9, 0.0, 2022-04-22 17:59:40.800
64.0, -83.45399756124243, -213.24722552346066, -93.37595214368775, -9.299261239822954, 0.3680000174790621, 0.01600000075995922, 0.9760000463575125, 0.0, 0.0, 0.0, 0.0, 0.0, 1.6506683808012874E9, 0.0, 2022-04-22 17:59:40.801
64.0, -109.55849925195798, -225.8693878739141, -102.99871472967789, -66.41127346316352, 0.3680000174790621, 0.01600000075995922, 0.9760000463575125, 0.0, 0.0, 0.0, 0.0, 0.0, 1.6506683808012874E9, 0.0, 2022-04-22 17:59:40.801
65.0, -115.08233148651198, -237.3957595373504, -119.25231993710622, -81.38583288574591, 0.3680000174790621, 0.01600000075995922, 0.9760000463575125, 0.0, 0.0, 0.0, 0.0, 0.0, 1.6506683808149135E9, 0.0, 2022-04-22 17:59:40.814
65.0, -68.8646478340961, -203.80023823538795, -85.40248543815687, -0.11780684860423207, 0.3680000174790621, 0.01600000075995922, 0.9760000463575125, 0.0, 0.0, 0.0, 0.0, 0.0, 1.6506683808149135E9, 0.0, 2022-04-22 17:59:40.814
66.0, -98.04334728838876, -225.1625467822887, -103.21936882706359, -64.68717958359048, 0.3680000174790621, 0.01600000075995922, 0.9760000463575125, 0.0, 0.0, 0.0, 0.0, 0.0, 1.6506683808305717E9, 0.0, 2022-04-22 17:59:40.830
66.0, -113.0702653103508, -222.7877103104256, -104.3263792139478, -90.66078477585688, 0.3680000174790621, 0.01600000075995922, 0.9760000463575125, 0.0, 0.0, 0.0, 0.0, 0.0, 1.6506683808305717E9, 0.0, 2022-04-22 17:59:40.830
67.0, -99.75248156813905, -226.80062296288088, -96.19957661023363, -50.48303955188021, 0.3680000174790621, 0.01600000075995922, 0.9760000463575125, 0.0, 0.0, 0.0, 0.0, 0.0, 1.6506683808312712E9, 0.0, 2022-04-22 17:59:40.831
67.0, -102.20959583902732, -233.2070715869777, -99.53556737070903, -60.99215842736885, 0.3680000174790621, 0.01600000075995922, 0.9760000463575125, 0.0, 0.0, 0.0, 0.0, 0.0, 1.6506683808312712E9, 0.0, 2022-04-22 17:59:40.831
68.0, -86.42721802601591, -222.40250061498955, -90.48126957798377, -39.50269328197464, 0.3680000174790621, 0.01600000075995922, 0.9760000463575125, 0.0, 0.0, 0.0, 0.0, 0.0, 1.6506683808449266E9, 0.0, 2022-04-22 17:59:40.844
68.0, -89.3555596913211, -220.29319703998044, -88.5440014009364, -17.381185044068843, 0.3680000174790621, 0.01600000075995922, 0.9760000463575125, 0.0, 0.0, 0.0, 0.0, 0.0, 1.6506683808449266E9, 0.0, 2022-04-22 17:59:40.844
69.0, -112.72245461447164, -236.74875684501603, -98.50335498293862, -50.77849164837971, 0.3680000174790621, 0.01600000075995922, 0.9760000463575125, 0.0, 0.0, 0.0, 0.0, 0.0, 1.6506683808605933E9, 0.0, 2022-04-22 17:59:40.860
69.0, -121.08861081534997, -241.49842978874221, -101.15120415156707, -48.60186987416819, 0.3680000174790621, 0.01600000075995922, 0.9760000463575125, 0.0, 0.0, 0.0, 0.0, 0.0, 1.6506683808605933E9, 0.0, 2022-04-22 17:59:40.860
70.0, -126.75829914817587, -237.33592113805935, -102.27317413827404, -60.70792603073642, 0.3680000174790621, 0.01600000075995922, 0.9760000463575125, 0.0, 0.0, 0.0, 0.0, 0.0, 1.6506683808614132E9, 0.0, 2022-04-22 17:59:40.861
70.0, -91.74161586305127, -238.58878762321547, -91.94731036061421, -49.16659476747736, 0.3680000174790621, 0.01600000075995922, 0.9760000463575125, 0.0, 0.0, 0.0, 0.0, 0.0, 1.6506683808614132E9, 0.0, 2022-04-22 17:59:40.861
71.0, -121.88146960595623, -240.52231590030715, -111.72016142634675, -95.7283492158167, 0.3680000174790621, 0.0800000037997961, 0.9760000463575125, 0.0, 0.0, 0.0, 0.0, 0.0, 1.6506683808749688E9, 0.0, 2022-04-22 17:59:40.874
71.0, -116.3351979716681, -234.21310467505828, -107.36317797796801, -53.26178521895781, 0.3680000174790621, 0.0800000037997961, 0.9760000463575125, 0.0, 0.0, 0.0, 0.0, 0.0, 1.6506683808749688E9, 0.0, 2022-04-22 17:59:40.874
72.0, -116.55959196900949, -235.26775646256283, -104.85370510770008, -60.90614072838798, 0.3840000182390213, 0.0800000037997961, 0.9760000463575125, 0.0, 0.0, 0.0, 0.0, 0.0, 1.6506683808905115E9, 0.0, 2022-04-22 17:59:40.890
72.0, -112.46066161757335, -225.72727167559788, -103.81401292001829, -76.52022304339334, 0.3840000182390213, 0.0800000037997961, 0.9760000463575125, 0.0, 0.0, 0.0, 0.0, 0.0, 1.6506683808905115E9, 0.0, 2022-04-22 17:59:40.890
73.0, -118.62401674455032, -244.23977645626292, -113.54149270476773, -82.59382057143375, 0.3840000182390213, 0.0800000037997961, 0.9760000463575125, 0.0, 0.0, 0.0, 0.0, 0.0, 1.650668380891317E9, 0.0, 2022-04-22 17:59:40.891
73.0, -123.40734878787771, -251.52510156994686, -111.21153503237292, -52.86909572361037, 0.3840000182390213, 0.0800000037997961, 0.9760000463575125, 0.0, 0.0, 0.0, 0.0, 0.0, 1.650668380891317E9, 0.0, 2022-04-22 17:59:40.891
74.0, -103.38392442511395, -237.02924934169278, -103.02489402936772, -47.97730658156797, 0.3840000182390213, 0.0800000037997961, 0.9760000463575125, 0.0, 0.0, 0.0, 0.0, 0.0, 1.6506683809048758E9, 0.0, 2022-04-22 17:59:40.904
74.0, -110.68046923866495, -234.25424357457086, -112.27740651974455, -42.88356284191832, 0.3840000182390213, 0.0800000037997961, 0.9760000463575125, 0.0, 0.0, 0.0, 0.0, 0.0, 1.6506683809048758E9, 0.0, 2022-04-22 17:59:40.904
75.0, -125.10900326771662, -247.9834163119085, -122.40505559975281, -90.97493637213483, 0.3840000182390213, 0.0800000037997961, 0.9760000463575125, 0.0, 0.0, 0.0, 0.0, 0.0, 1.65066838092056E9, 0.0, 2022-04-22 17:59:40.920
75.0, -117.13553656218573, -248.6902574035339, -120.68844152009115, -86.32250082725659, 0.3840000182390213, 0.0800000037997961, 0.9760000463575125, 0.0, 0.0, 0.0, 0.0, 0.0, 1.65066838092056E9, 0.0, 2022-04-22 17:59:40.920
76.0, -119.55151193356141, -235.77638285653666, -115.23940728465095, -74.4221391682513, 0.3840000182390213, 0.0800000037997961, 0.9760000463575125, 0.0, 0.0, 0.0, 0.0, 0.0, 1.650668380921267E9, 0.0, 2022-04-22 17:59:40.921
76.0, -105.9943745941855, -249.78978799050674, -114.6634626914747, -27.864124619867653, 0.3840000182390213, 0.0800000037997961, 0.9760000463575125, 0.0, 0.0, 0.0, 0.0, 0.0, 1.650668380921267E9, 0.0, 2022-04-22 17:59:40.921
77.0, -129.0059790215455, -264.2557210191153, -133.8192302645184, -97.05601370008662, 0.3840000182390213, 0.0800000037997961, 0.9760000463575125, 0.0, 0.0, 0.0, 0.0, 0.0, 1.6506683809512937E9, 0.0, 2022-04-22 17:59:40.951
77.0, -120.90535571752116, -257.09007270401344, -118.3697035475634, -61.02581752697006, 0.3840000182390213, 0.0800000037997961, 0.9760000463575125, 0.0, 0.0, 0.0, 0.0, 0.0, 1.6506683809512937E9, 0.0, 2022-04-22 17:59:40.951
78.0, -128.49735262757167, -232.70592499291524, -116.22674087295309, -79.48596370825544, 0.3840000182390213, 0.0800000037997961, 0.9760000463575125, 0.0, 0.0, 0.0, 0.0, 0.0, 1.6506683809519956E9, 0.0, 2022-04-22 17:59:40.951
78.0, -125.3371371650137, -243.7984682614915, -124.97062696935609, -80.66029229434207, 0.3840000182390213, 0.0800000037997961, 0.9760000463575125, 0.0, 0.0, 0.0, 0.0, 0.0, 1.6506683809519956E9, 0.0, 2022-04-22 17:59:40.951
79.0, -139.44403979787603, -248.2863482083194, -121.47756041074172, -92.65789135219529, 0.3840000182390213, 0.0800000037997961, 0.9760000463575125, 0.0, 0.0, 0.0, 0.0, 0.0, 1.6506683809527316E9, 0.0, 2022-04-22 17:59:40.952
79.0, -135.23665234772488, -231.72981110448018, -110.10078474553302, -58.12739506131038, 0.3840000182390213, 0.0800000037997961, 0.9760000463575125, 0.0, 0.0, 0.0, 0.0, 0.0, 1.6506683809527316E9, 0.0, 2022-04-22 17:59:40.952
80.0, -121.24194671353325, -223.34121550386772, -106.80593288457021, -56.724932577926666, 0.3840000182390213, 0.0800000037997961, 0.9600000455975533, 0.0, 0.0, 0.0, 0.0, 0.0, 1.650668380964893E9, 0.0, 2022-04-22 17:59:40.964
80.0, -121.35788361215964, -231.7971293036826, -114.06507869856432, -79.9085724032484, 0.3840000182390213, 0.0800000037997961, 0.9600000455975533, 0.0, 0.0, 0.0, 0.0, 0.0, 1.650668380964893E9, 0.0, 2022-04-22 17:59:40.964
81.0, -121.93382820533589, -241.52460908843204, -116.87748346524313, -65.4949979740195, 0.3840000182390213, 0.12800000607967377, 0.9600000455975533, 0.0, 0.0, 0.0, 0.0, 0.0, 1.6506683809969342E9, 0.0, 2022-04-22 17:59:40.996
81.0, -137.17392052477226, -259.08717928035185, -130.6739744017832, -74.16782597126439, 0.3840000182390213, 0.12800000607967377, 0.9600000455975533, 0.0, 0.0, 0.0, 0.0, 0.0, 1.6506683809969342E9, 0.0, 2022-04-22 17:59:40.996
82.0, -117.4085492589511, -245.93021123623475, -115.92006907658651, -65.58475557295606, 0.4640000220388174, 0.12800000607967377, 0.9600000455975533, 0.0, 0.0, 0.0, 0.0, 0.0, 1.6506683809976425E9, 0.0, 2022-04-22 17:59:40.997
82.0, -119.90306252939627, -250.29841438448057, -121.06991131557152, -63.0491034029983, 0.4640000220388174, 0.12800000607967377, 0.9600000455975533, 0.0, 0.0, 0.0, 0.0, 0.0, 1.6506683809976425E9, 0.0, 2022-04-22 17:59:40.997
83.0, -122.47611369891092, -252.28056136099622, -126.22349345451221, -78.0535820252262, 0.4640000220388174, 0.12800000607967377, 0.9600000455975533, 0.0, 0.0, 0.0, 0.0, 0.0, 1.6506683809983373E9, 0.0, 2022-04-22 17:59:40.998
83.0, -104.67418990982696, -248.52944170543924, -120.72584051964805, -75.84330115141347, 0.4640000220388174, 0.12800000607967377, 0.9600000455975533, 0.0, 0.0, 0.0, 0.0, 0.0, 1.6506683809983373E9, 0.0, 2022-04-22 17:59:40.998
84.0, -112.46066161757335, -256.1027391157113, -124.79111177148297, -90.52614837745205, 0.4640000220388174, 0.12800000607967377, 0.9600000455975533, 0.0, 0.0, 0.0, 0.0, 0.0, 1.6506683809991508E9, 0.0, 2022-04-22 17:59:40.999
84.0, -109.97362814703956, -246.64453212777153, -116.63812986807898, -36.72020771494135, 0.4640000220388174, 0.12800000607967377, 0.9600000455975533, 0.0, 0.0, 0.0, 0.0, 0.0, 1.6506683809991508E9, 0.0, 2022-04-22 17:59:40.999
85.0, -118.93442844087258, -269.15872986102477, -136.39976123394445, -86.281361927744, 0.4640000220388174, 0.12800000607967377, 0.9600000455975533, 0.0, 0.0, 0.0, 0.0, 0.0, 1.650668381009922E9, 0.0, 2022-04-22 17:59:41.009
85.0, -104.71906870929524, -267.322438982781, -129.79135801224038, -78.18073862371966, 0.4640000220388174, 0.12800000607967377, 0.9600000455975533, 0.0, 0.0, 0.0, 0.0, 0.0, 1.650668381009922E9, 0.0, 2022-04-22 17:59:41.009
86.0, -99.66272396920249, -249.2138433973305, -118.2238474492915, -95.62737191701308, 0.4640000220388174, 0.12800000607967377, 0.9600000455975533, 0.0, 0.0, 0.0, 0.0, 0.0, 1.6506683810249124E9, 0.0, 2022-04-22 17:59:41.024
86.0, -97.66561739286408, -231.71485150465742, -106.70869548572227, -81.75608298135921, 0.4640000220388174, 0.12800000607967377, 0.9600000455975533, 0.0, 0.0, 0.0, 0.0, 0.0, 1.6506683810249124E9, 0.0, 2022-04-22 17:59:41.024
87.0, -82.2422699755989, -221.35906852735206, -99.05312027642503, -58.01893796259537, 0.4640000220388174, 0.12800000607967377, 0.9600000455975533, 0.0, 0.0, 0.0, 0.0, 0.0, 1.6506683810405529E9, 0.0, 2022-04-22 17:59:41.040
87.0, -95.00280862441286, -234.88628666708246, -106.76853388501331, -56.1564677846618, 0.4640000220388174, 0.12800000607967377, 0.9600000455975533, 0.0, 0.0, 0.0, 0.0, 0.0, 1.6506683810405529E9, 0.0, 2022-04-22 17:59:41.040
88.0, -103.63823762210086, -246.1770446333103, -117.32627145992592, -74.22018457064405, 0.4640000220388174, 0.12800000607967377, 0.9600000455975533, 0.0, 0.0, 0.0, 0.0, 0.0, 1.6506683810412347E9, 0.0, 2022-04-22 17:59:41.041
88.0, -89.32938039163128, -234.74043056881055, -109.6258174511604, -33.421615954022855, 0.4640000220388174, 0.12800000607967377, 0.9600000455975533, 0.0, 0.0, 0.0, 0.0, 0.0, 1.6506683810412347E9, 0.0, 2022-04-22 17:59:41.041
89.0, -108.18969586817548, -242.62413967540488, -119.86566352983937, -72.06600219616666, 0.4640000220388174, 0.12800000607967377, 0.9600000455975533, 0.0, 0.0, 0.0, 0.0, 0.0, 1.6506683810549407E9, 0.0, 2022-04-22 17:59:41.054
89.0, -113.54149270476773, -243.16268526902422, -116.10332417441532, -98.3612387846224, 0.4640000220388174, 0.12800000607967377, 0.9600000455975533, 0.0, 0.0, 0.0, 0.0, 0.0, 1.6506683810549407E9, 0.0, 2022-04-22 17:59:41.054
90.0, -114.4802075936459, -249.18766409764066, -122.46115409908816, -99.75622146809474, 0.4640000220388174, 0.12800000607967377, 1.008000047877431, 0.0, 0.0, 0.0, 0.0, 0.0, 1.6506683810705006E9, 0.0, 2022-04-22 17:59:41.070
90.0, -109.36402445426211, -247.73658291483298, -115.40022298274562, -82.33202757453546, 0.4640000220388174, 0.12800000607967377, 1.008000047877431, 0.0, 0.0, 0.0, 0.0, 0.0, 1.6506683810705006E9, 0.0, 2022-04-22 17:59:41.070
91.0, -93.03188134776428, -235.92971875471994, -104.78264700854197, -48.56447087461129, 0.4640000220388174, 0.09600000455975533, 1.008000047877431, 0.0, 0.0, 0.0, 0.0, 0.0, 1.6506683810712261E9, 0.0, 2022-04-22 17:59:41.071
91.0, -113.75840690219775, -258.53367408690974, -121.02877241605893, -70.17735271854326, 0.4640000220388174, 0.09600000455975533, 1.008000047877431, 0.0, 0.0, 0.0, 0.0, 0.0, 1.6506683810712261E9, 0.0, 2022-04-22 17:59:41.071
92.0, -117.56188515713438, -257.879191594664, -126.65732184937224, -91.43868396664038, 0.4640000220388174, 0.09600000455975533, 1.008000047877431, 0.0, 0.0, 0.0, 0.0, 0.0, 1.6506683810849268E9, 0.0, 2022-04-22 17:59:41.084
92.0, -112.27740651974455, -252.8041473547928, -119.68988823192194, -93.99303563637659, 0.4640000220388174, 0.09600000455975533, 1.008000047877431, 0.0, 0.0, 0.0, 0.0, 0.0, 1.6506683810849268E9, 0.0, 2022-04-22 17:59:41.084
93.0, -106.02429379383102, -243.37959946645424, -120.4079490234144, -40.08611767506227, 0.4640000220388174, 0.09600000455975533, 1.008000047877431, 0.0, 0.0, 0.0, 0.0, 0.0, 1.6506683811005828E9, 0.0, 2022-04-22 17:59:41.100
93.0, -100.02549426490441, -243.31228126725182, -118.21262774942443, -65.14718727814034, 0.4640000220388174, 0.09600000455975533, 1.008000047877431, 0.0, 0.0, 0.0, 0.0, 0.0, 1.6506683811005828E9, 0.0, 2022-04-22 17:59:41.100
94.0, -123.04457849217579, -243.14024586929008, -114.65598289156333, -89.53507488919422, 0.4640000220388174, 0.09600000455975533, 1.008000047877431, 0.0, 0.0, 0.0, 0.0, 0.0, 1.6506683811012857E9, 0.0, 2022-04-22 17:59:41.101
94.0, -112.94684861181304, -216.4523197854869, -98.98580207722262, -56.11158898519352, 0.4640000220388174, 0.09600000455975533, 1.008000047877431, 0.0, 0.0, 0.0, 0.0, 0.0, 1.6506683811012857E9, 0.0, 2022-04-22 17:59:41.101
95.0, -122.57335109775886, -234.80774876801297, -110.30273934314027, -64.96767208026722, 0.4640000220388174, 0.09600000455975533, 1.008000047877431, 0.0, 0.0, 0.0, 0.0, 0.0, 1.650668381114853E9, 0.0, 2022-04-22 17:59:41.114
95.0, -104.98834150610492, -237.33966103801504, -106.91812988324091, -60.86874172883108, 0.4640000220388174, 0.09600000455975533, 1.008000047877431, 0.0, 0.0, 0.0, 0.0, 0.0, 1.650668381114853E9, 0.0, 2022-04-22 17:59:41.114
96.0, -126.79569814773276, -236.5355825475417, -112.08293172204867, -76.26590984640643, 0.4640000220388174, 0.09600000455975533, 1.008000047877431, 0.0, 0.0, 0.0, 0.0, 0.0, 1.6506683811305034E9, 0.0, 2022-04-22 17:59:41.130
96.0, -118.36596364760771, -236.5767214470543, -116.32023837184533, -74.11546737188473, 0.4640000220388174, 0.09600000455975533, 1.008000047877431, 0.0, 0.0, 0.0, 0.0, 0.0, 1.6506683811305034E9, 0.0, 2022-04-22 17:59:41.130
97.0, -111.331211830955, -236.03443595347926, -115.65079627977684, -74.64279326563701, 0.4640000220388174, 0.09600000455975533, 1.008000047877431, 0.0, 0.0, 0.0, 0.0, 0.0, 1.6506683811312635E9, 0.0, 2022-04-22 17:59:41.131
97.0, -104.44979591248557, -229.81872222712263, -108.12611756892875, -72.52226999076083, 0.4640000220388174, 0.09600000455975533, 1.008000047877431, 0.0, 0.0, 0.0, 0.0, 0.0, 1.6506683811312635E9, 0.0, 2022-04-22 17:59:41.131
98.0, -100.08159276423976, -234.7628699685447, -107.55765277566388, -60.18060013698414, 0.4640000220388174, 0.09600000455975533, 1.008000047877431, 0.0, 0.0, 0.0, 0.0, 0.0, 1.6506683811448863E9, 0.0, 2022-04-22 17:59:41.144
98.0, -85.15939194103703, -231.25110391015187, -107.4753749766387, -33.9601615476422, 0.4640000220388174, 0.09600000455975533, 1.008000047877431, 0.0, 0.0, 0.0, 0.0, 0.0, 1.6506683811448863E9, 0.0, 2022-04-22 17:59:41.144
99.0, -105.96071549458429, -232.9041396905668, -111.70520182652399, -96.6595843047835, 0.4640000220388174, 0.09600000455975533, 1.008000047877431, 0.0, 0.0, 0.0, 0.0, 0.0, 1.6506683811605752E9, 0.0, 2022-04-22 17:59:41.160
99.0, -111.68276242678985, -228.4985375427641, -99.59914566995576, -63.72976519493386, 0.4640000220388174, 0.09600000455975533, 1.008000047877431, 0.0, 0.0, 0.0, 0.0, 0.0, 1.6506683811605752E9, 0.0, 2022-04-22 17:59:41.160
100.0, -91.00485557178035, -217.72388577042148, -89.66971128759906, -42.44225464714691, 0.4640000220388174, 0.09600000455975533, 0.9600000455975533, 0.0, 0.0, 0.0, 0.0, 0.0, 1.6506683811613593E9, 0.0, 2022-04-22 17:59:41.161
100.0, -89.37425919109955, -225.92922627320513, -95.35435922024772, -53.1907271197997, 0.4640000220388174, 0.09600000455975533, 0.9600000455975533, 0.0, 0.0, 0.0, 0.0, 0.0, 1.6506683811613593E9, 0.0, 2022-04-22 17:59:41.161
0.0, -99.07742962613702, -218.07730631623417, -93.60782594094053, -66.22053856542334, 0.4640000220388174, 0.09600000455975533, 0.9600000455975533, 0.0, 0.0, 0.0, 0.0, 0.0, 1.6506683811755376E9, 0.0, 2022-04-22 17:59:41.175
1.0, -66.22614841535687, -204.45659067761153, -76.2771295462735, -54.51839160406962, 0.4640000220388174, 0.04800000227987766, 0.9600000455975533, 0.0, 0.0, 0.0, 0.0, 0.0, 1.6506683811763124E9, 0.0, 2022-04-22 17:59:41.176
1.0, -61.95892256591469, -209.59895311668515, -75.44687175611034, -64.40294718695804, 0.4640000220388174, 0.04800000227987766, 0.9600000455975533, 0.0, 0.0, 0.0, 0.0, 0.0, 1.6506683811763124E9, 0.0, 2022-04-22 17:59:41.176
2.0, -61.89908416662365, -183.2401382289827, -49.74253936065361, -45.93906110571697, 0.43200002051889896, 0.04800000227987766, 0.9600000455975533, 0.0, 0.0, 0.0, 0.0, 0.0, 1.650668381189886E9, 0.0, 2022-04-22 17:59:41.189
2.0, -38.19185834750533, -150.61325101554394, -15.948803361039609, -6.045548278372735, 0.43200002051889896, 0.04800000227987766, 0.9600000455975533, 0.0, 0.0, 0.0, 0.0, 0.0, 1.650668381189886E9, 0.0, 2022-04-22 17:59:41.189
3.0, -57.64681791700423, -154.24469387251884, -17.92721043759957, -69.59018842549995, 0.43200002051889896, 0.04800000227987766, 0.9600000455975533, 0.0, 0.0, 0.0, 0.0, 0.0, 1.6506683812055628E9, 0.0, 2022-04-22 17:59:41.205
3.0, -42.63111959490925, -144.7715272847563, 9.688210835214704, -37.35599070740864, 0.43200002051889896, 0.04800000227987766, 0.9600000455975533, 0.0, 0.0, 0.0, 0.0, 0.0, 1.6506683812055628E9, 0.0, 2022-04-22 17:59:41.205
4.0, -39.650419330224395, -115.06176203675568, 27.000207730103284, -32.37070406647399, 0.43200002051889896, 0.04800000227987766, 0.9600000455975533, 0.0, 0.0, 0.0, 0.0, 0.0, 1.6506683812062373E9, 0.0, 2022-04-22 17:59:41.206
4.0, -23.998938015662134, -88.75530574843287, 34.236914144363254, -28.74674100941047, 0.43200002051889896, 0.04800000227987766, 0.9600000455975533, 0.0, 0.0, 0.0, 0.0, 0.0, 1.6506683812062373E9, 0.0, 2022-04-22 17:59:41.206
5.0, -25.210665601305664, -104.43296636268497, 25.837098843883723, -35.777752926107496, 0.43200002051889896, 0.04800000227987766, 0.9600000455975533, 0.0, 0.0, 0.0, 0.0, 0.0, 1.650668381219911E9, 0.0, 2022-04-22 17:59:41.219
5.0, -26.276537088677287, -98.36684863455594, 36.70898801507428, -16.33775295643136, 0.43200002051889896, 0.04800000227987766, 0.9600000455975533, 0.0, 0.0, 0.0, 0.0, 0.0, 1.650668381219911E9, 0.0, 2022-04-22 17:59:41.219
6.0, -38.96975753828883, -92.30821070633829, 34.4426086419262, -55.8236166886054, 0.43200002051889896, 0.04800000227987766, 0.9600000455975533, 0.0, 0.0, 0.0, 0.0, 0.0, 1.6506683812355678E9, 0.0, 2022-04-22 17:59:41.235
6.0, -29.32829545252025, -100.00492481514812, 30.074405493680388, -29.98464789474383, 0.43200002051889896, 0.04800000227987766, 0.9600000455975533, 0.0, 0.0, 0.0, 0.0, 0.0, 1.6506683812355678E9, 0.0, 2022-04-22 17:59:41.235
7.0, -38.004863349720836, -105.44647925067693, 22.231835286598653, -14.591219677124172, 0.43200002051889896, 0.04800000227987766, 0.9600000455975533, 0.0, 0.0, 0.0, 0.0, 0.0, 1.6506683812363155E9, 0.0, 2022-04-22 17:59:41.236
7.0, -54.987749048508704, -119.08963428903371, 21.95134278992191, -44.701154220383614, 0.43200002051889896, 0.04800000227987766, 0.9600000455975533, 0.0, 0.0, 0.0, 0.0, 0.0, 1.6506683812363155E9, 0.0, 2022-04-22 17:59:41.236
8.0, -41.98037700261921, -137.93125026579946, 1.774582528974861, -8.330627151299268, 0.43200002051889896, 0.04800000227987766, 0.9600000455975533, 0.0, 0.0, 0.0, 0.0, 0.0, 1.6506683812662263E9, 0.0, 2022-04-22 17:59:41.266
8.0, -76.0733049986884, -175.50976502057165, -36.06572522269562, -52.99251242214814, 0.43200002051889896, 0.04800000227987766, 0.9600000455975533, 0.0, 0.0, 0.0, 0.0, 0.0, 1.6506683812662263E9, 0.0, 2022-04-22 17:59:41.266
9.0, -104.05897636711597, -194.6842320933938, -49.37976906495169, -84.87889944436029, 0.43200002051889896, 0.04800000227987766, 0.9600000455975533, 0.0, 0.0, 0.0, 0.0, 0.0, 1.6506683812669792E9, 0.0, 2022-04-22 17:59:41.266
9.0, -92.42040770500898, -204.30325477942824, -46.57484409818426, -57.33827617065981, 0.43200002051889896, 0.04800000227987766, 0.9600000455975533, 0.0, 0.0, 0.0, 0.0, 0.0, 1.6506683812669792E9, 0.0, 2022-04-22 17:59:41.266
10.0, -104.15621376596391, -227.41209660563618, -70.76451701158658, -67.91845314530656, 0.43200002051889896, 0.04800000227987766, 0.9120000433176756, 0.0, 0.0, 0.0, 0.0, 0.0, 1.6506683812677143E9, 0.0, 2022-04-22 17:59:41.267
10.0, -109.00686400849372, -225.5197072280571, -66.11208146670833, -58.10495566157624, 0.43200002051889896, 0.04800000227987766, 0.9120000433176756, 0.0, 0.0, 0.0, 0.0, 0.0, 1.6506683812677143E9, 0.0, 2022-04-22 17:59:41.267
11.0, -104.44418606255203, -224.78668683674186, -72.78032308770344, -66.48233156232163, 0.43200002051889896, -0.01600000075995922, 0.9120000433176756, 0.0, 0.0, 0.0, 0.0, 0.0, 1.6506683812799213E9, 0.0, 2022-04-22 17:59:41.279
11.0, -96.87836845219135, -212.66567108035088, -71.53867630241439, -64.52262398554012, 0.43200002051889896, -0.01600000075995922, 0.9120000433176756, 0.0, 0.0, 0.0, 0.0, 0.0, 1.6506683812799213E9, 0.0, 2022-04-22 17:59:41.279
12.0, -99.18588672485203, -210.50026900600642, -79.65799910621718, -20.78075410379097, 0.41600001975893974, -0.01600000075995922, 0.9120000433176756, 0.0, 0.0, 0.0, 0.0, 0.0, 1.6506683812955225E9, 0.0, 2022-04-22 17:59:41.295
12.0, -118.02750270161778, -239.53311236202717, -100.27980746189132, -72.26421689381823, 0.41600001975893974, -0.01600000075995922, 0.9120000433176756, 0.0, 0.0, 0.0, 0.0, 0.0, 1.6506683812955225E9, 0.0, 2022-04-22 17:59:41.295
13.0, -110.80575588718057, -269.7178449044004, -126.44040765194222, -76.22477094689384, 0.41600001975893974, -0.01600000075995922, 0.9120000433176756, 0.0, 0.0, 0.0, 0.0, 0.0, 1.6506683812962763E9, 0.0, 2022-04-22 17:59:41.296
13.0, -124.03752193041146, -251.29883762262762, -119.98160042846575, -80.95948429079726, 0.41600001975893974, -0.01600000075995922, 0.9120000433176756, 0.0, 0.0, 0.0, 0.0, 0.0, 1.6506683812962763E9, 0.0, 2022-04-22 17:59:41.296
14.0, -151.30513250734657, -276.2738895267248, -152.6795457410626, -120.42290862323716, 0.41600001975893974, -0.01600000075995922, 0.9120000433176756, 0.0, 0.0, 0.0, 0.0, 0.0, 1.6506683813099356E9, 0.0, 2022-04-22 17:59:41.309
14.0, -141.59261232241988, -278.5327890999615, -150.85821446264163, -100.07411296432838, 0.41600001975893974, -0.01600000075995922, 0.9120000433176756, 0.0, 0.0, 0.0, 0.0, 0.0, 1.6506683813099356E9, 0.0, 2022-04-22 17:59:41.309
15.0, -130.90771814901382, -289.06808727514, -152.55986894248053, -90.3204538798891, 0.41600001975893974, -0.01600000075995922, 0.9120000433176756, 0.0, 0.0, 0.0, 0.0, 0.0, 1.6506683813255904E9, 0.0, 2022-04-22 17:59:41.325
15.0, -151.19293550867587, -287.6170060923323, -157.91914557898417, -107.4043168774806, 0.41600001975893974, -0.01600000075995922, 0.9120000433176756, 0.0, 0.0, 0.0, 0.0, 0.0, 1.6506683813255904E9, 0.0, 2022-04-22 17:59:41.325
16.0, -142.75572120863944, -284.89435892459005, -161.4982298365794, -93.48440924240276, 0.41600001975893974, -0.01600000075995922, 0.9120000433176756, 0.0, 0.0, 0.0, 0.0, 0.0, 1.6506683813262813E9, 0.0, 2022-04-22 17:59:41.326
16.0, -118.01254310179502, -279.19475139211863, -154.93844531429932, -66.50103106210008, 0.41600001975893974, -0.01600000075995922, 0.9120000433176756, 0.0, 0.0, 0.0, 0.0, 0.0, 1.6506683813262813E9, 0.0, 2022-04-22 17:59:41.326
17.0, -129.2509424686432, -291.64113844465464, -163.9815234071575, -73.11691408371553, 0.41600001975893974, -0.01600000075995922, 0.9120000433176756, 0.0, 0.0, 0.0, 0.0, 0.0, 1.650668381339868E9, 0.0, 2022-04-22 17:59:41.339
17.0, -158.32118482422084, -302.4382296167314, -184.8127661603503, -127.05749114463106, 0.41600001975893974, -0.01600000075995922, 0.9120000433176756, 0.0, 0.0, 0.0, 0.0, 0.0, 1.650668381339868E9, 0.0, 2022-04-22 17:59:41.339
18.0, -152.5916580921039, -310.7744666179642, -190.75920708989725, -119.23736033728346, 0.41600001975893974, -0.01600000075995922, 0.9120000433176756, 0.0, 0.0, 0.0, 0.0, 0.0, 1.6506683813557546E9, 0.0, 2022-04-22 17:59:41.355
18.0, -149.04249303415418, -296.38333158846945, -176.8766984543763, -123.60182358557358, 0.41600001975893974, -0.01600000075995922, 0.9120000433176756, 0.0, 0.0, 0.0, 0.0, 0.0, 1.6506683813557546E9, 0.0, 2022-04-22 17:59:41.355
19.0, -154.9590147640556, -285.4703035177663, -160.53333564801142, -107.8082260726951, 0.41600001975893974, -0.01600000075995922, 0.9120000433176756, 0.0, 0.0, 0.0, 0.0, 0.0, 1.6506683813563983E9, 0.0, 2022-04-22 17:59:41.356
19.0, -141.4729355238378, -279.56126158777624, -163.05028831819072, -100.77347425604239, 0.41600001975893974, -0.01600000075995922, 0.9120000433176756, 0.0, 0.0, 0.0, 0.0, 0.0, 1.6506683813563983E9, 0.0, 2022-04-22 17:59:41.356
20.0, -132.57197362929583, -281.85382026061416, -156.70741799334064, -89.95394368423149, 0.41600001975893974, -0.01600000075995922, 0.9120000433176756, 0.0, 0.0, 0.0, 0.0, 0.0, 1.6506683813699028E9, 0.0, 2022-04-22 17:59:41.369
20.0, -143.20450920332223, -287.5048090936616, -171.47628291836008, -106.25990749103948, 0.41600001975893974, -0.01600000075995922, 0.9120000433176756, 0.0, 0.0, 0.0, 0.0, 0.0, 1.6506683813699028E9, 0.0, 2022-04-22 17:59:41.369
21.0, -152.69263539090753, -294.4647629112005, -174.61405898118392, -102.34423223743215, 0.41600001975893974, 0.01600000075995922, 0.9120000433176756, 0.0, 0.0, 0.0, 0.0, 0.0, 1.650668381385606E9, 0.0, 2022-04-22 17:59:41.385
21.0, -135.37689859606326, -272.7284643687308, -163.63745261123404, -93.86961893783882, 0.41600001975893974, 0.01600000075995922, 0.9120000433176756, 0.0, 0.0, 0.0, 0.0, 0.0, 1.650668381385606E9, 0.0, 2022-04-22 17:59:41.385
22.0, -145.48210827633739, -286.22576330881566, -175.67245066864416, -98.05830688821152, 0.43200002051889896, 0.01600000075995922, 0.9120000433176756, 0.0, 0.0, 0.0, 0.0, 0.0, 1.6506683813863394E9, 0.0, 2022-04-22 17:59:41.386
22.0, -165.65512863732874, -302.8383989119902, -188.16371652064845, -133.4901190684177, 0.43200002051889896, 0.01600000075995922, 0.9120000433176756, 0.0, 0.0, 0.0, 0.0, 0.0, 1.6506683813863394E9, 0.0, 2022-04-22 17:59:41.386
23.0, -144.16566349193454, -305.01876058615744, -177.56110014626756, -69.92303952155635, 0.43200002051889896, 0.01600000075995922, 0.9120000433176756, 0.0, 0.0, 0.0, 0.0, 0.0, 1.6506683813998835E9, 0.0, 2022-04-22 17:59:41.399
23.0, -139.65160424541682, -290.6126659568399, -180.47448221175, -101.4765754477121, 0.43200002051889896, 0.01600000075995922, 0.9120000433176756, 0.0, 0.0, 0.0, 0.0, 0.0, 1.6506683813998835E9, 0.0, 2022-04-22 17:59:41.399
24.0, -144.44989588856697, -285.5077025173232, -170.07756033493206, -116.89244306506589, 0.43200002051889896, 0.01600000075995922, 0.9120000433176756, 0.0, 0.0, 0.0, 0.0, 0.0, 1.6506683814155955E9, 0.0, 2022-04-22 17:59:41.415
24.0, -116.40064622089267, -258.7823774339631, -160.18552495213225, -79.12693331250921, 0.43200002051889896, 0.01600000075995922, 0.9120000433176756, 0.0, 0.0, 0.0, 0.0, 0.0, 1.6506683814155955E9, 0.0, 2022-04-22 17:59:41.415
25.0, -127.06684089452028, -280.5037163766101, -177.55736024631187, -92.56813375325873, 0.43200002051889896, 0.01600000075995922, 0.9120000433176756, 0.0, 0.0, 0.0, 0.0, 0.0, 1.650668381416338E9, 0.0, 2022-04-22 17:59:41.416
25.0, -148.6610232386738, -288.320107284002, -174.01567498827353, -105.5156673998572, 0.43200002051889896, 0.01600000075995922, 0.9120000433176756, 0.0, 0.0, 0.0, 0.0, 0.0, 1.650668381416338E9, 0.0, 2022-04-22 17:59:41.416
26.0, -155.38910325895995, -282.362446654588, -171.248149021063, -126.24219295429066, 0.43200002051889896, 0.01600000075995922, 0.9120000433176756, 0.0, 0.0, 0.0, 0.0, 0.0, 1.6506683814299405E9, 0.0, 2022-04-22 17:59:41.429
26.0, -130.21957655716687, -286.390318906866, -166.48351647751406, -97.33650619676337, 0.43200002051889896, 0.01600000075995922, 0.9120000433176756, 0.0, 0.0, 0.0, 0.0, 0.0, 1.6506683814299405E9, 0.0, 2022-04-22 17:59:41.429
27.0, -136.90651767794043, -285.12249282188714, -170.6161059285514, -90.86273937346414, 0.43200002051889896, 0.01600000075995922, 0.9120000433176756, 0.0, 0.0, 0.0, 0.0, 0.0, 1.6506683814455884E9, 0.0, 2022-04-22 17:59:41.445
27.0, -139.30379354953766, -275.3800534373149, -163.8693264084868, -124.52557887462899, 0.43200002051889896, 0.01600000075995922, 0.9120000433176756, 0.0, 0.0, 0.0, 0.0, 0.0, 1.6506683814455884E9, 0.0, 2022-04-22 17:59:41.445
28.0, -138.89988435432315, -280.9412846714258, -163.66363191092387, -106.0317735937424, 0.43200002051889896, 0.01600000075995922, 0.9120000433176756, 0.0, 0.0, 0.0, 0.0, 0.0, 1.6506683814463248E9, 0.0, 2022-04-22 17:59:41.446
28.0, -140.12283163983375, -271.0118502890691, -166.8762059728615, -100.1788301630877, 0.43200002051889896, 0.01600000075995922, 0.9120000433176756, 0.0, 0.0, 0.0, 0.0, 0.0, 1.6506683814463248E9, 0.0, 2022-04-22 17:59:41.446
29.0, -149.9550286233425, -276.7712962208316, -169.209903545212, -90.25313568068668, 0.43200002051889896, 0.01600000075995922, 0.9120000433176756, 0.0, 0.0, 0.0, 0.0, 0.0, 1.6506683814762712E9, 0.0, 2022-04-22 17:59:41.476
29.0, -152.34108479507267, -282.1043935576454, -170.23463613307104, -127.44270084006712, 0.43200002051889896, 0.01600000075995922, 0.9120000433176756, 0.0, 0.0, 0.0, 0.0, 0.0, 1.6506683814762712E9, 0.0, 2022-04-22 17:59:41.476
30.0, -136.8429393786937, -265.9854247486219, -168.97428984800354, -92.9159444491379, 0.43200002051889896, 0.01600000075995922, 0.9920000471174717, 0.0, 0.0, 0.0, 0.0, 0.0, 1.6506683814769828E9, 0.0, 2022-04-22 17:59:41.476
30.0, -159.64136950857937, -272.6798456693068, -168.9181913486682, -105.11923800455406, 0.43200002051889896, 0.01600000075995922, 0.9920000471174717, 0.0, 0.0, 0.0, 0.0, 0.0, 1.6506683814769828E9, 0.0, 2022-04-22 17:59:41.476
31.0, -161.58237758558244, -266.73714463971555, -162.70247762231156, -92.88602524949238, 0.43200002051889896, 0.0, 0.9920000471174717, 0.0, 0.0, 0.0, 0.0, 0.0, 1.6506683814778318E9, 0.0, 2022-04-22 17:59:41.477
31.0, -149.82787202484906, -267.33178873267025, -167.47458996577188, -107.53147347597405, 0.43200002051889896, 0.0, 0.9920000471174717, 0.0, 0.0, 0.0, 0.0, 0.0, 1.6506683814778318E9, 0.0, 2022-04-22 17:59:41.477
32.0, -150.1495034210384, -279.49020348861814, -174.15031138667837, -94.29222763283178, 0.41600001975893974, 0.0, 0.9920000471174717, 0.0, 0.0, 0.0, 0.0, 0.0, 1.6506683814899774E9, 0.0, 2022-04-22 17:59:41.489
32.0, -149.95128872338682, -272.4928506715223, -168.45444375416264, -109.94370894739404, 0.41600001975893974, 0.0, 0.9920000471174717, 0.0, 0.0, 0.0, 0.0, 0.0, 1.6506683814899774E9, 0.0, 2022-04-22 17:59:41.489
33.0, -132.47847613040358, -265.8620080500841, -161.37855303799734, -93.64522494049743, 0.41600001975893974, 0.0, 0.9920000471174717, 0.0, 0.0, 0.0, 0.0, 0.0, 1.6506683815055532E9, 0.0, 2022-04-22 17:59:41.505
33.0, -137.04115407634526, -266.5277102421969, -157.8742667795159, -81.03802218986675, 0.41600001975893974, 0.0, 0.9920000471174717, 0.0, 0.0, 0.0, 0.0, 0.0, 1.6506683815055532E9, 0.0, 2022-04-22 17:59:41.505
34.0, -148.67972273845226, -279.19475139211863, -158.30809517437592, -86.38233922654763, 0.41600001975893974, 0.0, 0.9920000471174717, 0.0, 0.0, 0.0, 0.0, 0.0, 1.6506683815062542E9, 0.0, 2022-04-22 17:59:41.506
34.0, -139.7376219443977, -279.1685720924288, -162.78101552138105, -76.49030384374782, 0.41600001975893974, 0.0, 0.9920000471174717, 0.0, 0.0, 0.0, 0.0, 0.0, 1.6506683815062542E9, 0.0, 2022-04-22 17:59:41.506
35.0, -143.44760270044208, -257.11064215376973, -166.9846630715765, -114.69338189112023, 0.41600001975893974, 0.0, 0.9920000471174717, 0.0, 0.0, 0.0, 0.0, 0.0, 1.6506683815199575E9, 0.0, 2022-04-22 17:59:41.519
35.0, -154.3718504710123, -259.8183297216892, -177.16841065092012, -111.63414372736588, 0.41600001975893974, 0.0, 0.9920000471174717, 0.0, 0.0, 0.0, 0.0, 0.0, 1.6506683815199575E9, 0.0, 2022-04-22 17:59:41.519
36.0, -146.68635606206954, -265.7161519518122, -187.63639062689617, -81.02680248999968, 0.41600001975893974, 0.0, 0.9920000471174717, 0.0, 0.0, 0.0, 0.0, 0.0, 1.6506683815519955E9, 0.0, 2022-04-22 17:59:41.551
36.0, -133.3610925199464, -256.4524197615683, -187.85704472428188, -107.09016528120264, 0.41600001975893974, 0.0, 0.9920000471174717, 0.0, 0.0, 0.0, 0.0, 0.0, 1.6506683815519955E9, 0.0, 2022-04-22 17:59:41.551
37.0, -134.49428220652044, -250.47231973242015, -191.93353567598388, -96.09111951151863, 0.41600001975893974, 0.0, 0.9920000471174717, 0.0, 0.0, 0.0, 0.0, 0.0, 1.650668381552668E9, 0.0, 2022-04-22 17:59:41.552
37.0, -137.0673333760351, -244.709133900702, -202.42021515173838, -102.77432073233649, 0.41600001975893974, 0.0, 0.9920000471174717, 0.0, 0.0, 0.0, 0.0, 0.0, 1.650668381552668E9, 0.0, 2022-04-22 17:59:41.552
38.0, -118.96247769054025, -238.4111423753202, -207.4915194916539, -81.2063176878728, 0.41600001975893974, 0.0, 0.9920000471174717, 0.0, 0.0, 0.0, 0.0, 0.0, 1.6506683815533893E9, 0.0, 2022-04-22 17:59:41.553
38.0, -114.8298882395029, -228.1488568969071, -206.2648323061876, -84.41141194989905, 0.41600001975893974, 0.0, 0.9920000471174717, 0.0, 0.0, 0.0, 0.0, 0.0, 1.6506683815533893E9, 0.0, 2022-04-22 17:59:41.553
39.0, -129.93160426057875, -227.06054600980133, -221.6059019244276, -94.81955352658406, 0.41600001975893974, 0.0, 0.9920000471174717, 0.0, 0.0, 0.0, 0.0, 0.0, 1.6506683815541172E9, 0.0, 2022-04-22 17:59:41.554
39.0, -141.4018774246797, -240.19507465418428, -238.11382032884285, -98.60433228174224, 0.41600001975893974, 0.0, 0.9920000471174717, 0.0, 0.0, 0.0, 0.0, 0.0, 1.6506683815541172E9, 0.0, 2022-04-22 17:59:41.554
40.0, -165.83090393524617, -232.7377141425386, -241.41615198971704, -101.25966125028208, 0.41600001975893974, 0.0, 0.8800000417977571, 0.0, 0.0, 0.0, 0.0, 0.0, 1.650668381564896E9, 0.0, 2022-04-22 17:59:41.564
40.0, -178.46428598556668, -230.75930706597865, -249.05676759919152, -118.65767584415153, 0.41600001975893974, 0.0, 0.8800000417977571, 0.0, 0.0, 0.0, 0.0, 0.0, 1.650668381564896E9, 0.0, 2022-04-22 17:59:41.564
41.0, -191.9391455259174, -231.71672145463526, -257.1760904029943, -109.46500175306574, 0.41600001975893974, 0.01600000075995922, 0.8800000417977571, 0.0, 0.0, 0.0, 0.0, 0.0, 1.6506683815799367E9, 0.0, 2022-04-22 17:59:41.579
41.0, -168.13468230795115, -230.46011506952345, -259.5135278753005, -122.7790455953218, 0.41600001975893974, 0.01600000075995922, 0.8800000417977571, 0.0, 0.0, 0.0, 0.0, 0.0, 1.6506683815799367E9, 0.0, 2022-04-22 17:59:41.579
42.0, -154.19607517309487, -231.1519965613261, -264.86906461184844, -125.07534416811541, 0.4480000212788582, 0.01600000075995922, 0.8800000417977571, 0.0, 0.0, 0.0, 0.0, 0.0, 1.6506683815955877E9, 0.0, 2022-04-22 17:59:41.595
42.0, -160.87179659400135, -243.20195421855897, -266.4510422931053, -136.48203903296962, 0.4480000212788582, 0.01600000075995922, 0.8800000417977571, 0.0, 0.0, 0.0, 0.0, 0.0, 1.6506683815955877E9, 0.0, 2022-04-22 17:59:41.595
43.0, -126.07576740626246, -246.23875298257917, -268.09285837365314, -103.41758352471516, 0.4480000212788582, 0.01600000075995922, 0.8800000417977571, 0.0, 0.0, 0.0, 0.0, 0.0, 1.6506683815963707E9, 0.0, 2022-04-22 17:59:41.596
43.0, -136.27447458542883, -250.50223893206567, -266.9260095874779, -99.44206987181678, 0.4480000212788582, 0.01600000075995922, 0.8800000417977571, 0.0, 0.0, 0.0, 0.0, 0.0, 1.6506683815963707E9, 0.0, 2022-04-22 17:59:41.596
44.0, -162.9250016696751, -270.3199687972665, -279.95582103310153, -106.63389748660848, 0.4480000212788582, 0.01600000075995922, 0.8800000417977571, 0.0, 0.0, 0.0, 0.0, 0.0, 1.6506683816099572E9, 0.0, 2022-04-22 17:59:41.609
44.0, -159.5216927099973, -265.51045745424926, -268.6987221664749, -143.55418984917924, 0.4480000212788582, 0.01600000075995922, 0.8800000417977571, 0.0, 0.0, 0.0, 0.0, 0.0, 1.6506683816099572E9, 0.0, 2022-04-22 17:59:41.609
45.0, -137.79287396743894, -244.08831050805748, -254.1392916389741, -101.5850325464271, 0.4480000212788582, 0.01600000075995922, 0.8800000417977571, 0.0, 0.0, 0.0, 0.0, 0.0, 1.650668381625613E9, 0.0, 2022-04-22 17:59:41.625
45.0, -130.2831548564136, -229.33814508281648, -240.7616694974713, -118.47068084636703, 0.4480000212788582, 0.01600000075995922, 0.8800000417977571, 0.0, 0.0, 0.0, 0.0, 0.0, 1.650668381625613E9, 0.0, 2022-04-22 17:59:41.625
46.0, -136.63724488113075, -247.0839703725651, -245.83297383738682, -97.03357430035248, 0.4480000212788582, 0.01600000075995922, 0.8800000417977571, 0.0, 0.0, 0.0, 0.0, 0.0, 1.6506683816263287E9, 0.0, 2022-04-22 17:59:41.626
46.0, -142.56124641094357, -248.17602115962654, -250.9491569767706, -149.19395898235962, 0.4480000212788582, 0.01600000075995922, 0.8800000417977571, 0.0, 0.0, 0.0, 0.0, 0.0, 1.6506683816263287E9, 0.0, 2022-04-22 17:59:41.626
47.0, -142.23961501475424, -242.17348173074424, -241.00102309463546, -122.10960350325331, 0.4480000212788582, 0.01600000075995922, 0.8800000417977571, 0.0, 0.0, 0.0, 0.0, 0.0, 1.6506683816399052E9, 0.0, 2022-04-22 17:59:41.639
47.0, -146.37594436574727, -236.3317579999566, -232.72836439264938, -102.5499267349951, 0.4480000212788582, 0.01600000075995922, 0.8800000417977571, 0.0, 0.0, 0.0, 0.0, 0.0, 1.6506683816399052E9, 0.0, 2022-04-22 17:59:41.639
48.0, -124.62468622345477, -239.7462866595015, -233.1995917870663, -90.59346657665446, 0.4480000212788582, 0.01600000075995922, 0.8800000417977571, 0.0, 0.0, 0.0, 0.0, 0.0, 1.6506683816555643E9, 0.0, 2022-04-22 17:59:41.655
48.0, -129.4678566660732, -246.4182681804523, -231.52411660691723, -94.32962663238868, 0.4480000212788582, 0.01600000075995922, 0.8800000417977571, 0.0, 0.0, 0.0, 0.0, 0.0, 1.6506683816555643E9, 0.0, 2022-04-22 17:59:41.655
49.0, -126.29642150364816, -238.23162717744708, -220.4240935384296, -79.41490560909733, 0.4480000212788582, 0.01600000075995922, 0.8800000417977571, 0.0, 0.0, 0.0, 0.0, 0.0, 1.650668381656364E9, 0.0, 2022-04-22 17:59:41.656
49.0, -124.73314332216978, -236.77306619472802, -221.40020742686465, -72.58210839005187, 0.4480000212788582, 0.01600000075995922, 0.8800000417977571, 0.0, 0.0, 0.0, 0.0, 0.0, 1.650668381656364E9, 0.0, 2022-04-22 17:59:41.656
50.0, -127.91953808441758, -235.20230821333826, -226.76696386327967, -96.31551350886002, 0.4480000212788582, 0.01600000075995922, 0.8960000425577164, 0.0, 0.0, 0.0, 0.0, 0.0, 1.6506683816698933E9, 0.0, 2022-04-22 17:59:41.669
50.0, -150.7740667136386, -239.43213506322354, -227.679499452468, -125.25485936598852, 0.4480000212788582, 0.01600000075995922, 0.8960000425577164, 0.0, 0.0, 0.0, 0.0, 0.0, 1.6506683816698933E9, 0.0, 2022-04-22 17:59:41.669
51.0, -131.6220390405506, -235.08637131471187, -221.98737171990797, -109.41638305364177, 0.4480000212788582, 0.0, 0.8960000425577164, 0.0, 0.0, 0.0, 0.0, 0.0, 1.6506683816855867E9, 0.0, 2022-04-22 17:59:41.685
51.0, -125.94113100785762, -234.9255556166172, -210.17676765983924, -88.90677169663832, 0.4480000212788582, 0.0, 0.8960000425577164, 0.0, 0.0, 0.0, 0.0, 0.0, 1.6506683816855867E9, 0.0, 2022-04-22 17:59:41.685
52.0, -124.11979972943664, -227.50185420457274, -204.6342359255068, -74.09676787210628, 0.4000000189989805, 0.0, 0.8960000425577164, 0.0, 0.0, 0.0, 0.0, 0.0, 1.6506683816863048E9, 0.0, 2022-04-22 17:59:41.686
52.0, -129.94282396044582, -222.93169645871967, -196.56353182112798, -78.5734281190671, 0.4000000189989805, 0.0, 0.8960000425577164, 0.0, 0.0, 0.0, 0.0, 0.0, 1.6506683816863048E9, 0.0, 2022-04-22 17:59:41.686
53.0, -115.63396672997624, -213.7315425677225, -189.24828750779852, -76.56884174281731, 0.4000000189989805, 0.0, 0.8960000425577164, 0.0, 0.0, 0.0, 0.0, 0.0, 1.650668381699966E9, 0.0, 2022-04-22 17:59:41.699
53.0, -111.52381667867303, -210.63864530436695, -184.65195046225563, -81.02306259004399, 0.4000000189989805, 0.0, 0.8960000425577164, 0.0, 0.0, 0.0, 0.0, 0.0, 1.650668381699966E9, 0.0, 2022-04-22 17:59:41.699
54.0, -133.89963811356574, -221.31979957781732, -194.45796814607456, -107.32577897841111, 0.4000000189989805, 0.0, 0.8960000425577164, 0.0, 0.0, 0.0, 0.0, 0.0, 1.6506683817155678E9, 0.0, 2022-04-22 17:59:41.715
54.0, -125.36518641468138, -218.87390500679612, -187.07914553349838, -87.95683710789308, 0.4000000189989805, 0.0, 0.8960000425577164, 0.0, 0.0, 0.0, 0.0, 0.0, 1.6506683817155678E9, 0.0, 2022-04-22 17:59:41.715
55.0, -113.54710255470127, -223.90781034715474, -184.924963159021, -75.45809145597741, 0.4000000189989805, 0.0, 0.8960000425577164, 0.0, 0.0, 0.0, 0.0, 0.0, 1.6506683817163405E9, 0.0, 2022-04-22 17:59:41.716
55.0, -131.56594054121524, -229.43164258170873, -187.1090647331439, -95.66851081652567, 0.4000000189989805, 0.0, 0.8960000425577164, 0.0, 0.0, 0.0, 0.0, 0.0, 1.6506683817163405E9, 0.0, 2022-04-22 17:59:41.716
56.0, -102.33862238749862, -204.800661473535, -165.99358958331868, -74.44831846794114, 0.4000000189989805, 0.0, 0.8960000425577164, 0.0, 0.0, 0.0, 0.0, 0.0, 1.6506683817299273E9, 0.0, 2022-04-22 17:59:41.729
56.0, -98.10131573770195, -206.67435135133564, -162.99418981885538, -60.61816843179986, 0.4000000189989805, 0.0, 0.8960000425577164, 0.0, 0.0, 0.0, 0.0, 0.0, 1.6506683817299273E9, 0.0, 2022-04-22 17:59:41.729
57.0, -109.46313180308789, -215.16392425075173, -165.3166676913388, -63.542770197149366, 0.4000000189989805, 0.0, 0.8960000425577164, 0.0, 0.0, 0.0, 0.0, 0.0, 1.650668381745594E9, 0.0, 2022-04-22 17:59:41.745
57.0, -108.37482091598213, -215.11904545128345, -164.60982659971341, -83.74570975778624, 0.4000000189989805, 0.0, 0.8960000425577164, 0.0, 0.0, 0.0, 0.0, 0.0, 1.650668381745594E9, 0.0, 2022-04-22 17:59:41.745
58.0, -113.14319335948676, -220.08563259243965, -174.251288685482, -90.01378208352253, 0.4000000189989805, 0.0, 0.8960000425577164, 0.0, 0.0, 0.0, 0.0, 0.0, 1.6506683817463982E9, 0.0, 2022-04-22 17:59:41.746
58.0, -95.83119646459818, -206.12832595780492, -156.95425139041618, -56.57533657969907, 0.4000000189989805, 0.0, 0.8960000425577164, 0.0, 0.0, 0.0, 0.0, 0.0, 1.6506683817463982E9, 0.0, 2022-04-22 17:59:41.746
59.0, -128.8058943739161, -220.91215048264712, -178.40631753625348, -100.81835305551067, 0.4000000189989805, 0.0, 0.8960000425577164, 0.0, 0.0, 0.0, 0.0, 0.0, 1.6506683817599096E9, 0.0, 2022-04-22 17:59:41.759
59.0, -103.90564046893269, -197.73225055728108, -159.9499112549238, -68.52805683808401, 0.4000000189989805, 0.0, 0.8960000425577164, 0.0, 0.0, 0.0, 0.0, 0.0, 1.6506683817599096E9, 0.0, 2022-04-22 17:59:41.759
60.0, -91.79584441240877, -200.22302392777056, -153.03483623685315, -46.84037699503824, 0.4000000189989805, 0.0, 0.8960000425577164, 0.0, 0.0, 0.0, 0.0, 0.0, 1.650668381775623E9, 0.0, 2022-04-22 17:59:41.775
60.0, -96.21640616003424, -198.77942254487425, -150.19251227052882, -66.28037696471438, 0.4000000189989805, 0.0, 0.8960000425577164, 0.0, 0.0, 0.0, 0.0, 0.0, 1.650668381775623E9, 0.0, 2022-04-22 17:59:41.775
61.0, -104.63492096029222, -200.8401074204594, -151.99140414921567, -53.961146510671824, 0.4000000189989805, -0.01600000075995922, 0.8960000425577164, 0.0, 0.0, 0.0, 0.0, 0.0, 1.6506683817763107E9, 0.0, 2022-04-22 17:59:41.776
61.0, -106.34031534008682, -199.18333174008876, -158.3941128733568, -66.75908415904269, 0.4000000189989805, -0.01600000075995922, 0.8960000425577164, 0.0, 0.0, 0.0, 0.0, 0.0, 1.6506683817763107E9, 0.0, 2022-04-22 17:59:41.776
62.0, -131.25926874484867, -210.49652910605073, -166.34514017915353, -107.86432457203045, 0.4000000189989805, -0.01600000075995922, 0.8960000425577164, 0.0, 0.0, 0.0, 0.0, 0.0, 1.6506683817899275E9, 0.0, 2022-04-22 17:59:41.789
62.0, -129.96152346022427, -209.7298496151343, -155.8322814037092, -111.72016142634675, 0.4000000189989805, -0.01600000075995922, 0.8960000425577164, 0.0, 0.0, 0.0, 0.0, 0.0, 1.6506683817899275E9, 0.0, 2022-04-22 17:59:41.789
63.0, -111.2395842820406, -195.30505548603833, -152.23075774637982, -79.99833000218496, 0.4000000189989805, -0.01600000075995922, 0.8960000425577164, 0.0, 0.0, 0.0, 0.0, 0.0, 1.6506683818054276E9, 0.0, 2022-04-22 17:59:41.805
63.0, -114.6092341421172, -200.42123862542212, -153.30410903366283, -81.05298178968951, 0.4000000189989805, -0.01600000075995922, 0.8960000425577164, 0.0, 0.0, 0.0, 0.0, 0.0, 1.6506683818054276E9, 0.0, 2022-04-22 17:59:41.805
64.0, -116.23235072288662, -200.92986501939595, -152.52994974283502, -80.51443619607016, 0.4000000189989805, -0.01600000075995922, 0.8960000425577164, 0.0, 0.0, 0.0, 0.0, 0.0, 1.6506683818205335E9, 0.0, 2022-04-22 17:59:41.820
64.0, -112.48123106732965, -204.9539973717183, -144.37322793947533, -84.06734115397558, 0.4000000189989805, -0.01600000075995922, 0.8960000425577164, 0.0, 0.0, 0.0, 0.0, 0.0, 1.6506683818205335E9, 0.0, 2022-04-22 17:59:41.820
65.0, -101.50088479742408, -202.25378960371017, -143.76362424669787, -73.99579057330266, 0.4000000189989805, -0.01600000075995922, 0.8960000425577164, 0.0, 0.0, 0.0, 0.0, 0.0, 1.650668381821354E9, 0.0, 2022-04-22 17:59:41.821
65.0, -126.60683319997042, -211.52500159386545, -151.40423985617235, -95.3580991202034, 0.4000000189989805, -0.01600000075995922, 0.8960000425577164, 0.0, 0.0, 0.0, 0.0, 0.0, 1.650668381821354E9, 0.0, 2022-04-22 17:59:41.821
66.0, -129.8792456611991, -226.2938665188849, -155.22267771093175, -110.49721414083615, 0.4000000189989805, -0.01600000075995922, 0.8960000425577164, 0.0, 0.0, 0.0, 0.0, 0.0, 1.650668381835565E9, 0.0, 2022-04-22 17:59:41.835
66.0, -104.89671395719051, -215.6575910449028, -150.74601746397093, -99.04564047651365, 0.4000000189989805, -0.01600000075995922, 0.8960000425577164, 0.0, 0.0, 0.0, 0.0, 0.0, 1.650668381835565E9, 0.0, 2022-04-22 17:59:41.835
67.0, -114.70647154096514, -225.89369722362608, -158.85412056790665, -87.9119583084248, 0.4000000189989805, -0.01600000075995922, 0.8960000425577164, 0.0, 0.0, 0.0, 0.0, 0.0, 1.6506683818362553E9, 0.0, 2022-04-22 17:59:41.836
67.0, -99.53743732068688, -197.75468995701522, -128.7142668250017, -54.52213150402531, 0.4000000189989805, -0.01600000075995922, 0.8960000425577164, 0.0, 0.0, 0.0, 0.0, 0.0, 1.6506683818362553E9, 0.0, 2022-04-22 17:59:41.836
68.0, -92.86171589978039, -203.1289261933416, -131.39577509323135, -101.02404755307361, 0.4000000189989805, -0.01600000075995922, 0.8960000425577164, 0.0, 0.0, 0.0, 0.0, 0.0, 1.650668381849884E9, 0.0, 2022-04-22 17:59:41.849
68.0, -114.9832241376862, -217.22834902629256, -144.18623294169083, -97.26918799756095, 0.4000000189989805, -0.01600000075995922, 0.8960000425577164, 0.0, 0.0, 0.0, 0.0, 0.0, 1.650668381849884E9, 0.0, 2022-04-22 17:59:41.849
69.0, -119.40378588531166, -224.50245444010943, -145.0127508318983, -89.83426688564941, 0.4000000189989805, -0.01600000075995922, 0.8960000425577164, 0.0, 0.0, 0.0, 0.0, 0.0, 1.6506683818655567E9, 0.0, 2022-04-22 17:59:41.865
69.0, -113.77149655204266, -220.20530939102173, -151.51269695488736, -88.37570590293035, 0.4000000189989805, -0.01600000075995922, 0.8960000425577164, 0.0, 0.0, 0.0, 0.0, 0.0, 1.6506683818655567E9, 0.0, 2022-04-22 17:59:41.865
70.0, -93.74059238936752, -196.26246987469494, -142.16668696561828, -87.68382441112772, 0.4000000189989805, -0.01600000075995922, 0.9120000433176756, 0.0, 0.0, 0.0, 0.0, 0.0, 1.6506683818662615E9, 0.0, 2022-04-22 17:59:41.866
