%OpenBCI Raw EEG Data
%Number of channels = 4
%Sample Rate = 200 Hz
%Board = OpenBCI_GUI$BoardGanglionBLE
Sample Index, EXG Channel 0, EXG Channel 1, EXG Channel 2, EXG Channel 3, Accel Channel 0, Accel Channel 1, Accel Channel 2, Other, Other, Other, Other, Other, Timestamp, Other, Timestamp (Formatted)
0.0, 518.580137705896, 498.52679414348677, 178.03419749066234, 813.1570976157673, 0.0, 0.0, 0.0, 0.0, 0.0, 0.0, 0.0, 0.0, 1.636073418413144E9, 0.0, 2021-11-04 19:50:18.413
1.0, 524.5190988355316, 508.42630932619795, 179.83308936934918, 814.2678479026072, 0.0, 0.1600000075995922, 0.0, 0.0, 0.0, 0.0, 0.0, 0.0, 1.636073418426472E9, 0.0, 2021-11-04 19:50:18.426
1.0, 541.3523885360919, 507.01262714294717, 161.75441298354417, 814.1556509039365, 0.0, 0.1600000075995922, 0.0, 0.0, 0.0, 0.0, 0.0, 0.0, 1.636073418426472E9, 0.0, 2021-11-04 19:50:18.426
2.0, 522.765085756313, 509.6978753111325, 161.76189278345555, 817.6300179627724, -0.01600000075995922, 0.1600000075995922, 0.0, 0.0, 0.0, 0.0, 0.0, 0.0, 1.6360734184428885E9, 0.0, 2021-11-04 19:50:18.442
2.0, 544.849194994662, 519.1486024991609, 186.40035369154066, 829.0965512269177, -0.01600000075995922, 0.1600000075995922, 0.0, 0.0, 0.0, 0.0, 0.0, 0.0, 1.6360734184428885E9, 0.0, 2021-11-04 19:50:18.442
3.0, 533.5659168283455, 516.4259553314187, 168.60590970236808, 827.42855584668, -0.01600000075995922, 0.1600000075995922, 0.0, 0.0, 0.0, 0.0, 0.0, 0.0, 1.636073418456906E9, 0.0, 2021-11-04 19:50:18.456
3.0, 520.2705724858679, 504.5218537724577, 167.76069231238216, 822.8097794014029, -0.01600000075995922, 0.1600000075995922, 0.0, 0.0, 0.0, 0.0, 0.0, 0.0, 1.636073418456906E9, 0.0, 2021-11-04 19:50:18.456
4.0, 550.6198606262915, 516.7887256271206, 179.54885697271675, 834.8746966584586, -0.01600000075995922, 0.1600000075995922, 0.0, 0.0, 0.0, 0.0, 0.0, 0.0, 1.6360734184576163E9, 0.0, 2021-11-04 19:50:18.457
4.0, 562.4753434858285, 512.0091334837489, 171.13408207241446, 830.0053469161503, -0.01600000075995922, 0.1600000075995922, 0.0, 0.0, 0.0, 0.0, 0.0, 0.0, 1.6360734184576163E9, 0.0, 2021-11-04 19:50:18.457
5.0, 561.6862245951779, 519.6347894934006, 154.58502476848662, 837.8142580236308, -0.01600000075995922, 0.1600000075995922, 0.0, 0.0, 0.0, 0.0, 0.0, 0.0, 1.6360734184719067E9, 0.0, 2021-11-04 19:50:18.471
5.0, 565.0708340550773, 511.79595918627456, 188.62933406513184, 838.8539502113126, -0.01600000075995922, 0.1600000075995922, 0.0, 0.0, 0.0, 0.0, 0.0, 0.0, 1.6360734184719067E9, 0.0, 2021-11-04 19:50:18.471
6.0, 537.0477636870928, 515.3750434438698, 181.32904935162514, 840.2339732949622, -0.01600000075995922, 0.1600000075995922, 0.0, 0.0, 0.0, 0.0, 0.0, 0.0, 1.636073418472733E9, 0.0, 2021-11-04 19:50:18.472
6.0, 566.5256551378407, 517.7573597156443, 185.2335049053654, 838.8053315118887, -0.01600000075995922, 0.1600000075995922, 0.0, 0.0, 0.0, 0.0, 0.0, 0.0, 1.636073418472733E9, 0.0, 2021-11-04 19:50:18.472
7.0, 583.2243084399961, 521.6730349692516, 195.17789888754487, 844.9350275392644, -0.01600000075995922, 0.1600000075995922, 0.0, 0.0, 0.0, 0.0, 0.0, 0.0, 1.6360734184862554E9, 0.0, 2021-11-04 19:50:18.486
7.0, 572.8460860629566, 531.3219768549316, 199.14593274053186, 841.5653776791878, -0.01600000075995922, 0.1600000075995922, 0.0, 0.0, 0.0, 0.0, 0.0, 0.0, 1.6360734184862554E9, 0.0, 2021-11-04 19:50:18.486
8.0, 568.9154512095265, 535.2189526087604, 192.8329816153273, 840.0955969966017, -0.01600000075995922, 0.1600000075995922, 0.0, 0.0, 0.0, 0.0, 0.0, 0.0, 1.6360734185019977E9, 0.0, 2021-11-04 19:50:18.501
8.0, 579.5218074838631, 522.910941854585, 172.24109245929867, 838.6145966141485, -0.01600000075995922, 0.1600000075995922, 0.0, 0.0, 0.0, 0.0, 0.0, 0.0, 1.6360734185019977E9, 0.0, 2021-11-04 19:50:18.501
9.0, 596.1793218865059, 525.8991219191812, 186.83792198635638, 836.2210606425069, -0.01600000075995922, 0.1600000075995922, 0.0, 0.0, 0.0, 0.0, 0.0, 0.0, 1.636073418502879E9, 0.0, 2021-11-04 19:50:18.502
9.0, 598.3559436607175, 538.9999914639629, 162.23312017787248, 830.9926805044524, -0.01600000075995922, 0.1600000075995922, 0.0, 0.0, 0.0, 0.0, 0.0, 0.0, 1.636073418502879E9, 0.0, 2021-11-04 19:50:18.502
10.0, 573.1153588597663, 541.4645855347626, 159.47307401057333, 830.334458112251, -0.01600000075995922, 0.1600000075995922, 0.49600002355873585, 0.0, 0.0, 0.0, 0.0, 0.0, 1.6360734185162215E9, 0.0, 2021-11-04 19:50:18.516
10.0, 568.1225924189202, 543.6636467087083, 200.0958673292771, 827.6118109445088, -0.01600000075995922, 0.1600000075995922, 0.49600002355873585, 0.0, 0.0, 0.0, 0.0, 0.0, 1.6360734185162215E9, 0.0, 2021-11-04 19:50:18.516
11.0, 594.0400991118513, 530.7460322617553, 194.34016129747033, 824.062645886559, -0.01600000075995922, 0.1600000075995922, 0.49600002355873585, 0.0, 0.0, 0.0, 0.0, 0.0, 1.636073418548282E9, 0.0, 2021-11-04 19:50:18.548
11.0, 581.380537761841, 516.8597837262787, 173.95770653896034, 814.0247544054873, -0.01600000075995922, 0.1600000075995922, 0.49600002355873585, 0.0, 0.0, 0.0, 0.0, 0.0, 1.636073418548282E9, 0.0, 2021-11-04 19:50:18.548
12.0, 564.6070864605717, 519.0214459006675, 183.22891852911562, 821.0557663221844, -0.01600000075995922, 0.1600000075995922, 0.49600002355873585, 0.0, 0.0, 0.0, 0.0, 0.0, 1.6360734185490017E9, 0.0, 2021-11-04 19:50:18.549
12.0, 582.5660860477947, 517.4880869188346, 183.30371652822942, 819.3728113421239, -0.01600000075995922, 0.1600000075995922, 0.49600002355873585, 0.0, 0.0, 0.0, 0.0, 0.0, 1.6360734185490017E9, 0.0, 2021-11-04 19:50:18.549
13.0, 579.7649009809829, 511.1452165939845, 181.2018927531317, 804.102799823042, -0.01600000075995922, 0.1600000075995922, 0.49600002355873585, 0.0, 0.0, 0.0, 0.0, 0.0, 1.6360734185498407E9, 0.0, 2021-11-04 19:50:18.549
13.0, 585.1952357166447, 512.0240930835716, 152.64027679152787, 805.9690099009313, -0.01600000075995922, 0.1600000075995922, 0.49600002355873585, 0.0, 0.0, 0.0, 0.0, 0.0, 1.6360734185498407E9, 0.0, 2021-11-04 19:50:18.549
14.0, 590.1057243584655, 513.7818460627459, 150.6319505153224, 800.0562280709855, -0.01600000075995922, 0.1600000075995922, 0.49600002355873585, 0.0, 0.0, 0.0, 0.0, 0.0, 1.6360734185505223E9, 0.0, 2021-11-04 19:50:18.550
14.0, 568.5339814140461, 517.8545971144922, 163.42988816369325, 794.2145043401979, -0.01600000075995922, 0.1600000075995922, 0.49600002355873585, 0.0, 0.0, 0.0, 0.0, 0.0, 1.6360734185505223E9, 0.0, 2021-11-04 19:50:18.550
15.0, 560.1678252131678, 510.1092643062584, 164.97446684539318, 794.6296332352795, -0.01600000075995922, 0.1600000075995922, 0.49600002355873585, 0.0, 0.0, 0.0, 0.0, 0.0, 1.6360734185770755E9, 0.0, 2021-11-04 19:50:18.577
15.0, 577.9173904028721, 499.61510503059253, 150.89748341217637, 795.6581057230942, -0.01600000075995922, 0.1600000075995922, 0.49600002355873585, 0.0, 0.0, 0.0, 0.0, 0.0, 1.6360734185770755E9, 0.0, 2021-11-04 19:50:18.577
16.0, 587.6822691871785, 497.79751365212724, 159.36461691185832, 790.6802988820709, -0.01600000075995922, 0.1600000075995922, 0.49600002355873585, 0.0, 0.0, 0.0, 0.0, 0.0, 1.6360734185776775E9, 0.0, 2021-11-04 19:50:18.577
16.0, 567.7411226234399, 488.320607164409, 159.68998820800334, 788.9636848024093, -0.01600000075995922, 0.1600000075995922, 0.49600002355873585, 0.0, 0.0, 0.0, 0.0, 0.0, 1.6360734185776775E9, 0.0, 2021-11-04 19:50:18.577
17.0, 540.409933747258, 499.7273020292632, 149.05371273402125, 793.9639310431667, -0.01600000075995922, 0.1600000075995922, 0.49600002355873585, 0.0, 0.0, 0.0, 0.0, 0.0, 1.6360734185919375E9, 0.0, 2021-11-04 19:50:18.591
17.0, 565.2765285526402, 504.86592456838116, 167.13986891973764, 795.3327344269492, -0.01600000075995922, 0.1600000075995922, 0.49600002355873585, 0.0, 0.0, 0.0, 0.0, 0.0, 1.6360734185919375E9, 0.0, 2021-11-04 19:50:18.591
18.0, 547.9757513576187, 499.75348132895306, 146.89953035954386, 772.3622688991018, -0.01600000075995922, 0.1600000075995922, 0.49600002355873585, 0.0, 0.0, 0.0, 0.0, 0.0, 1.636073418592585E9, 0.0, 2021-11-04 19:50:18.592
18.0, 567.7897413228638, 478.9484178754501, 134.22874930966645, 777.2166590415873, -0.01600000075995922, 0.1600000075995922, 0.49600002355873585, 0.0, 0.0, 0.0, 0.0, 0.0, 1.636073418592585E9, 0.0, 2021-11-04 19:50:18.592
19.0, 548.6377136497758, 477.9797837869264, 153.0030470872298, 766.7075401660986, -0.01600000075995922, 0.1600000075995922, 0.49600002355873585, 0.0, 0.0, 0.0, 0.0, 0.0, 1.6360734186062732E9, 0.0, 2021-11-04 19:50:18.606
19.0, 548.3385216533206, 472.6466864501126, 147.20620215591043, 763.3640696057118, -0.01600000075995922, 0.1600000075995922, 0.49600002355873585, 0.0, 0.0, 0.0, 0.0, 0.0, 1.6360734186062732E9, 0.0, 2021-11-04 19:50:18.606
20.0, 531.9353204476647, 476.8839930999093, 101.65796059556305, 760.1402758439071, -0.01600000075995922, 0.1600000075995922, 0.49600002355873585, 0.0, 0.0, 0.0, 0.0, 0.0, 1.6360734186220088E9, 0.0, 2021-11-04 19:50:18.622
20.0, 533.2816844317131, 476.93635169928893, 104.83313565794379, 752.0920111392625, -0.01600000075995922, 0.1600000075995922, 0.49600002355873585, 0.0, 0.0, 0.0, 0.0, 0.0, 1.6360734186220088E9, 0.0, 2021-11-04 19:50:18.622
21.0, 543.992757904809, 478.3575136824511, 161.94140798132867, 749.5974978688173, -0.01600000075995922, 0.2400000113993883, 0.49600002355873585, 0.0, 0.0, 0.0, 0.0, 0.0, 1.636073418622638E9, 0.0, 2021-11-04 19:50:18.622
21.0, 523.6439622459002, 466.47585152322426, 148.3655711421743, 756.4302950878628, -0.01600000075995922, 0.2400000113993883, 0.49600002355873585, 0.0, 0.0, 0.0, 0.0, 0.0, 1.636073418622638E9, 0.0, 2021-11-04 19:50:18.622
22.0, 518.1911881105043, 464.2693105493672, 125.38762581441551, 756.5686713862233, -0.01600000075995922, 0.2400000113993883, 0.49600002355873585, 0.0, 0.0, 0.0, 0.0, 0.0, 1.6360734186525989E9, 0.0, 2021-11-04 19:50:18.652
22.0, 509.35006461525336, 457.2420385326259, 140.0704730404541, 753.7413070197217, -0.01600000075995922, 0.2400000113993883, 0.49600002355873585, 0.0, 0.0, 0.0, 0.0, 0.0, 1.6360734186525989E9, 0.0, 2021-11-04 19:50:18.652
23.0, 505.91683645593, 458.7080793152563, 135.4703960949555, 751.1233770507388, -0.01600000075995922, 0.2400000113993883, 0.49600002355873585, 0.0, 0.0, 0.0, 0.0, 0.0, 1.6360734186533582E9, 0.0, 2021-11-04 19:50:18.653
23.0, 540.7689641430043, 469.6435467856936, 105.51005754992366, 749.0402527754195, -0.01600000075995922, 0.2400000113993883, 0.49600002355873585, 0.0, 0.0, 0.0, 0.0, 0.0, 1.6360734186533582E9, 0.0, 2021-11-04 19:50:18.653
24.0, 552.5346894036047, 460.9707187884487, 120.97454386670142, 752.8960896297358, -0.01600000075995922, 0.2400000113993883, 0.49600002355873585, 0.0, 0.0, 0.0, 0.0, 0.0, 1.6360734186540685E9, 0.0, 2021-11-04 19:50:18.654
24.0, 554.7935889768414, 459.3924810071476, 121.23259696364403, 749.1038310746662, -0.01600000075995922, 0.2400000113993883, 0.49600002355873585, 0.0, 0.0, 0.0, 0.0, 0.0, 1.6360734186540685E9, 0.0, 2021-11-04 19:50:18.654
25.0, 545.0474096923135, 462.0852089752443, 143.31670620199293, 748.7821996784769, -0.01600000075995922, 0.2400000113993883, 0.49600002355873585, 0.0, 0.0, 0.0, 0.0, 0.0, 1.6360734186662047E9, 0.0, 2021-11-04 19:50:18.666
25.0, 523.9132350427099, 458.4313267185353, 141.30837992578745, 748.1464166860096, -0.01600000075995922, 0.2400000113993883, 0.49600002355873585, 0.0, 0.0, 0.0, 0.0, 0.0, 1.6360734186662047E9, 0.0, 2021-11-04 19:50:18.666
26.0, 541.9395528291352, 459.36630170745775, 124.0936204297468, 748.8382981778122, -0.01600000075995922, 0.2400000113993883, 0.49600002355873585, 0.0, 0.0, 0.0, 0.0, 0.0, 1.6360734186819153E9, 0.0, 2021-11-04 19:50:18.681
26.0, 546.3638544767164, 453.92474727192894, 134.1726508103311, 744.017567134928, -0.01600000075995922, 0.2400000113993883, 0.49600002355873585, 0.0, 0.0, 0.0, 0.0, 0.0, 1.6360734186819153E9, 0.0, 2021-11-04 19:50:18.681
27.0, 543.3906340119429, 467.56042251037434, 142.20221601519734, 739.4848083886318, -0.01600000075995922, 0.2400000113993883, 0.49600002355873585, 0.0, 0.0, 0.0, 0.0, 0.0, 1.6360734186826632E9, 0.0, 2021-11-04 19:50:18.682
27.0, 528.0346047938801, 447.6791143459268, 132.280261432752, 748.3857702831738, -0.01600000075995922, 0.2400000113993883, 0.49600002355873585, 0.0, 0.0, 0.0, 0.0, 0.0, 1.6360734186826632E9, 0.0, 2021-11-04 19:50:18.682
28.0, 526.998652506154, 466.8423617188819, 124.89395902026445, 743.1910492447205, -0.01600000075995922, 0.2400000113993883, 0.49600002355873585, 0.0, 0.0, 0.0, 0.0, 0.0, 1.6360734186963089E9, 0.0, 2021-11-04 19:50:18.696
28.0, 538.528764069546, 463.3418153603561, 113.39750655647367, 741.9082635599189, -0.01600000075995922, 0.2400000113993883, 0.49600002355873585, 0.0, 0.0, 0.0, 0.0, 0.0, 1.6360734186963089E9, 0.0, 2021-11-04 19:50:18.696
29.0, 544.1647933027707, 461.21381228556857, 106.32909564021975, 744.7431077263318, -0.01600000075995922, 0.2400000113993883, 0.49600002355873585, 0.0, 0.0, 0.0, 0.0, 0.0, 1.6360734187120316E9, 0.0, 2021-11-04 19:50:18.712
29.0, 545.9150664820336, 454.17532056896016, 129.41923796664923, 741.9344428596087, -0.01600000075995922, 0.2400000113993883, 0.49600002355873585, 0.0, 0.0, 0.0, 0.0, 0.0, 1.6360734187120316E9, 0.0, 2021-11-04 19:50:18.712
30.0, 505.7784601575695, 450.43168071331456, 137.61335876956582, 745.4910877174698, -0.01600000075995922, 0.2400000113993883, 0.7360000349581242, 0.0, 0.0, 0.0, 0.0, 0.0, 1.6360734187135863E9, 0.0, 2021-11-04 19:50:18.713
30.0, 557.4825770449825, 455.18135365704075, 151.34627140685916, 746.5158203053288, -0.01600000075995922, 0.2400000113993883, 0.7360000349581242, 0.0, 0.0, 0.0, 0.0, 0.0, 1.6360734187135863E9, 0.0, 2021-11-04 19:50:18.713
31.0, 561.648825595621, 470.241930778604, 137.33660617284477, 737.1286714165471, -0.01600000075995922, 0.288000013679266, 0.7360000349581242, 0.0, 0.0, 0.0, 0.0, 0.0, 1.636073418726312E9, 0.0, 2021-11-04 19:50:18.726
31.0, 558.428771733772, 457.7544048265554, 130.36543265543878, 741.7025690623559, -0.01600000075995922, 0.288000013679266, 0.7360000349581242, 0.0, 0.0, 0.0, 0.0, 0.0, 1.636073418726312E9, 0.0, 2021-11-04 19:50:18.726
32.0, 551.1359668201767, 464.8415152425878, 137.05985357612371, 739.0995986931957, -0.01600000075995922, 0.288000013679266, 0.7360000349581242, 0.0, 0.0, 0.0, 0.0, 0.0, 1.6360734187424548E9, 0.0, 2021-11-04 19:50:18.742
32.0, 543.8992604059167, 469.8417614833452, 135.96032298915088, 737.5026614121161, -0.01600000075995922, 0.288000013679266, 0.7360000349581242, 0.0, 0.0, 0.0, 0.0, 0.0, 1.6360734187424548E9, 0.0, 2021-11-04 19:50:18.742
33.0, 535.8135967017151, 464.609641445335, 109.45191210322082, 729.4431770076044, -0.01600000075995922, 0.288000013679266, 0.7360000349581242, 0.0, 0.0, 0.0, 0.0, 0.0, 1.6360734187733972E9, 0.0, 2021-11-04 19:50:18.773
33.0, 561.9928963915445, 459.0147511116229, 106.31787594035268, 734.1853701514192, -0.01600000075995922, 0.288000013679266, 0.7360000349581242, 0.0, 0.0, 0.0, 0.0, 0.0, 1.6360734187733972E9, 0.0, 2021-11-04 19:50:18.773
34.0, 567.8047009226866, 469.6846856852062, 130.48136955406517, 730.1986367986538, -0.01600000075995922, 0.288000013679266, 0.7360000349581242, 0.0, 0.0, 0.0, 0.0, 0.0, 1.6360734187740984E9, 0.0, 2021-11-04 19:50:18.774
34.0, 559.7863554176874, 460.66778689203784, 135.41803749557585, 735.6775902337395, -0.01600000075995922, 0.288000013679266, 0.7360000349581242, 0.0, 0.0, 0.0, 0.0, 0.0, 1.6360734187740984E9, 0.0, 2021-11-04 19:50:18.774
35.0, 572.7264092643745, 468.15132670337334, 133.72012291569263, 740.3636848782189, -0.01600000075995922, 0.288000013679266, 0.7360000349581242, 0.0, 0.0, 0.0, 0.0, 0.0, 1.636073418775264E9, 0.0, 2021-11-04 19:50:18.775
35.0, 564.2330964650027, 466.4982909229584, 147.13140415679663, 742.1513570570387, -0.01600000075995922, 0.288000013679266, 0.7360000349581242, 0.0, 0.0, 0.0, 0.0, 0.0, 1.636073418775264E9, 0.0, 2021-11-04 19:50:18.775
36.0, 566.8098875344731, 480.3284409590997, 137.0673333760351, 744.4700950295664, -0.01600000075995922, 0.288000013679266, 0.7360000349581242, 0.0, 0.0, 0.0, 0.0, 0.0, 1.6360734187756305E9, 0.0, 2021-11-04 19:50:18.775
36.0, 573.0405608606525, 479.86469336459413, 158.21646762546152, 734.0469938530587, -0.01600000075995922, 0.288000013679266, 0.7360000349581242, 0.0, 0.0, 0.0, 0.0, 0.0, 1.6360734187756305E9, 0.0, 2021-11-04 19:50:18.775
37.0, 577.2591680106707, 479.9843701631762, 163.5271255625412, 737.8579519079067, -0.01600000075995922, 0.288000013679266, 0.7360000349581242, 0.0, 0.0, 0.0, 0.0, 0.0, 1.6360734187862916E9, 0.0, 2021-11-04 19:50:18.786
37.0, 573.4781291554682, 480.60519355582073, 146.0692725693807, 743.2434078441001, -0.01600000075995922, 0.288000013679266, 0.7360000349581242, 0.0, 0.0, 0.0, 0.0, 0.0, 1.6360734187862916E9, 0.0, 2021-11-04 19:50:18.786
38.0, 580.681176470127, 477.1719653964974, 139.71892244461924, 744.2120419326238, -0.01600000075995922, 0.288000013679266, 0.7360000349581242, 0.0, 0.0, 0.0, 0.0, 0.0, 1.6360734188019707E9, 0.0, 2021-11-04 19:50:18.801
38.0, 581.5263938601129, 482.5499415327795, 146.4357827650383, 747.5106336935423, -0.01600000075995922, 0.288000013679266, 0.7360000349581242, 0.0, 0.0, 0.0, 0.0, 0.0, 1.6360734188019707E9, 0.0, 2021-11-04 19:50:18.801
39.0, 578.6130117946304, 480.5790142561309, 137.01871467661113, 754.2349738138728, -0.01600000075995922, 0.288000013679266, 0.7360000349581242, 0.0, 0.0, 0.0, 0.0, 0.0, 1.6360734188027034E9, 0.0, 2021-11-04 19:50:18.802
39.0, 563.5599144729786, 476.1247934089042, 161.4514810871333, 743.594958439935, -0.01600000075995922, 0.288000013679266, 0.7360000349581242, 0.0, 0.0, 0.0, 0.0, 0.0, 1.6360734188027034E9, 0.0, 2021-11-04 19:50:18.802
40.0, 563.0625077788718, 478.07328128581867, 157.2553133368492, 746.646716803778, -0.01600000075995922, 0.288000013679266, 0.8480000402778387, 0.0, 0.0, 0.0, 0.0, 0.0, 1.6360734188162649E9, 0.0, 2021-11-04 19:50:18.816
40.0, 559.4086255221628, 479.7188372663222, 147.31091935466975, 748.1389368860982, -0.01600000075995922, 0.288000013679266, 0.8480000402778387, 0.0, 0.0, 0.0, 0.0, 0.0, 1.6360734188162649E9, 0.0, 2021-11-04 19:50:18.816
41.0, 570.115959095303, 478.08450098568574, 127.38099249079823, 737.0202143178321, -0.01600000075995922, 0.3040000144392252, 0.8480000402778387, 0.0, 0.0, 0.0, 0.0, 0.0, 1.6360734188319752E9, 0.0, 2021-11-04 19:50:18.831
41.0, 566.0357282436453, 479.00077647482976, 120.88478626776487, 731.9937887773849, -0.01600000075995922, 0.3040000144392252, 0.8480000402778387, 0.0, 0.0, 0.0, 0.0, 0.0, 1.6360734188319752E9, 0.0, 2021-11-04 19:50:18.831
42.0, 552.0672019091435, 475.765763013158, 128.15515178162605, 738.6059318990447, -0.03200000151991844, 0.3040000144392252, 0.8480000402778387, 0.0, 0.0, 0.0, 0.0, 0.0, 1.6360734188326907E9, 0.0, 2021-11-04 19:50:18.832
42.0, 579.3086331863888, 473.04685574537143, 123.18856464046985, 740.8461319725029, -0.03200000151991844, 0.3040000144392252, 0.8480000402778387, 0.0, 0.0, 0.0, 0.0, 0.0, 1.6360734188326907E9, 0.0, 2021-11-04 19:50:18.832
43.0, 582.1920960522257, 460.7164055914618, 125.7242168104276, 723.1302258823998, -0.03200000151991844, 0.3040000144392252, 0.8480000402778387, 0.0, 0.0, 0.0, 0.0, 0.0, 1.636073418846263E9, 0.0, 2021-11-04 19:50:18.846
43.0, 573.6090256539173, 453.8200300731696, 132.81880702637136, 732.0910261762328, -0.03200000151991844, 0.3040000144392252, 0.8480000402778387, 0.0, 0.0, 0.0, 0.0, 0.0, 1.636073418846263E9, 0.0, 2021-11-04 19:50:18.846
44.0, 543.83568210667, 464.58346214564517, 150.5945515157655, 744.2905798316933, -0.03200000151991844, 0.3040000144392252, 0.8480000402778387, 0.0, 0.0, 0.0, 0.0, 0.0, 1.6360734188783517E9, 0.0, 2021-11-04 19:50:18.878
44.0, 561.7535427943803, 457.6758669274859, 131.24056924507022, 737.311926514376, -0.03200000151991844, 0.3040000144392252, 0.8480000402778387, 0.0, 0.0, 0.0, 0.0, 0.0, 1.6360734188783517E9, 0.0, 2021-11-04 19:50:18.878
45.0, 561.1925578010269, 456.1686872453429, 140.35096553713083, 717.520375948865, -0.03200000151991844, 0.3040000144392252, 0.8480000402778387, 0.0, 0.0, 0.0, 0.0, 0.0, 1.6360734188791158E9, 0.0, 2021-11-04 19:50:18.879
45.0, 557.6658321428113, 458.11343522230163, 103.45311257429421, 719.3753663268872, -0.03200000151991844, 0.3040000144392252, 0.8480000402778387, 0.0, 0.0, 0.0, 0.0, 0.0, 1.6360734188791158E9, 0.0, 2021-11-04 19:50:18.879
46.0, 528.0009456942789, 452.9000146840699, 149.45762192923576, 716.2712493636645, -0.03200000151991844, 0.3040000144392252, 0.8480000402778387, 0.0, 0.0, 0.0, 0.0, 0.0, 1.6360734188797967E9, 0.0, 2021-11-04 19:50:18.879
46.0, 554.9880637745373, 451.0151051064022, 119.01109638996422, 724.7907414627261, -0.03200000151991844, 0.3040000144392252, 0.8480000402778387, 0.0, 0.0, 0.0, 0.0, 0.0, 1.6360734188797967E9, 0.0, 2021-11-04 19:50:18.879
47.0, 563.0587678789161, 443.25481269834563, 130.90397824905813, 721.656705299858, -0.03200000151991844, 0.3040000144392252, 0.8480000402778387, 0.0, 0.0, 0.0, 0.0, 0.0, 1.636073418880504E9, 0.0, 2021-11-04 19:50:18.880
47.0, 563.0026693795808, 444.21222708700225, 135.8406461905688, 711.3944198214449, -0.03200000151991844, 0.3040000144392252, 0.8480000402778387, 0.0, 0.0, 0.0, 0.0, 0.0, 1.636073418880504E9, 0.0, 2021-11-04 19:50:18.880
48.0, 546.8126424713992, 454.20897966856137, 134.800954002887, 708.3800604571588, -0.03200000151991844, 0.3040000144392252, 0.8480000402778387, 0.0, 0.0, 0.0, 0.0, 0.0, 1.6360734188912885E9, 0.0, 2021-11-04 19:50:18.891
48.0, 545.9898644811474, 439.79914513928816, 109.47061160299927, 717.6849315469153, -0.03200000151991844, 0.3040000144392252, 0.8480000402778387, 0.0, 0.0, 0.0, 0.0, 0.0, 1.6360734188912885E9, 0.0, 2021-11-04 19:50:18.891
49.0, 541.7226386317052, 441.6055168178864, 116.73349731694907, 719.4052855265327, -0.03200000151991844, 0.3040000144392252, 0.8480000402778387, 0.0, 0.0, 0.0, 0.0, 0.0, 1.6360734189062836E9, 0.0, 2021-11-04 19:50:18.906
49.0, 560.1005070139654, 435.0457322956063, 137.2842475734651, 704.4980443031527, -0.03200000151991844, 0.3040000144392252, 0.8480000402778387, 0.0, 0.0, 0.0, 0.0, 0.0, 1.6360734189062836E9, 0.0, 2021-11-04 19:50:18.906
50.0, 563.6421922720037, 448.54303123569116, 133.05442072357982, 707.3777672690339, -0.03200000151991844, 0.3040000144392252, 0.9120000433176756, 0.0, 0.0, 0.0, 0.0, 0.0, 1.636073418922046E9, 0.0, 2021-11-04 19:50:18.922
50.0, 532.6758206388913, 453.9471866716631, 132.64677162840962, 712.3181751105003, -0.03200000151991844, 0.3040000144392252, 0.9120000433176756, 0.0, 0.0, 0.0, 0.0, 0.0, 1.636073418922046E9, 0.0, 2021-11-04 19:50:18.922
51.0, 537.4815920819528, 449.6500416225754, 126.37121950276196, 712.5537888077088, -0.03200000151991844, 0.3200000151991844, 0.9120000433176756, 0.0, 0.0, 0.0, 0.0, 0.0, 1.6360734189227617E9, 0.0, 2021-11-04 19:50:18.922
51.0, 526.5910034109838, 442.55171150667593, 115.73494402877986, 710.5679019312374, -0.03200000151991844, 0.3200000151991844, 0.9120000433176756, 0.0, 0.0, 0.0, 0.0, 0.0, 1.6360734189227617E9, 0.0, 2021-11-04 19:50:18.922
52.0, 581.5750125595368, 445.27809857437387, 141.27846072614193, 721.1929577053525, -0.03200000151991844, 0.3200000151991844, 0.9120000433176756, 0.0, 0.0, 0.0, 0.0, 0.0, 1.6360734189361959E9, 0.0, 2021-11-04 19:50:18.936
52.0, 563.1298259780742, 431.7508804346435, 124.86029992066324, 716.5405221604742, -0.03200000151991844, 0.3200000151991844, 0.9120000433176756, 0.0, 0.0, 0.0, 0.0, 0.0, 1.6360734189361959E9, 0.0, 2021-11-04 19:50:18.936
53.0, 567.5055089262314, 424.46181542100385, 117.27204291056842, 722.0381750953384, -0.03200000151991844, 0.3200000151991844, 0.9120000433176756, 0.0, 0.0, 0.0, 0.0, 0.0, 1.6360734189520173E9, 0.0, 2021-11-04 19:50:18.952
53.0, 563.9974827677943, 446.62446255842224, 109.53792980220169, 715.6279865712859, -0.03200000151991844, 0.3200000151991844, 0.9120000433176756, 0.0, 0.0, 0.0, 0.0, 0.0, 1.6360734189520173E9, 0.0, 2021-11-04 19:50:18.952
54.0, 555.751003365498, 442.05804471252486, 115.91819912660867, 699.9316264572553, -0.03200000151991844, 0.3200000151991844, 0.9120000433176756, 0.0, 0.0, 0.0, 0.0, 0.0, 1.6360734189527464E9, 0.0, 2021-11-04 19:50:18.952
54.0, 544.0114574045874, 435.69647488789633, 114.81492863968015, 693.809410229791, -0.03200000151991844, 0.3200000151991844, 0.9120000433176756, 0.0, 0.0, 0.0, 0.0, 0.0, 1.6360734189527464E9, 0.0, 2021-11-04 19:50:18.952
55.0, 536.7897105901502, 441.68779461691156, 117.91156580299139, 690.3462628708221, -0.03200000151991844, 0.3200000151991844, 0.9120000433176756, 0.0, 0.0, 0.0, 0.0, 0.0, 1.6360734189662628E9, 0.0, 2021-11-04 19:50:18.966
55.0, 543.7309649079107, 435.9620077847503, 134.97298940084875, 695.316589911934, -0.03200000151991844, 0.3200000151991844, 0.9120000433176756, 0.0, 0.0, 0.0, 0.0, 0.0, 1.6360734189662628E9, 0.0, 2021-11-04 19:50:18.966
56.0, 543.4467325112782, 437.9366749613546, 123.3942591380328, 689.0672170859762, -0.03200000151991844, 0.3200000151991844, 0.9120000433176756, 0.0, 0.0, 0.0, 0.0, 0.0, 1.636073418996752E9, 0.0, 2021-11-04 19:50:18.996
56.0, 555.3620537701063, 426.53745989641175, 77.79739887826145, 681.9763667699881, -0.03200000151991844, 0.3200000151991844, 0.9120000433176756, 0.0, 0.0, 0.0, 0.0, 0.0, 1.636073418996752E9, 0.0, 2021-11-04 19:50:18.996
57.0, 522.656628657598, 433.3066788162105, 112.27927646972239, 691.8010839535855, -0.03200000151991844, 0.3200000151991844, 0.9120000433176756, 0.0, 0.0, 0.0, 0.0, 0.0, 1.6360734190133057E9, 0.0, 2021-11-04 19:50:19.013
57.0, 550.1448933319189, 451.8678022962995, 113.10579435992986, 703.0881020198576, -0.03200000151991844, 0.3200000151991844, 0.9120000433176756, 0.0, 0.0, 0.0, 0.0, 0.0, 1.6360734190133057E9, 0.0, 2021-11-04 19:50:19.013
58.0, 541.3561284360476, 433.6993683115579, 97.83952274080366, 710.4631847324781, -0.03200000151991844, 0.3200000151991844, 0.9120000433176756, 0.0, 0.0, 0.0, 0.0, 0.0, 1.6360734190140393E9, 0.0, 2021-11-04 19:50:19.014
58.0, 567.0567209315486, 436.3733967798762, 98.19855313654989, 699.0527499676682, -0.03200000151991844, 0.3200000151991844, 0.9120000433176756, 0.0, 0.0, 0.0, 0.0, 0.0, 1.6360734190140393E9, 0.0, 2021-11-04 19:50:19.014
59.0, 570.1047393954359, 434.4024695032276, 120.93714486714453, 690.5145583688281, -0.03200000151991844, 0.3200000151991844, 0.9120000433176756, 0.0, 0.0, 0.0, 0.0, 0.0, 1.6360734190147722E9, 0.0, 2021-11-04 19:50:19.014
59.0, 560.3697798107751, 434.72784079937264, 126.96212369576097, 689.7291793781333, -0.03200000151991844, 0.3200000151991844, 0.9120000433176756, 0.0, 0.0, 0.0, 0.0, 0.0, 1.6360734190147722E9, 0.0, 2021-11-04 19:50:19.014
60.0, 535.3872481067665, 417.64397780178115, 104.04401676729321, 694.5499104210176, -0.03200000151991844, 0.3200000151991844, 0.944000044837594, 0.0, 0.0, 0.0, 0.0, 0.0, 1.636073419015555E9, 0.0, 2021-11-04 19:50:19.015
60.0, 551.0200299215503, 442.0131659130566, 92.79065780062228, 707.123454072047, -0.03200000151991844, 0.3200000151991844, 0.944000044837594, 0.0, 0.0, 0.0, 0.0, 0.0, 1.636073419015555E9, 0.0, 2021-11-04 19:50:19.015
61.0, 543.2597375134937, 442.4095953083597, 132.6168524287641, 699.8418688583188, -0.03200000151991844, 0.3200000151991844, 0.944000044837594, 0.0, 0.0, 0.0, 0.0, 0.0, 1.636073419026286E9, 0.0, 2021-11-04 19:50:19.026
61.0, 552.3963131052442, 435.3337045921944, 112.36903406865895, 700.8292024466209, -0.03200000151991844, 0.3200000151991844, 0.944000044837594, 0.0, 0.0, 0.0, 0.0, 0.0, 1.636073419026286E9, 0.0, 2021-11-04 19:50:19.026
62.0, 545.5522961863317, 434.3426311039366, 97.61886864341795, 702.6580135249533, -0.01600000075995922, 0.3200000151991844, 0.944000044837594, 0.0, 0.0, 0.0, 0.0, 0.0, 1.6360734190419712E9, 0.0, 2021-11-04 19:50:19.041
62.0, 546.4610918755643, 444.1561285876669, 101.47844539768994, 701.479945038911, -0.01600000075995922, 0.3200000151991844, 0.944000044837594, 0.0, 0.0, 0.0, 0.0, 0.0, 1.6360734190419712E9, 0.0, 2021-11-04 19:50:19.041
63.0, 571.2229694821872, 442.1141432118602, 101.37372819893062, 700.4589523510076, -0.01600000075995922, 0.3200000151991844, 0.944000044837594, 0.0, 0.0, 0.0, 0.0, 0.0, 1.636073419042648E9, 0.0, 2021-11-04 19:50:19.042
63.0, 548.8321884474717, 434.17433560593054, 116.60634071845561, 706.6110877781175, -0.01600000075995922, 0.3200000151991844, 0.944000044837594, 0.0, 0.0, 0.0, 0.0, 0.0, 1.636073419042648E9, 0.0, 2021-11-04 19:50:19.042
64.0, 542.6800530203618, 450.70095351012424, 125.0211156187579, 691.4869323573075, -0.01600000075995922, 0.3200000151991844, 0.944000044837594, 0.0, 0.0, 0.0, 0.0, 0.0, 1.6360734190562096E9, 0.0, 2021-11-04 19:50:19.056
64.0, 577.4461630084552, 444.3019846859388, 139.5880259461701, 699.2060858658515, -0.01600000075995922, 0.3200000151991844, 0.944000044837594, 0.0, 0.0, 0.0, 0.0, 0.0, 1.6360734190562096E9, 0.0, 2021-11-04 19:50:19.056
65.0, 581.0850856653415, 447.5332582476549, 141.48789512366056, 695.1669939137064, -0.01600000075995922, 0.3200000151991844, 0.944000044837594, 0.0, 0.0, 0.0, 0.0, 0.0, 1.6360734190719974E9, 0.0, 2021-11-04 19:50:19.071
65.0, 567.6850241241045, 443.8195375916548, 105.53997674956918, 701.2555510415696, -0.01600000075995922, 0.3200000151991844, 0.944000044837594, 0.0, 0.0, 0.0, 0.0, 0.0, 1.6360734190719974E9, 0.0, 2021-11-04 19:50:19.071
66.0, 580.9205300672911, 451.28811780316755, 109.91191979777068, 705.1188676957972, -0.01600000075995922, 0.3200000151991844, 0.944000044837594, 0.0, 0.0, 0.0, 0.0, 0.0, 1.6360734190727005E9, 0.0, 2021-11-04 19:50:19.072
66.0, 572.6553511652164, 447.978306342382, 114.1679259473458, 693.9964052275755, -0.01600000075995922, 0.3200000151991844, 0.944000044837594, 0.0, 0.0, 0.0, 0.0, 0.0, 1.6360734190727005E9, 0.0, 2021-11-04 19:50:19.072
67.0, 567.752342323307, 451.7069865982048, 107.62684092484415, 707.7667168644257, -0.01600000075995922, 0.3200000151991844, 0.944000044837594, 0.0, 0.0, 0.0, 0.0, 0.0, 1.636073419133968E9, 0.0, 2021-11-04 19:50:19.133
67.0, 566.0619075433351, 458.6482409159653, 130.63096555229276, 706.8990600747056, -0.01600000075995922, 0.3200000151991844, 0.944000044837594, 0.0, 0.0, 0.0, 0.0, 0.0, 1.636073419133968E9, 0.0, 2021-11-04 19:50:19.133
68.0, 552.314035306219, 448.28871803870425, 117.01024991367012, 698.3982674754225, -0.01600000075995922, 0.3200000151991844, 0.944000044837594, 0.0, 0.0, 0.0, 0.0, 0.0, 1.6360734191347375E9, 0.0, 2021-11-04 19:50:19.134
68.0, 583.695535834413, 444.94898737827316, 106.0897420430556, 706.1249007838778, -0.01600000075995922, 0.3200000151991844, 0.944000044837594, 0.0, 0.0, 0.0, 0.0, 0.0, 1.6360734191347375E9, 0.0, 2021-11-04 19:50:19.134
69.0, 590.4834542539902, 433.83026481000707, 130.97129644826055, 706.0164436851628, -0.01600000075995922, 0.3200000151991844, 0.944000044837594, 0.0, 0.0, 0.0, 0.0, 0.0, 1.6360734191353972E9, 0.0, 2021-11-04 19:50:19.135
69.0, 596.9123422778212, 459.3438623077236, 89.08815684448928, 703.7313648122363, -0.01600000075995922, 0.3200000151991844, 0.944000044837594, 0.0, 0.0, 0.0, 0.0, 0.0, 1.6360734191353972E9, 0.0, 2021-11-04 19:50:19.135
70.0, 566.8809456336312, 469.2433774904348, 131.26300864480436, 692.8781751408242, -0.01600000075995922, 0.3200000151991844, 0.9600000455975533, 0.0, 0.0, 0.0, 0.0, 0.0, 1.6360734191361823E9, 0.0, 2021-11-04 19:50:19.136
70.0, 579.9219767791219, 461.2100723856129, 152.68515559099615, 692.5415841448121, -0.01600000075995922, 0.3200000151991844, 0.9600000455975533, 0.0, 0.0, 0.0, 0.0, 0.0, 1.6360734191361823E9, 0.0, 2021-11-04 19:50:19.136
71.0, 581.8816843559034, 451.06372380582616, 136.83171967882663, 688.0537041979842, -0.01600000075995922, 0.33600001595914364, 0.9600000455975533, 0.0, 0.0, 0.0, 0.0, 0.0, 1.6360734191483426E9, 0.0, 2021-11-04 19:50:19.148
71.0, 566.9333042330109, 434.94475499680266, 111.09746808372438, 681.1423690798692, -0.01600000075995922, 0.33600001595914364, 0.9600000455975533, 0.0, 0.0, 0.0, 0.0, 0.0, 1.6360734191483426E9, 0.0, 2021-11-04 19:50:19.148
72.0, 568.7546355114318, 448.3410766380839, 130.57112715300173, 681.1722882795148, -0.01600000075995922, 0.33600001595914364, 0.9600000455975533, 0.0, 0.0, 0.0, 0.0, 0.0, 1.6360734191490498E9, 0.0, 2021-11-04 19:50:19.149
72.0, 577.3676251093857, 436.72494737571105, 128.55532107688487, 684.7476326371543, -0.01600000075995922, 0.33600001595914364, 0.9600000455975533, 0.0, 0.0, 0.0, 0.0, 0.0, 1.6360734191490498E9, 0.0, 2021-11-04 19:50:19.149
73.0, 559.2328502242453, 431.98649413185194, 82.13942272681743, 681.699614173267, -0.01600000075995922, 0.33600001595914364, 0.9600000455975533, 0.0, 0.0, 0.0, 0.0, 0.0, 1.6360734191497574E9, 0.0, 2021-11-04 19:50:19.149
73.0, 579.7349817813374, 443.20993389887735, 103.42319337464869, 679.4033156004734, -0.01600000075995922, 0.33600001595914364, 0.9600000455975533, 0.0, 0.0, 0.0, 0.0, 0.0, 1.6360734191497574E9, 0.0, 2021-11-04 19:50:19.149
74.0, 561.1850780011155, 435.7787526869215, 114.06320874858648, 678.0868708160706, -0.01600000075995922, 0.33600001595914364, 0.9600000455975533, 0.0, 0.0, 0.0, 0.0, 0.0, 1.63607341915058E9, 0.0, 2021-11-04 19:50:19.150
74.0, 570.6806839886121, 437.5888642654754, 133.3236935203895, 669.1223306222819, -0.01600000075995922, 0.33600001595914364, 0.9600000455975533, 0.0, 0.0, 0.0, 0.0, 0.0, 1.63607341915058E9, 0.0, 2021-11-04 19:50:19.150
75.0, 564.0461014672183, 434.20051490562037, 127.98685628362, 674.8032386549748, -0.01600000075995922, 0.33600001595914364, 0.9600000455975533, 0.0, 0.0, 0.0, 0.0, 0.0, 1.6360734191612363E9, 0.0, 2021-11-04 19:50:19.161
75.0, 546.6368671734817, 427.8090258813463, 109.82216219883412, 662.7308415980078, -0.01600000075995922, 0.33600001595914364, 0.9600000455975533, 0.0, 0.0, 0.0, 0.0, 0.0, 1.6360734191612363E9, 0.0, 2021-11-04 19:50:19.161
76.0, 540.3164362483658, 434.144416406285, 85.3744361884892, 664.1669631809928, -0.01600000075995922, 0.33600001595914364, 0.9600000455975533, 0.0, 0.0, 0.0, 0.0, 0.0, 1.636073419209022E9, 0.0, 2021-11-04 19:50:19.209
76.0, 537.7321653789841, 411.4432236752473, 106.17575974203646, 665.8237388613634, -0.01600000075995922, 0.33600001595914364, 0.9600000455975533, 0.0, 0.0, 0.0, 0.0, 0.0, 1.636073419209022E9, 0.0, 2021-11-04 19:50:19.209
77.0, 552.1831388077699, 400.4030390060507, 98.75579822994769, 670.8651240016334, -0.01600000075995922, 0.33600001595914364, 0.9600000455975533, 0.0, 0.0, 0.0, 0.0, 0.0, 1.6360734192097685E9, 0.0, 2021-11-04 19:50:19.209
77.0, 551.2631234186701, 417.71877580089495, 113.11327415984124, 661.0778058175929, -0.01600000075995922, 0.33600001595914364, 0.9600000455975533, 0.0, 0.0, 0.0, 0.0, 0.0, 1.6360734192097685E9, 0.0, 2021-11-04 19:50:19.209
78.0, 557.246963347774, 413.0663402560167, 110.71599828824401, 656.9452163665555, -0.01600000075995922, 0.33600001595914364, 0.9600000455975533, 0.0, 0.0, 0.0, 0.0, 0.0, 1.6360734192105453E9, 0.0, 2021-11-04 19:50:19.210
78.0, 514.4961669542827, 417.7374753006734, 77.17283558566123, 654.5965591943823, -0.01600000075995922, 0.33600001595914364, 0.9600000455975533, 0.0, 0.0, 0.0, 0.0, 0.0, 1.6360734192105453E9, 0.0, 2021-11-04 19:50:19.210
79.0, 562.0863938904367, 431.6274637361057, 82.57325112167746, 672.6602759803645, -0.01600000075995922, 0.33600001595914364, 0.9600000455975533, 0.0, 0.0, 0.0, 0.0, 0.0, 1.6360734192112617E9, 0.0, 2021-11-04 19:50:19.211
79.0, 545.3204223890789, 421.7055091536604, 87.41642156429589, 662.9066168959253, -0.01600000075995922, 0.33600001595914364, 0.9600000455975533, 0.0, 0.0, 0.0, 0.0, 0.0, 1.6360734192112617E9, 0.0, 2021-11-04 19:50:19.211
80.0, 543.6225078091957, 426.8890104922466, 109.51175050251186, 663.0038542947732, -0.01600000075995922, 0.33600001595914364, 0.9600000455975533, 0.0, 0.0, 0.0, 0.0, 0.0, 1.636073419221939E9, 0.0, 2021-11-04 19:50:19.221
80.0, 542.605255021248, 433.3291182159446, 131.46122334245592, 660.4046238255687, -0.01600000075995922, 0.33600001595914364, 0.9600000455975533, 0.0, 0.0, 0.0, 0.0, 0.0, 1.636073419221939E9, 0.0, 2021-11-04 19:50:19.221
81.0, 553.3051087944768, 428.75896047009155, 126.93220449611545, 658.5384137476794, -0.01600000075995922, 0.33600001595914364, 0.9600000455975533, 0.0, 0.0, 0.0, 0.0, 0.0, 1.6360734192226143E9, 0.0, 2021-11-04 19:50:19.222
81.0, 558.7504031299613, 428.1194375776686, 134.37460540793836, 668.97647452401, -0.01600000075995922, 0.33600001595914364, 0.9600000455975533, 0.0, 0.0, 0.0, 0.0, 0.0, 1.6360734192226143E9, 0.0, 2021-11-04 19:50:19.222
82.0, 566.7687486349605, 440.2703725337051, 111.30316258128732, 678.2850855137222, -0.01600000075995922, 0.33600001595914364, 0.9600000455975533, 0.0, 0.0, 0.0, 0.0, 0.0, 1.6360734192363E9, 0.0, 2021-11-04 19:50:19.236
82.0, 553.3948663934134, 433.1832621176727, 115.66388592962176, 665.225354868453, -0.01600000075995922, 0.33600001595914364, 0.9600000455975533, 0.0, 0.0, 0.0, 0.0, 0.0, 1.6360734192363E9, 0.0, 2021-11-04 19:50:19.236
83.0, 577.2516882107593, 449.66126132244244, 123.16238534078002, 667.4730347418226, -0.01600000075995922, 0.33600001595914364, 0.9600000455975533, 0.0, 0.0, 0.0, 0.0, 0.0, 1.636073419251677E9, 0.0, 2021-11-04 19:50:19.251
83.0, 582.3790910500102, 441.09315052395687, 101.10445540212095, 669.1971286213957, -0.01600000075995922, 0.33600001595914364, 0.9600000455975533, 0.0, 0.0, 0.0, 0.0, 0.0, 1.636073419251677E9, 0.0, 2021-11-04 19:50:19.251
84.0, 576.4700491200201, 441.1529889232479, 135.16372429858893, 676.706847732421, -0.01600000075995922, 0.33600001595914364, 0.9600000455975533, 0.0, 0.0, 0.0, 0.0, 0.0, 1.6360734192669504E9, 0.0, 2021-11-04 19:50:19.266
84.0, 564.5584677611478, 451.46763300104067, 133.11425912287086, 675.4352817474864, -0.01600000075995922, 0.33600001595914364, 0.9600000455975533, 0.0, 0.0, 0.0, 0.0, 0.0, 1.6360734192669504E9, 0.0, 2021-11-04 19:50:19.266
85.0, 558.152019137051, 440.76403932785615, 126.70033069886267, 680.0465783928521, -0.01600000075995922, 0.33600001595914364, 0.9600000455975533, 0.0, 0.0, 0.0, 0.0, 0.0, 1.636073419267691E9, 0.0, 2021-11-04 19:50:19.267
85.0, 572.262661669869, 441.72519361646846, 128.23742958065122, 683.5508646513335, -0.01600000075995922, 0.33600001595914364, 0.9600000455975533, 0.0, 0.0, 0.0, 0.0, 0.0, 1.636073419267691E9, 0.0, 2021-11-04 19:50:19.267
86.0, 586.216228404548, 451.9837391949259, 130.93015754874796, 683.7303798492067, -0.01600000075995922, 0.33600001595914364, 0.9600000455975533, 0.0, 0.0, 0.0, 0.0, 0.0, 1.636073419326645E9, 0.0, 2021-11-04 19:50:19.326
86.0, 578.1455243001692, 443.8195375916548, 116.78211601637304, 677.5707646221854, -0.01600000075995922, 0.33600001595914364, 0.9600000455975533, 0.0, 0.0, 0.0, 0.0, 0.0, 1.636073419326645E9, 0.0, 2021-11-04 19:50:19.326
87.0, 553.7277174894698, 440.47606703126803, 109.66134650073946, 678.8610301068984, -0.01600000075995922, 0.33600001595914364, 0.9600000455975533, 0.0, 0.0, 0.0, 0.0, 0.0, 1.6360734193432808E9, 0.0, 2021-11-04 19:50:19.343
87.0, 577.1320114121772, 444.7432928807102, 130.37291245535016, 679.8147045955993, -0.01600000075995922, 0.33600001595914364, 0.9600000455975533, 0.0, 0.0, 0.0, 0.0, 0.0, 1.6360734193432808E9, 0.0, 2021-11-04 19:50:19.343
88.0, 565.0222153556533, 436.65762917650864, 132.16806443408132, 666.5305799529888, -0.01600000075995922, 0.33600001595914364, 0.9600000455975533, 0.0, 0.0, 0.0, 0.0, 0.0, 1.636073419358996E9, 0.0, 2021-11-04 19:50:19.358
88.0, 574.3644854449667, 441.0482717244886, 124.90143882017583, 659.6005453350954, -0.01600000075995922, 0.33600001595914364, 0.9600000455975533, 0.0, 0.0, 0.0, 0.0, 0.0, 1.636073419358996E9, 0.0, 2021-11-04 19:50:19.358
89.0, 566.5593142374419, 439.2232005461119, 131.49114254210144, 664.4100566781126, -0.01600000075995922, 0.33600001595914364, 0.9600000455975533, 0.0, 0.0, 0.0, 0.0, 0.0, 1.6360734193602269E9, 0.0, 2021-11-04 19:50:19.360
89.0, 558.2417767359875, 433.7068481114693, 78.79969206638634, 677.129456427414, -0.01600000075995922, 0.33600001595914364, 0.9600000455975533, 0.0, 0.0, 0.0, 0.0, 0.0, 1.6360734193602269E9, 0.0, 2021-11-04 19:50:19.360
90.0, 566.1367055424489, 434.17433560593054, 114.17166584730148, 676.912542229984, -0.01600000075995922, 0.33600001595914364, 0.9600000455975533, 0.0, 0.0, 0.0, 0.0, 0.0, 1.6360734193605385E9, 0.0, 2021-11-04 19:50:19.360
90.0, 538.4464862705208, 437.2335737696849, 120.43973817303777, 670.2443006089889, -0.01600000075995922, 0.33600001595914364, 0.9600000455975533, 0.0, 0.0, 0.0, 0.0, 0.0, 1.6360734193605385E9, 0.0, 2021-11-04 19:50:19.360
91.0, 581.055166465696, 446.9311343547888, 138.23792206216604, 664.7541274740361, -0.01600000075995922, 0.3200000151991844, 0.9600000455975533, 0.0, 0.0, 0.0, 0.0, 0.0, 1.6360734193611777E9, 0.0, 2021-11-04 19:50:19.361
91.0, 577.6817767056637, 446.47860646015033, 118.3902729973197, 657.4650624603964, -0.01600000075995922, 0.3200000151991844, 0.9600000455975533, 0.0, 0.0, 0.0, 0.0, 0.0, 1.6360734193611777E9, 0.0, 2021-11-04 19:50:19.361
92.0, 562.5426616850309, 436.713727675844, 93.5648170914501, 659.6865630340762, -0.03200000151991844, 0.3200000151991844, 0.9600000455975533, 0.0, 0.0, 0.0, 0.0, 0.0, 1.6360734193733582E9, 0.0, 2021-11-04 19:50:19.373
92.0, 560.4109187102877, 442.17024171119556, 89.81743733584881, 664.8551047728397, -0.03200000151991844, 0.3200000151991844, 0.9600000455975533, 0.0, 0.0, 0.0, 0.0, 0.0, 1.6360734193733582E9, 0.0, 2021-11-04 19:50:19.373
93.0, 568.3320268164389, 435.46460109064355, 122.41066544968635, 668.7446007267572, -0.03200000151991844, 0.3200000151991844, 0.9600000455975533, 0.0, 0.0, 0.0, 0.0, 0.0, 1.6360734193742929E9, 0.0, 2021-11-04 19:50:19.374
93.0, 563.193404277321, 437.31211166875437, 147.83824524842203, 676.0374056403525, -0.03200000151991844, 0.3200000151991844, 0.9600000455975533, 0.0, 0.0, 0.0, 0.0, 0.0, 1.6360734193742929E9, 0.0, 2021-11-04 19:50:19.374
94.0, 560.2949818116613, 432.5212998255156, 151.14057690929621, 683.9472940466367, -0.03200000151991844, 0.3200000151991844, 0.9600000455975533, 0.0, 0.0, 0.0, 0.0, 0.0, 1.6360734193749676E9, 0.0, 2021-11-04 19:50:19.374
94.0, 561.5029694973491, 425.15743681276217, 150.13828372117132, 687.8928884998895, -0.03200000151991844, 0.3200000151991844, 0.9600000455975533, 0.0, 0.0, 0.0, 0.0, 0.0, 1.6360734193749676E9, 0.0, 2021-11-04 19:50:19.374
96.0, 560.9868633034639, 420.78549376456067, 127.25009599234909, 694.8603221173398, -0.03200000151991844, 0.3200000151991844, 0.9600000455975533, 0.0, 0.0, 0.0, 0.0, 0.0, 1.6360734193758607E9, 0.0, 2021-11-04 19:50:19.375
96.0, 572.4122576680966, 407.4265711228363, 127.21643689274788, 679.2013610028662, -0.03200000151991844, 0.3200000151991844, 0.9600000455975533, 0.0, 0.0, 0.0, 0.0, 0.0, 1.6360734193758607E9, 0.0, 2021-11-04 19:50:19.375
97.0, 564.0984600665979, 411.74989547161385, 116.50536341965199, 673.9804606647231, -0.03200000151991844, 0.3200000151991844, 0.9600000455975533, 0.0, 0.0, 0.0, 0.0, 0.0, 1.6360734194496424E9, 0.0, 2021-11-04 19:50:19.449
97.0, 566.6303723366, 424.86946451617405, 97.8245631409809, 674.0215995642357, -0.03200000151991844, 0.3200000151991844, 0.9600000455975533, 0.0, 0.0, 0.0, 0.0, 0.0, 1.6360734194496424E9, 0.0, 2021-11-04 19:50:19.449
98.0, 571.3239467809908, 412.01542836846784, 142.17229681555182, 672.6640158803202, -0.03200000151991844, 0.3200000151991844, 0.9600000455975533, 0.0, 0.0, 0.0, 0.0, 0.0, 1.636073419450166E9, 0.0, 2021-11-04 19:50:19.450
98.0, 581.6311110588722, 411.1851705783047, 147.87938414793462, 669.9712879122235, -0.03200000151991844, 0.3200000151991844, 0.9600000455975533, 0.0, 0.0, 0.0, 0.0, 0.0, 1.636073419450166E9, 0.0, 2021-11-04 19:50:19.450
99.0, 579.8621383798309, 414.93255033390597, 136.64846458099782, 666.238867756445, -0.03200000151991844, 0.3200000151991844, 0.9600000455975533, 0.0, 0.0, 0.0, 0.0, 0.0, 1.6360734194509478E9, 0.0, 2021-11-04 19:50:19.450
99.0, 575.3443392333575, 418.90806398680434, 139.6964830448851, 666.6053779521026, -0.03200000151991844, 0.3200000151991844, 0.9600000455975533, 0.0, 0.0, 0.0, 0.0, 0.0, 1.6360734194509478E9, 0.0, 2021-11-04 19:50:19.450
100.0, 578.6915496936999, 424.8844241159968, 113.37132725678384, 662.6897026984952, -0.03200000151991844, 0.3200000151991844, 0.9760000463575125, 0.0, 0.0, 0.0, 0.0, 0.0, 1.6360734194516895E9, 0.0, 2021-11-04 19:50:19.451
100.0, 579.9294565790333, 416.5930659142323, 136.9214772777632, 673.9393217652105, -0.03200000151991844, 0.3200000151991844, 0.9760000463575125, 0.0, 0.0, 0.0, 0.0, 0.0, 1.6360734194516895E9, 0.0, 2021-11-04 19:50:19.451
0.0, 557.9500645394437, 409.1936738518998, 130.54681780328974, 671.7028615917079, -0.03200000151991844, 0.3200000151991844, 0.9760000463575125, 0.0, 0.0, 0.0, 0.0, 0.0, 1.6360734194639993E9, 0.0, 2021-11-04 19:50:19.463
1.0, 537.7770441784523, 397.97771388478577, 118.91198904113844, 670.049825811293, -0.03200000151991844, 0.33600001595914364, 0.9760000463575125, 0.0, 0.0, 0.0, 0.0, 0.0, 1.6360734194647212E9, 0.0, 2021-11-04 19:50:19.464
1.0, 573.3696720567532, 413.4833391010761, 89.59491328848526, 671.7103413916193, -0.03200000151991844, 0.33600001595914364, 0.9760000463575125, 0.0, 0.0, 0.0, 0.0, 0.0, 1.6360734194647212E9, 0.0, 2021-11-04 19:50:19.464
2.0, 565.8412534459494, 414.17148069292307, 104.143124116119, 672.0357126877643, -0.01600000075995922, 0.33600001595914364, 0.9760000463575125, 0.0, 0.0, 0.0, 0.0, 0.0, 1.6360734194655044E9, 0.0, 2021-11-04 19:50:19.465
2.0, 562.9241314805113, 418.2704110443592, 103.24554812675342, 667.9367823363282, -0.01600000075995922, 0.33600001595914364, 0.9760000463575125, 0.0, 0.0, 0.0, 0.0, 0.0, 1.6360734194655044E9, 0.0, 2021-11-04 19:50:19.465
4.0, 560.5455551086925, 412.0920963175595, 108.83669856050983, 664.3053394793533, -0.01600000075995922, 0.33600001595914364, 0.9760000463575125, 0.0, 0.0, 0.0, 0.0, 0.0, 1.6360734194662004E9, 0.0, 2021-11-04 19:50:19.466
4.0, 568.8817921099253, 407.95576696656644, 109.12841075705364, 664.3240389791317, -0.01600000075995922, 0.33600001595914364, 0.9760000463575125, 0.0, 0.0, 0.0, 0.0, 0.0, 1.6360734194662004E9, 0.0, 2021-11-04 19:50:19.466
5.0, 585.1353973173536, 415.35702897887677, 107.80448617273942, 664.9673017715104, -0.01600000075995922, 0.33600001595914364, 0.9760000463575125, 0.0, 0.0, 0.0, 0.0, 0.0, 1.6360734194769273E9, 0.0, 2021-11-04 19:50:19.476
5.0, 585.6702030110173, 433.6563594620675, 113.30213910760358, 674.9977134526707, -0.01600000075995922, 0.33600001595914364, 0.9760000463575125, 0.0, 0.0, 0.0, 0.0, 0.0, 1.6360734194769273E9, 0.0, 2021-11-04 19:50:19.476
6.0, 581.9751818547957, 442.41894505824894, 127.4501806399785, 666.889610348735, -0.01600000075995922, 0.33600001595914364, 0.9760000463575125, 0.0, 0.0, 0.0, 0.0, 0.0, 1.6360734194777324E9, 0.0, 2021-11-04 19:50:19.477
6.0, 579.3796912855469, 447.49024939816445, 119.60013063298538, 666.467001653742, -0.01600000075995922, 0.33600001595914364, 0.9760000463575125, 0.0, 0.0, 0.0, 0.0, 0.0, 1.6360734194777324E9, 0.0, 2021-11-04 19:50:19.477
7.0, 574.469202643726, 459.7047626534477, 143.74492474691942, 667.6188908400945, -0.01600000075995922, 0.33600001595914364, 0.9760000463575125, 0.0, 0.0, 0.0, 0.0, 0.0, 1.6360734194912472E9, 0.0, 2021-11-04 19:50:19.491
7.0, 572.5057551669888, 470.57291192468256, 164.64348569931462, 673.8495641662739, -0.01600000075995922, 0.33600001595914364, 0.9760000463575125, 0.0, 0.0, 0.0, 0.0, 0.0, 1.6360734194912472E9, 0.0, 2021-11-04 19:50:19.491
8.0, 568.5302415140904, 470.326078527607, 184.93618285888806, 667.312219043728, -0.01600000075995922, 0.33600001595914364, 0.9760000463575125, 0.0, 0.0, 0.0, 0.0, 0.0, 1.6360734195515873E9, 0.0, 2021-11-04 19:50:19.551
8.0, 555.257336571347, 483.2362131746486, 202.39403585204855, 665.3263321672566, -0.01600000075995922, 0.33600001595914364, 0.9760000463575125, 0.0, 0.0, 0.0, 0.0, 0.0, 1.6360734195515873E9, 0.0, 2021-11-04 19:50:19.551
9.0, 557.6546124429442, 492.2979907672852, 197.2965522124432, 658.9984214422293, -0.01600000075995922, 0.33600001595914364, 0.9760000463575125, 0.0, 0.0, 0.0, 0.0, 0.0, 1.636073419569018E9, 0.0, 2021-11-04 19:50:19.569
9.0, 578.6279713944532, 493.58825625199825, 209.61204276653007, 657.2182290633209, -0.01600000075995922, 0.33600001595914364, 0.9760000463575125, 0.0, 0.0, 0.0, 0.0, 0.0, 1.636073419569018E9, 0.0, 2021-11-04 19:50:19.569
10.0, 565.9609302445315, 479.90770221408457, 228.89122703811154, 658.3327192501165, -0.01600000075995922, 0.33600001595914364, 0.9760000463575125, 0.0, 0.0, 0.0, 0.0, 0.0, 1.636073419569734E9, 0.0, 2021-11-04 19:50:19.569
10.0, 554.7449702774175, 497.7844240022823, 242.5456017763354, 648.9717496610247, -0.01600000075995922, 0.33600001595914364, 0.9760000463575125, 0.0, 0.0, 0.0, 0.0, 0.0, 1.636073419569734E9, 0.0, 2021-11-04 19:50:19.569
11.0, 568.0590141196735, 512.3550742296502, 229.70652522845194, 641.7275634468533, -0.01600000075995922, 0.33600001595914364, 0.9760000463575125, 0.0, 0.0, 0.0, 0.0, 0.0, 1.636073419570472E9, 0.0, 2021-11-04 19:50:19.570
11.0, 546.6443469733931, 514.9131657993421, 237.47055753646418, 644.035081719514, -0.01600000075995922, 0.33600001595914364, 0.9760000463575125, 0.0, 0.0, 0.0, 0.0, 0.0, 1.636073419570472E9, 0.0, 2021-11-04 19:50:19.570
12.0, 540.4772519464605, 500.22657867334783, 231.75225050421432, 643.720930123236, -0.03200000151991844, 0.33600001595914364, 0.9760000463575125, 0.0, 0.0, 0.0, 0.0, 0.0, 1.6360734195713112E9, 0.0, 2021-11-04 19:50:19.571
12.0, 542.8446086184122, 495.47690572962165, 216.0072716907598, 636.9292718037032, -0.03200000151991844, 0.33600001595914364, 0.9760000463575125, 0.0, 0.0, 0.0, 0.0, 0.0, 1.6360734195713112E9, 0.0, 2021-11-04 19:50:19.571
13.0, 566.3498798399232, 487.25286572705954, 198.1829085019417, 637.8081482932903, -0.03200000151991844, 0.33600001595914364, 0.9760000463575125, 0.0, 0.0, 0.0, 0.0, 0.0, 1.6360734195841355E9, 0.0, 2021-11-04 19:50:19.584
13.0, 565.1007532547228, 463.3736045099795, 191.79889927757904, 639.3377673751675, -0.03200000151991844, 0.33600001595914364, 0.9760000463575125, 0.0, 0.0, 0.0, 0.0, 0.0, 1.6360734195841355E9, 0.0, 2021-11-04 19:50:19.584
14.0, 545.0100106927566, 469.73143443465233, 164.3891725023277, 634.5619151317514, -0.03200000151991844, 0.33600001595914364, 0.9760000463575125, 0.0, 0.0, 0.0, 0.0, 0.0, 1.636073419584791E9, 0.0, 2021-11-04 19:50:19.584
14.0, 527.7316728974693, 469.83241173345596, 175.9492032653652, 646.2117034937255, -0.03200000151991844, 0.33600001595914364, 0.9760000463575125, 0.0, 0.0, 0.0, 0.0, 0.0, 1.636073419584791E9, 0.0, 2021-11-04 19:50:19.584
15.0, 557.7331503420137, 456.38747139275074, 174.34104628441855, 651.7579751280136, -0.03200000151991844, 0.33600001595914364, 0.9760000463575125, 0.0, 0.0, 0.0, 0.0, 0.0, 1.636073419585474E9, 0.0, 2021-11-04 19:50:19.585
15.0, 545.342861788813, 455.90128439851105, 159.5347823598422, 653.2389755104668, -0.03200000151991844, 0.33600001595914364, 0.9760000463575125, 0.0, 0.0, 0.0, 0.0, 0.0, 1.636073419585474E9, 0.0, 2021-11-04 19:50:19.585
16.0, 554.5392757798545, 452.64009163714945, 136.8971679280512, 652.730349116493, -0.03200000151991844, 0.33600001595914364, 0.9760000463575125, 0.0, 0.0, 0.0, 0.0, 0.0, 1.636073419586128E9, 0.0, 2021-11-04 19:50:19.586
16.0, 559.2665093238465, 441.03892197459936, 132.03903788561, 657.1060320646502, -0.03200000151991844, 0.33600001595914364, 0.9760000463575125, 0.0, 0.0, 0.0, 0.0, 0.0, 1.636073419586128E9, 0.0, 2021-11-04 19:50:19.586
17.0, 551.7455705129541, 438.9520577993244, 104.96964200632647, 660.9095103195868, -0.03200000151991844, 0.33600001595914364, 0.9760000463575125, 0.0, 0.0, 0.0, 0.0, 0.0, 1.6360734195968592E9, 0.0, 2021-11-04 19:50:19.596
17.0, 554.8721268759109, 437.063408321701, 98.92222377797589, 657.1135118645616, -0.03200000151991844, 0.33600001595914364, 0.9760000463575125, 0.0, 0.0, 0.0, 0.0, 0.0, 1.6360734195968592E9, 0.0, 2021-11-04 19:50:19.596
18.0, 560.9719037036411, 428.29334292560816, 113.75466700224206, 653.5980059062131, -0.03200000151991844, 0.33600001595914364, 0.9760000463575125, 0.0, 0.0, 0.0, 0.0, 0.0, 1.636073419597642E9, 0.0, 2021-11-04 19:50:19.597
18.0, 566.3835389395244, 422.9490258889273, 105.56428609928116, 656.3356126737781, -0.03200000151991844, 0.33600001595914364, 0.9760000463575125, 0.0, 0.0, 0.0, 0.0, 0.0, 1.636073419597642E9, 0.0, 2021-11-04 19:50:19.597
19.0, 567.0791603312828, 427.2349512381479, 127.43148114020005, 645.5460013016127, -0.03200000151991844, 0.33600001595914364, 0.9760000463575125, 0.0, 0.0, 0.0, 0.0, 0.0, 1.636073419658939E9, 0.0, 2021-11-04 19:50:19.658
19.0, 568.2160899178125, 425.44353915937245, 93.25627534510568, 656.7694410686381, -0.03200000151991844, 0.33600001595914364, 0.9760000463575125, 0.0, 0.0, 0.0, 0.0, 0.0, 1.636073419658939E9, 0.0, 2021-11-04 19:50:19.658
20.0, 550.4179060286842, 421.7896569026634, 113.73596750246361, 649.9403837495483, -0.03200000151991844, 0.33600001595914364, 0.9760000463575125, 0.0, 0.0, 0.0, 0.0, 0.0, 1.6360734196596925E9, 0.0, 2021-11-04 19:50:19.659
20.0, 551.3641007174738, 431.1281870920211, 103.76165432063863, 655.1799835874699, -0.03200000151991844, 0.33600001595914364, 0.9760000463575125, 0.0, 0.0, 0.0, 0.0, 0.0, 1.6360734196596925E9, 0.0, 2021-11-04 19:50:19.659
21.0, 566.2489025411196, 431.7938892841339, 77.2046247352846, 648.8520728624426, -0.03200000151991844, 0.33600001595914364, 0.9760000463575125, 0.0, 0.0, 0.0, 0.0, 0.0, 1.63607341966042E9, 0.0, 2021-11-04 19:50:19.660
21.0, 557.2768825474195, 427.4930043350905, 85.45110413758084, 649.233542657923, -0.03200000151991844, 0.33600001595914364, 0.9760000463575125, 0.0, 0.0, 0.0, 0.0, 0.0, 1.63607341966042E9, 0.0, 2021-11-04 19:50:19.660
22.0, 561.5665477965958, 426.70014554448426, 110.93104253569618, 656.2795141744427, -0.03200000151991844, 0.33600001595914364, 0.9760000463575125, 0.0, 0.0, 0.0, 0.0, 0.0, 1.6360734196611896E9, 0.0, 2021-11-04 19:50:19.661
22.0, 576.9637159141712, 422.6049550930038, 101.13250465178862, 655.3295795856975, -0.03200000151991844, 0.33600001595914364, 0.9760000463575125, 0.0, 0.0, 0.0, 0.0, 0.0, 1.6360734196611896E9, 0.0, 2021-11-04 19:50:19.661
23.0, 570.3141737929545, 418.1619539456442, 89.62483248813078, 652.1095257238485, -0.03200000151991844, 0.33600001595914364, 0.9760000463575125, 0.0, 0.0, 0.0, 0.0, 0.0, 1.6360734196893747E9, 0.0, 2021-11-04 19:50:19.689
23.0, 564.1358590661548, 418.55090354103595, 93.30863394448534, 661.9753818069585, -0.03200000151991844, 0.33600001595914364, 0.9760000463575125, 0.0, 0.0, 0.0, 0.0, 0.0, 1.6360734196893747E9, 0.0, 2021-11-04 19:50:19.689
24.0, 574.5851395423524, 417.88894124887884, 89.66597138764337, 662.9440158954822, -0.03200000151991844, 0.33600001595914364, 0.9760000463575125, 0.0, 0.0, 0.0, 0.0, 0.0, 1.6360734196901064E9, 0.0, 2021-11-04 19:50:19.690
24.0, 574.3757051448338, 424.2467711735517, 67.36494795186445, 661.3246392146684, -0.03200000151991844, 0.33600001595914364, 0.9760000463575125, 0.0, 0.0, 0.0, 0.0, 0.0, 1.6360734196901064E9, 0.0, 2021-11-04 19:50:19.690
25.0, 570.6133657894097, 427.10405473969877, 77.82544812792912, 648.1452317708172, -0.03200000151991844, 0.33600001595914364, 0.9760000463575125, 0.0, 0.0, 0.0, 0.0, 0.0, 1.6360734196908233E9, 0.0, 2021-11-04 19:50:19.690
25.0, 568.2385293175466, 428.9403456179425, 101.12876475183293, 644.4389909147285, -0.03200000151991844, 0.33600001595914364, 0.9760000463575125, 0.0, 0.0, 0.0, 0.0, 0.0, 1.6360734196908233E9, 0.0, 2021-11-04 19:50:19.690
26.0, 565.1792911537923, 416.0489104706794, 97.29536729725078, 641.4919497496448, -0.03200000151991844, 0.33600001595914364, 0.9760000463575125, 0.0, 0.0, 0.0, 0.0, 0.0, 1.6360734196915305E9, 0.0, 2021-11-04 19:50:19.691
26.0, 564.1620383658446, 419.9720655241981, 85.14443234121427, 650.5724268420599, -0.03200000151991844, 0.33600001595914364, 0.9760000463575125, 0.0, 0.0, 0.0, 0.0, 0.0, 1.6360734196915305E9, 0.0, 2021-11-04 19:50:19.691
27.0, 561.4842699975707, 420.92200011294335, 92.15674475813285, 651.2119497344829, -0.03200000151991844, 0.33600001595914364, 0.9760000463575125, 0.0, 0.0, 0.0, 0.0, 0.0, 1.6360734197019396E9, 0.0, 2021-11-04 19:50:19.701
27.0, 570.8564592865296, 420.3871944192797, 79.19799141166732, 644.5324884136207, -0.03200000151991844, 0.33600001595914364, 0.9760000463575125, 0.0, 0.0, 0.0, 0.0, 0.0, 1.6360734197019396E9, 0.0, 2021-11-04 19:50:19.701
28.0, 585.4495489136316, 422.52267729397863, 67.46218535071239, 651.22316943435, -0.03200000151991844, 0.33600001595914364, 0.9760000463575125, 0.0, 0.0, 0.0, 0.0, 0.0, 1.636073419702622E9, 0.0, 2021-11-04 19:50:19.702
28.0, 581.3580983621068, 421.191272909753, 78.30041542230174, 648.0592140718363, -0.03200000151991844, 0.33600001595914364, 0.9760000463575125, 0.0, 0.0, 0.0, 0.0, 0.0, 1.636073419702622E9, 0.0, 2021-11-04 19:50:19.702
29.0, 575.493935231585, 423.3417153842747, 72.81772208726034, 645.265508804936, -0.03200000151991844, 0.33600001595914364, 0.9760000463575125, 0.0, 0.0, 0.0, 0.0, 0.0, 1.6360734197168844E9, 0.0, 2021-11-04 19:50:19.716
29.0, 569.6185524011962, 417.35787545517087, 69.90060012182221, 642.5653010369278, -0.03200000151991844, 0.33600001595914364, 0.9760000463575125, 0.0, 0.0, 0.0, 0.0, 0.0, 1.6360734197168844E9, 0.0, 2021-11-04 19:50:19.716
30.0, 568.6985370120965, 424.37018787208945, 59.07358975009993, 658.3102798503824, -0.03200000151991844, 0.33600001595914364, 0.9760000463575125, 0.0, 0.0, 0.0, 0.0, 0.0, 1.6360734197176266E9, 0.0, 2021-11-04 19:50:19.717
30.0, 563.1485254778527, 429.5349897108972, 73.06455548433587, 642.6064399364404, -0.03200000151991844, 0.33600001595914364, 0.9760000463575125, 0.0, 0.0, 0.0, 0.0, 0.0, 1.6360734197176266E9, 0.0, 2021-11-04 19:50:19.717
31.0, 560.7250703065656, 419.5681563289836, 91.20681016938761, 634.1916650361381, -0.03200000151991844, 0.33600001595914364, 0.9760000463575125, 0.0, 0.0, 0.0, 0.0, 0.0, 1.6360734197639976E9, 0.0, 2021-11-04 19:50:19.763
31.0, 573.3883715565316, 413.6441547991708, 80.43589829700068, 628.9745045979507, -0.03200000151991844, 0.33600001595914364, 0.9760000463575125, 0.0, 0.0, 0.0, 0.0, 0.0, 1.6360734197639976E9, 0.0, 2021-11-04 19:50:19.763
32.0, 558.0921807377599, 418.0048781475052, 63.79334349418059, 631.2371440711431, -0.01600000075995922, 0.33600001595914364, 0.9760000463575125, 0.0, 0.0, 0.0, 0.0, 0.0, 1.6360734197646809E9, 0.0, 2021-11-04 19:50:19.764
32.0, 545.017490492668, 411.87518212012947, 67.43226615106687, 627.9497720100917, -0.01600000075995922, 0.33600001595914364, 0.9760000463575125, 0.0, 0.0, 0.0, 0.0, 0.0, 1.6360734197646809E9, 0.0, 2021-11-04 19:50:19.764
33.0, 560.8260476053692, 399.95238106139004, 69.40693332767114, 632.9088793513365, -0.01600000075995922, 0.33600001595914364, 0.9760000463575125, 0.0, 0.0, 0.0, 0.0, 0.0, 1.636073419765417E9, 0.0, 2021-11-04 19:50:19.765
33.0, 571.0247547845356, 399.09594397153705, 59.83652934106067, 633.4997835443355, -0.01600000075995922, 0.33600001595914364, 0.9760000463575125, 0.0, 0.0, 0.0, 0.0, 0.0, 1.636073419765417E9, 0.0, 2021-11-04 19:50:19.765
34.0, 577.1993296113797, 401.7550128400326, 63.42683329852298, 635.9606377151795, -0.01600000075995922, 0.33600001595914364, 0.9760000463575125, 0.0, 0.0, 0.0, 0.0, 0.0, 1.6360734197661445E9, 0.0, 2021-11-04 19:50:19.766
34.0, 553.3537274939008, 399.35025716852397, 66.94607915682718, 635.2388370237313, -0.01600000075995922, 0.33600001595914364, 0.9760000463575125, 0.0, 0.0, 0.0, 0.0, 0.0, 1.6360734197661445E9, 0.0, 2021-11-04 19:50:19.766
35.0, 576.6121653183363, 406.81135758012533, 58.385448158252984, 644.1098797186278, -0.01600000075995922, 0.33600001595914364, 0.9760000463575125, 0.0, 0.0, 0.0, 0.0, 0.0, 1.6360734197768705E9, 0.0, 2021-11-04 19:50:19.776
35.0, 578.8486254918389, 419.32506283186376, 70.52516341442242, 646.3687792918645, -0.01600000075995922, 0.33600001595914364, 0.9760000463575125, 0.0, 0.0, 0.0, 0.0, 0.0, 1.6360734197768705E9, 0.0, 2021-11-04 19:50:19.776
36.0, 582.9138967436738, 424.0971751753241, 51.156221543904394, 642.4231848386116, -0.01600000075995922, 0.33600001595914364, 0.9760000463575125, 0.0, 0.0, 0.0, 0.0, 0.0, 1.6360734197776291E9, 0.0, 2021-11-04 19:50:19.777
36.0, 575.9427232262678, 420.2338585210964, 64.54506338527426, 657.4575826604851, -0.01600000075995922, 0.33600001595914364, 0.9760000463575125, 0.0, 0.0, 0.0, 0.0, 0.0, 1.6360734197776291E9, 0.0, 2021-11-04 19:50:19.777
37.0, 568.0739737194963, 429.62848720978945, 90.22695638099685, 663.030033594463, -0.01600000075995922, 0.33600001595914364, 0.9760000463575125, 0.0, 0.0, 0.0, 0.0, 0.0, 1.6360734197912297E9, 0.0, 2021-11-04 19:50:19.791
37.0, 573.4369902559556, 437.0970674213022, 73.76765667600557, 647.3224537805654, -0.01600000075995922, 0.33600001595914364, 0.9760000463575125, 0.0, 0.0, 0.0, 0.0, 0.0, 1.6360734197912297E9, 0.0, 2021-11-04 19:50:19.791
38.0, 591.9681945363991, 429.36295431293547, 82.74715646961704, 657.5398604595102, -0.01600000075995922, 0.33600001595914364, 0.9760000463575125, 0.0, 0.0, 0.0, 0.0, 0.0, 1.6360734198069215E9, 0.0, 2021-11-04 19:50:19.806
38.0, 578.7887870925479, 428.9440855178982, 83.15854546474293, 669.9301490127109, -0.01600000075995922, 0.33600001595914364, 0.9760000463575125, 0.0, 0.0, 0.0, 0.0, 0.0, 1.6360734198069215E9, 0.0, 2021-11-04 19:50:19.806
39.0, 570.4562899912708, 425.1219077631831, 84.46003064932302, 662.3755511022173, -0.01600000075995922, 0.33600001595914364, 0.9760000463575125, 0.0, 0.0, 0.0, 0.0, 0.0, 1.6360734198077316E9, 0.0, 2021-11-04 19:50:19.807
39.0, 598.976767053362, 435.3206149423495, 102.30683323787525, 651.3765053325333, -0.01600000075995922, 0.33600001595914364, 0.9760000463575125, 0.0, 0.0, 0.0, 0.0, 0.0, 1.6360734198077316E9, 0.0, 2021-11-04 19:50:19.807
40.0, 588.9126962726004, 436.10973383300006, 97.79277399135754, 661.5939120114781, -0.01600000075995922, 0.33600001595914364, 0.9760000463575125, 0.0, 0.0, 0.0, 0.0, 0.0, 1.6360734198212724E9, 0.0, 2021-11-04 19:50:19.821
40.0, 596.6842083805241, 444.9845164278522, 91.16941116983071, 660.2064091279171, -0.01600000075995922, 0.33600001595914364, 0.9760000463575125, 0.0, 0.0, 0.0, 0.0, 0.0, 1.6360734198212724E9, 0.0, 2021-11-04 19:50:19.821
41.0, 593.5090333181433, 442.71065725479275, 81.62518648291007, 657.6183983585797, -0.01600000075995922, 0.3200000151991844, 0.9760000463575125, 0.0, 0.0, 0.0, 0.0, 0.0, 1.6360734198690107E9, 0.0, 2021-11-04 19:50:19.869
41.0, 604.2238466911949, 443.8363671414554, 83.59985365951434, 660.7823537210934, -0.01600000075995922, 0.3200000151991844, 0.9760000463575125, 0.0, 0.0, 0.0, 0.0, 0.0, 1.6360734198690107E9, 0.0, 2021-11-04 19:50:19.869
42.0, 592.8994296253659, 435.5001301402226, 63.37447469914332, 671.8300181902014, -0.03200000151991844, 0.3200000151991844, 0.9760000463575125, 0.0, 0.0, 0.0, 0.0, 0.0, 1.6360734198697364E9, 0.0, 2021-11-04 19:50:19.869
42.0, 591.1267170463689, 432.8822001712397, 77.46641773218289, 674.2123344619758, -0.03200000151991844, 0.3200000151991844, 0.9760000463575125, 0.0, 0.0, 0.0, 0.0, 0.0, 1.6360734198697364E9, 0.0, 2021-11-04 19:50:19.869
43.0, 604.8334503839724, 432.4633313762024, 84.51238924870268, 667.5627923407592, -0.03200000151991844, 0.3200000151991844, 0.9760000463575125, 0.0, 0.0, 0.0, 0.0, 0.0, 1.6360734198705196E9, 0.0, 2021-11-04 19:50:19.870
43.0, 579.9481560788117, 426.0942817516625, 108.57490556361154, 670.1508031100966, -0.03200000151991844, 0.3200000151991844, 0.9760000463575125, 0.0, 0.0, 0.0, 0.0, 0.0, 1.6360734198705196E9, 0.0, 2021-11-04 19:50:19.870
44.0, 596.5009532826953, 428.0203302288428, 112.9618082116358, 666.190249057021, -0.03200000151991844, 0.3200000151991844, 0.9760000463575125, 0.0, 0.0, 0.0, 0.0, 0.0, 1.6360734198712473E9, 0.0, 2021-11-04 19:50:19.871
44.0, 569.9514034972526, 422.84804859012365, 66.18687946582213, 655.5128346835263, -0.03200000151991844, 0.3200000151991844, 0.9760000463575125, 0.0, 0.0, 0.0, 0.0, 0.0, 1.6360734198712473E9, 0.0, 2021-11-04 19:50:19.871
45.0, 576.1259783240966, 427.37706743646413, 68.91326653352007, 660.1166515289806, -0.03200000151991844, 0.3200000151991844, 0.9760000463575125, 0.0, 0.0, 0.0, 0.0, 0.0, 1.6360734198818827E9, 0.0, 2021-11-04 19:50:19.881
45.0, 592.764793226961, 425.2827234612778, 105.0332203055732, 661.5527731119655, -0.03200000151991844, 0.3200000151991844, 0.9760000463575125, 0.0, 0.0, 0.0, 0.0, 0.0, 1.6360734198818827E9, 0.0, 2021-11-04 19:50:19.881
46.0, 590.2104415572248, 410.0388912418857, 80.31248159846291, 648.4294641674496, -0.03200000151991844, 0.3200000151991844, 0.9760000463575125, 0.0, 0.0, 0.0, 0.0, 0.0, 1.6360734198826733E9, 0.0, 2021-11-04 19:50:19.882
46.0, 568.354466216173, 421.5241240058094, 83.02390906633809, 647.4533502790146, -0.03200000151991844, 0.3200000151991844, 0.9760000463575125, 0.0, 0.0, 0.0, 0.0, 0.0, 1.6360734198826733E9, 0.0, 2021-11-04 19:50:19.882
47.0, 573.2125962586142, 422.4590989947319, 71.15720650693402, 655.673650381621, -0.03200000151991844, 0.3200000151991844, 0.9760000463575125, 0.0, 0.0, 0.0, 0.0, 0.0, 1.6360734198968909E9, 0.0, 2021-11-04 19:50:19.896
47.0, 579.0991987888701, 411.9798993188888, 81.43071168521419, 649.835666550789, -0.03200000151991844, 0.3200000151991844, 0.9760000463575125, 0.0, 0.0, 0.0, 0.0, 0.0, 1.6360734198968909E9, 0.0, 2021-11-04 19:50:19.896
48.0, 567.0081022321247, 407.0544510772452, 67.74267784738913, 643.2833618284203, -0.03200000151991844, 0.3200000151991844, 0.9760000463575125, 0.0, 0.0, 0.0, 0.0, 0.0, 1.636073419897643E9, 0.0, 2021-11-04 19:50:19.897
48.0, 569.1585447066464, 425.1181678632274, 76.85681403940544, 653.429710408207, -0.03200000151991844, 0.3200000151991844, 0.9760000463575125, 0.0, 0.0, 0.0, 0.0, 0.0, 1.636073419897643E9, 0.0, 2021-11-04 19:50:19.897
49.0, 577.4536428083666, 426.2476176498458, 97.1008924995549, 645.5160821019672, -0.03200000151991844, 0.3200000151991844, 0.9760000463575125, 0.0, 0.0, 0.0, 0.0, 0.0, 1.6360734199112651E9, 0.0, 2021-11-04 19:50:19.911
49.0, 576.8515189155005, 420.4657323183492, 76.08639464853331, 646.7203298876993, -0.03200000151991844, 0.3200000151991844, 0.9760000463575125, 0.0, 0.0, 0.0, 0.0, 0.0, 1.6360734199112651E9, 0.0, 2021-11-04 19:50:19.911
50.0, 575.7519883285277, 423.55488968174905, 40.03001917572692, 652.9285638141446, -0.03200000151991844, 0.3200000151991844, 0.9760000463575125, 0.0, 0.0, 0.0, 0.0, 0.0, 1.636073419926963E9, 0.0, 2021-11-04 19:50:19.926
50.0, 561.6450856956653, 419.81498972605914, 80.0918275010772, 655.8195064798929, -0.03200000151991844, 0.3200000151991844, 0.9760000463575125, 0.0, 0.0, 0.0, 0.0, 0.0, 1.636073419926963E9, 0.0, 2021-11-04 19:50:19.926
51.0, 568.029094920028, 417.7954437499866, 99.85345886694267, 654.3534656972624, -0.03200000151991844, 0.3200000151991844, 0.9760000463575125, 0.0, 0.0, 0.0, 0.0, 0.0, 1.636073419927682E9, 0.0, 2021-11-04 19:50:19.927
51.0, 569.9850625968538, 420.4171136189252, 108.40661006560549, 652.2927808216773, -0.03200000151991844, 0.3200000151991844, 0.9760000463575125, 0.0, 0.0, 0.0, 0.0, 0.0, 1.636073419927682E9, 0.0, 2021-11-04 19:50:19.927
52.0, 576.3728117211722, 430.66069959755987, 92.9533434486948, 657.9400297547691, -0.01600000075995922, 0.3200000151991844, 0.9760000463575125, 0.0, 0.0, 0.0, 0.0, 0.0, 1.6360734199412763E9, 0.0, 2021-11-04 19:50:19.941
52.0, 566.787448134739, 422.5002378942445, 100.96046925382689, 652.6592910173349, -0.01600000075995922, 0.3200000151991844, 0.9760000463575125, 0.0, 0.0, 0.0, 0.0, 0.0, 1.6360734199412763E9, 0.0, 2021-11-04 19:50:19.941
53.0, 554.5317959799431, 406.381269085221, 58.8978144521825, 647.4982290784828, -0.01600000075995922, 0.3200000151991844, 0.9760000463575125, 0.0, 0.0, 0.0, 0.0, 0.0, 1.636073420001717E9, 0.0, 2021-11-04 19:50:20.001
53.0, 566.8248471342959, 414.09668269380927, 70.24467091774568, 654.0131348012947, -0.01600000075995922, 0.3200000151991844, 0.9760000463575125, 0.0, 0.0, 0.0, 0.0, 0.0, 1.636073420001717E9, 0.0, 2021-11-04 19:50:20.001
54.0, 549.4791911398061, 404.1934276111424, 93.20765664568171, 659.5855857352726, -0.01600000075995922, 0.3200000151991844, 0.9760000463575125, 0.0, 0.0, 0.0, 0.0, 0.0, 1.6360734200190532E9, 0.0, 2021-11-04 19:50:20.019
54.0, 559.8461938169785, 412.06965691782534, 61.10809532599524, 651.6270786295645, -0.01600000075995922, 0.3200000151991844, 0.9760000463575125, 0.0, 0.0, 0.0, 0.0, 0.0, 1.6360734200190532E9, 0.0, 2021-11-04 19:50:20.019
55.0, 557.2581830476411, 412.13323521707207, 55.995652086567134, 649.2522421577014, -0.01600000075995922, 0.3200000151991844, 0.9760000463575125, 0.0, 0.0, 0.0, 0.0, 0.0, 1.6360734200197413E9, 0.0, 2021-11-04 19:50:20.019
55.0, 560.0631080144085, 414.0480639943853, 82.95285096717998, 648.0853933715262, -0.01600000075995922, 0.3200000151991844, 0.9760000463575125, 0.0, 0.0, 0.0, 0.0, 0.0, 1.6360734200197413E9, 0.0, 2021-11-04 19:50:20.019
56.0, 549.1014612442814, 400.3076715571806, 86.1317659295164, 647.3561128801666, -0.01600000075995922, 0.3200000151991844, 0.9760000463575125, 0.0, 0.0, 0.0, 0.0, 0.0, 1.636073420020471E9, 0.0, 2021-11-04 19:50:20.020
56.0, 547.224031466525, 408.7224464574829, 67.66413994831964, 648.3958050678484, -0.01600000075995922, 0.3200000151991844, 0.9760000463575125, 0.0, 0.0, 0.0, 0.0, 0.0, 1.636073420020471E9, 0.0, 2021-11-04 19:50:20.020
57.0, 565.0857936549, 400.8536969507113, 70.84679481061175, 639.210610776674, -0.01600000075995922, 0.3200000151991844, 0.9760000463575125, 0.0, 0.0, 0.0, 0.0, 0.0, 1.636073420021248E9, 0.0, 2021-11-04 19:50:20.021
57.0, 540.2715574488975, 396.3358978042379, 82.19739117613062, 631.8392679640092, -0.01600000075995922, 0.3200000151991844, 0.9760000463575125, 0.0, 0.0, 0.0, 0.0, 0.0, 1.636073420021248E9, 0.0, 2021-11-04 19:50:20.021
58.0, 563.5038159736432, 412.24543221574277, 67.31632925244048, 632.3665938577615, -0.01600000075995922, 0.3200000151991844, 0.9760000463575125, 0.0, 0.0, 0.0, 0.0, 0.0, 1.636073420032394E9, 0.0, 2021-11-04 19:50:20.032
58.0, 572.5356743666343, 418.670580339618, 76.07143504871055, 634.1991448360495, -0.01600000075995922, 0.3200000151991844, 0.9760000463575125, 0.0, 0.0, 0.0, 0.0, 0.0, 1.636073420032394E9, 0.0, 2021-11-04 19:50:20.032
59.0, 569.5100953024812, 404.02513211313635, 94.32588673243299, 637.6735118948855, -0.01600000075995922, 0.3200000151991844, 0.9760000463575125, 0.0, 0.0, 0.0, 0.0, 0.0, 1.636073420033095E9, 0.0, 2021-11-04 19:50:20.033
59.0, 560.0107494150288, 404.77311210427433, 82.28340887511149, 634.386139833834, -0.01600000075995922, 0.3200000151991844, 0.9760000463575125, 0.0, 0.0, 0.0, 0.0, 0.0, 1.636073420033095E9, 0.0, 2021-11-04 19:50:20.033
60.0, 551.1397067201324, 407.7949512684718, 54.1556213083677, 635.9194988156669, -0.01600000075995922, 0.3200000151991844, 0.9760000463575125, 0.0, 0.0, 0.0, 0.0, 0.0, 1.6360734200483165E9, 0.0, 2021-11-04 19:50:20.048
60.0, 549.1874789432622, 411.000045530498, 62.54795680893585, 638.9151586801745, -0.01600000075995922, 0.3200000151991844, 0.9760000463575125, 0.0, 0.0, 0.0, 0.0, 0.0, 1.6360734200483165E9, 0.0, 2021-11-04 19:50:20.048
61.0, 551.5772750149481, 413.3150436030701, 78.12090022442862, 636.7422768059187, -0.01600000075995922, 0.3200000151991844, 0.9760000463575125, 0.0, 0.0, 0.0, 0.0, 0.0, 1.6360734200490685E9, 0.0, 2021-11-04 19:50:20.049
61.0, 561.9068786925636, 406.2279331870377, 87.18267781706527, 636.8320344048552, -0.01600000075995922, 0.3200000151991844, 0.9760000463575125, 0.0, 0.0, 0.0, 0.0, 0.0, 1.6360734200490685E9, 0.0, 2021-11-04 19:50:20.049
62.0, 559.8798529165797, 415.981592271477, 84.04864165419713, 633.5745815434493, -0.01600000075995922, 0.3200000151991844, 0.9760000463575125, 0.0, 0.0, 0.0, 0.0, 0.0, 1.6360734200498493E9, 0.0, 2021-11-04 19:50:20.049
62.0, 556.7009379542433, 426.0905418517068, 76.07517494866624, 630.8481944757514, -0.01600000075995922, 0.3200000151991844, 0.9760000463575125, 0.0, 0.0, 0.0, 0.0, 0.0, 1.6360734200498493E9, 0.0, 2021-11-04 19:50:20.049
63.0, 568.560160713736, 432.71016477327794, 99.00076167704538, 637.5126961967908, -0.01600000075995922, 0.3200000151991844, 0.9760000463575125, 0.0, 0.0, 0.0, 0.0, 0.0, 1.6360734200505023E9, 0.0, 2021-11-04 19:50:20.050
63.0, 585.0232003186829, 421.7634776029736, 88.5402615009807, 632.3665938577615, -0.01600000075995922, 0.3200000151991844, 0.9760000463575125, 0.0, 0.0, 0.0, 0.0, 0.0, 1.6360734200505023E9, 0.0, 2021-11-04 19:50:20.050
64.0, 574.1475712475367, 411.84526292048395, 62.12534811394289, 635.5155896204524, -0.01600000075995922, 0.3200000151991844, 0.9760000463575125, 0.0, 0.0, 0.0, 0.0, 0.0, 1.636073420094008E9, 0.0, 2021-11-04 19:50:20.094
64.0, 578.6952895936556, 424.6880793683231, 75.56654855469242, 632.6657858542167, -0.01600000075995922, 0.3200000151991844, 0.9760000463575125, 0.0, 0.0, 0.0, 0.0, 0.0, 1.636073420094008E9, 0.0, 2021-11-04 19:50:20.094
65.0, 555.8370210644789, 425.4958977587521, 74.28002296993509, 639.416305274237, -0.01600000075995922, 0.3200000151991844, 0.9760000463575125, 0.0, 0.0, 0.0, 0.0, 0.0, 1.63607342009478E9, 0.0, 2021-11-04 19:50:20.094
65.0, 570.5909263896756, 420.24881812091917, 78.2779760225676, 637.7969285934232, -0.01600000075995922, 0.3200000151991844, 0.9760000463575125, 0.0, 0.0, 0.0, 0.0, 0.0, 1.63607342009478E9, 0.0, 2021-11-04 19:50:20.094
66.0, 564.9062784570269, 414.6838469868526, 75.8320814515464, 632.710664653685, -0.01600000075995922, 0.3200000151991844, 0.9760000463575125, 0.0, 0.0, 0.0, 0.0, 0.0, 1.636073420095522E9, 0.0, 2021-11-04 19:50:20.095
66.0, 575.9988217256032, 430.4699646998197, 79.37750660954043, 636.0877943136729, -0.01600000075995922, 0.3200000151991844, 0.9760000463575125, 0.0, 0.0, 0.0, 0.0, 0.0, 1.636073420095522E9, 0.0, 2021-11-04 19:50:20.095
67.0, 573.3734119567089, 431.58819478657097, 93.3198536443524, 643.2721421285532, -0.01600000075995922, 0.3200000151991844, 0.9760000463575125, 0.0, 0.0, 0.0, 0.0, 0.0, 1.6360734200962367E9, 0.0, 2021-11-04 19:50:20.096
67.0, 571.0359744844027, 416.8006303617731, 87.90821840846911, 629.8309416878037, -0.01600000075995922, 0.3200000151991844, 0.9760000463575125, 0.0, 0.0, 0.0, 0.0, 0.0, 1.6360734200962367E9, 0.0, 2021-11-04 19:50:20.096
68.0, 550.7881561242975, 422.7545510912314, 98.36871858453378, 626.3229155293666, -0.01600000075995922, 0.3200000151991844, 0.9760000463575125, 0.0, 0.0, 0.0, 0.0, 0.0, 1.6360734201068473E9, 0.0, 2021-11-04 19:50:20.106
68.0, 571.7839544755407, 435.3467942420393, 89.57247388875112, 629.3971132929437, -0.01600000075995922, 0.3200000151991844, 0.9760000463575125, 0.0, 0.0, 0.0, 0.0, 0.0, 1.6360734201068473E9, 0.0, 2021-11-04 19:50:20.106
69.0, 587.398036790546, 430.93371229432523, 89.41539809061214, 630.6873787776567, -0.01600000075995922, 0.3200000151991844, 0.9760000463575125, 0.0, 0.0, 0.0, 0.0, 0.0, 1.6360734201076472E9, 0.0, 2021-11-04 19:50:20.107
69.0, 579.3796912855469, 415.1924733808264, 64.21969208912924, 628.3910802048631, -0.01600000075995922, 0.3200000151991844, 0.9760000463575125, 0.0, 0.0, 0.0, 0.0, 0.0, 1.6360734201076472E9, 0.0, 2021-11-04 19:50:20.107
70.0, 592.873250325676, 432.44089197646827, 89.77442848635837, 641.0618612547405, -0.01600000075995922, 0.3200000151991844, 0.9760000463575125, 0.0, 0.0, 0.0, 0.0, 0.0, 1.6360734201212409E9, 0.0, 2021-11-04 19:50:20.121
70.0, 586.8445315971039, 437.8787065120414, 109.28174665523693, 632.347894357983, -0.01600000075995922, 0.3200000151991844, 0.9760000463575125, 0.0, 0.0, 0.0, 0.0, 0.0, 1.6360734201212409E9, 0.0, 2021-11-04 19:50:20.121
71.0, 580.800853268709, 428.3868404245004, 88.69733729911968, 630.2572902827524, -0.01600000075995922, 0.3200000151991844, 0.9760000463575125, 0.0, 0.0, 0.0, 0.0, 0.0, 1.6360734201369548E9, 0.0, 2021-11-04 19:50:20.136
71.0, 585.3111726152711, 430.66069959755987, 85.12573284143582, 636.8320344048552, -0.01600000075995922, 0.3200000151991844, 0.9760000463575125, 0.0, 0.0, 0.0, 0.0, 0.0, 1.6360734201369548E9, 0.0, 2021-11-04 19:50:20.136
72.0, 584.6753896228038, 440.04784848634154, 100.26110796211287, 642.2848085402511, -0.03200000151991844, 0.3200000151991844, 0.9760000463575125, 0.0, 0.0, 0.0, 0.0, 0.0, 1.6360734201376457E9, 0.0, 2021-11-04 19:50:20.137
72.0, 587.9515419839881, 436.2406303314492, 103.19692942732945, 651.0997527358122, -0.03200000151991844, 0.3200000151991844, 0.9760000463575125, 0.0, 0.0, 0.0, 0.0, 0.0, 1.6360734201376457E9, 0.0, 2021-11-04 19:50:20.137
73.0, 570.392711692024, 430.18573230318725, 85.44362433766946, 651.716836228501, -0.03200000151991844, 0.3200000151991844, 0.9760000463575125, 0.0, 0.0, 0.0, 0.0, 0.0, 1.6360734201511853E9, 0.0, 2021-11-04 19:50:20.151
73.0, 591.0219998476095, 435.1037007449195, 81.2811156869866, 655.1575441877358, -0.03200000151991844, 0.3200000151991844, 0.9760000463575125, 0.0, 0.0, 0.0, 0.0, 0.0, 1.6360734201511853E9, 0.0, 2021-11-04 19:50:20.151
74.0, 569.0239083082415, 439.47938369307667, 123.72898018406704, 642.6999374353327, -0.03200000151991844, 0.3200000151991844, 0.9760000463575125, 0.0, 0.0, 0.0, 0.0, 0.0, 1.6360734201676452E9, 0.0, 2021-11-04 19:50:20.167
74.0, 580.535320371855, 435.44403164088726, 111.26389363175258, 642.6587985358201, -0.03200000151991844, 0.3200000151991844, 0.9760000463575125, 0.0, 0.0, 0.0, 0.0, 0.0, 1.6360734201676452E9, 0.0, 2021-11-04 19:50:20.167
75.0, 592.7236543274485, 449.5808534733951, 117.56188515713438, 638.2083175885491, -0.03200000151991844, 0.3200000151991844, 0.9760000463575125, 0.0, 0.0, 0.0, 0.0, 0.0, 1.6360734201685448E9, 0.0, 2021-11-04 19:50:20.168
75.0, 600.6485023335554, 439.5504417922348, 96.68950350442901, 629.2886561942287, -0.03200000151991844, 0.3200000151991844, 0.9760000463575125, 0.0, 0.0, 0.0, 0.0, 0.0, 1.6360734201685448E9, 0.0, 2021-11-04 19:50:20.168
76.0, 589.6083176643588, 422.2459246972576, 84.99109644303098, 632.564808555413, -0.03200000151991844, 0.3200000151991844, 0.9760000463575125, 0.0, 0.0, 0.0, 0.0, 0.0, 1.6360734201966407E9, 0.0, 2021-11-04 19:50:20.196
76.0, 572.2589217699133, 430.36898740101606, 77.46641773218289, 637.9465245916508, -0.03200000151991844, 0.3200000151991844, 0.9760000463575125, 0.0, 0.0, 0.0, 0.0, 0.0, 1.6360734201966407E9, 0.0, 2021-11-04 19:50:20.196
77.0, 582.4501491491683, 435.12240024469793, 85.82135423319414, 635.1378597249277, -0.03200000151991844, 0.3200000151991844, 0.9760000463575125, 0.0, 0.0, 0.0, 0.0, 0.0, 1.6360734202130723E9, 0.0, 2021-11-04 19:50:20.213
77.0, 568.6312188128941, 432.18657877948135, 82.12259317701682, 631.0314495735802, -0.03200000151991844, 0.3200000151991844, 0.9760000463575125, 0.0, 0.0, 0.0, 0.0, 0.0, 1.6360734202130723E9, 0.0, 2021-11-04 19:50:20.213
78.0, 584.8736043204553, 424.11213477514684, 71.38160050427541, 639.416305274237, -0.03200000151991844, 0.3200000151991844, 0.9760000463575125, 0.0, 0.0, 0.0, 0.0, 0.0, 1.6360734202138062E9, 0.0, 2021-11-04 19:50:20.213
78.0, 578.2726808986627, 426.85348144266754, 71.25818380573764, 646.024708495941, -0.03200000151991844, 0.3200000151991844, 0.9760000463575125, 0.0, 0.0, 0.0, 0.0, 0.0, 1.6360734202138062E9, 0.0, 2021-11-04 19:50:20.213
79.0, 579.7050625816919, 426.341115148738, 89.37051929114386, 636.7160975062288, -0.03200000151991844, 0.3200000151991844, 0.9760000463575125, 0.0, 0.0, 0.0, 0.0, 0.0, 1.6360734202145224E9, 0.0, 2021-11-04 19:50:20.214
79.0, 578.5195142957382, 430.574681898579, 86.90218532038853, 632.613427254837, -0.03200000151991844, 0.3200000151991844, 0.9760000463575125, 0.0, 0.0, 0.0, 0.0, 0.0, 1.6360734202145224E9, 0.0, 2021-11-04 19:50:20.214
80.0, 554.2363438834436, 433.7161978613585, 90.35037307953462, 633.6792987422086, -0.03200000151991844, 0.3200000151991844, 0.9760000463575125, 0.0, 0.0, 0.0, 0.0, 0.0, 1.636073420243317E9, 0.0, 2021-11-04 19:50:20.243
80.0, 575.2620614343323, 428.1736661270261, 96.9512965013273, 632.6321267546155, -0.03200000151991844, 0.3200000151991844, 0.9760000463575125, 0.0, 0.0, 0.0, 0.0, 0.0, 1.636073420243317E9, 0.0, 2021-11-04 19:50:20.243
81.0, 556.3381676585414, 421.26233100891113, 82.18991137621924, 621.8200759827159, -0.03200000151991844, 0.3200000151991844, 0.9760000463575125, 0.0, 0.0, 0.0, 0.0, 0.0, 1.636073420244062E9, 0.0, 2021-11-04 19:50:20.244
81.0, 575.2919806339778, 426.715105144307, 72.85512108681723, 623.9218997578137, -0.03200000151991844, 0.3200000151991844, 0.9760000463575125, 0.0, 0.0, 0.0, 0.0, 0.0, 1.636073420244062E9, 0.0, 2021-11-04 19:50:20.244
82.0, 573.238775558304, 424.0148973762989, 67.4210464511998, 622.9831848689355, -0.03200000151991844, 0.3200000151991844, 0.9760000463575125, 0.0, 0.0, 0.0, 0.0, 0.0, 1.6360734202447336E9, 0.0, 2021-11-04 19:50:20.244
82.0, 556.8580137523822, 421.50916440598667, 82.55642157187685, 621.0197373921983, -0.03200000151991844, 0.3200000151991844, 0.9760000463575125, 0.0, 0.0, 0.0, 0.0, 0.0, 1.6360734202447336E9, 0.0, 2021-11-04 19:50:20.244
83.0, 554.086747885216, 420.59288891684264, 106.35714488988742, 620.7242852956988, -0.03200000151991844, 0.3200000151991844, 0.9760000463575125, 0.0, 0.0, 0.0, 0.0, 0.0, 1.6360734202455597E9, 0.0, 2021-11-04 19:50:20.245
83.0, 574.7683946401812, 433.63018016237766, 81.17639848822728, 624.4342660517432, -0.03200000151991844, 0.3200000151991844, 0.9760000463575125, 0.0, 0.0, 0.0, 0.0, 0.0, 1.6360734202455597E9, 0.0, 2021-11-04 19:50:20.245
84.0, 576.4999683196656, 431.3451012894511, 87.16023841733113, 617.0741429389454, -0.03200000151991844, 0.3200000151991844, 0.9760000463575125, 0.0, 0.0, 0.0, 0.0, 0.0, 1.6360734202562969E9, 0.0, 2021-11-04 19:50:20.256
84.0, 570.7854011873715, 423.9475791770965, 95.7283492158167, 621.5321036861278, -0.03200000151991844, 0.3200000151991844, 0.9760000463575125, 0.0, 0.0, 0.0, 0.0, 0.0, 1.6360734202562969E9, 0.0, 2021-11-04 19:50:20.256
85.0, 553.0171364978887, 424.2467711735517, 103.85889171948656, 616.5468170451932, -0.03200000151991844, 0.3200000151991844, 0.9760000463575125, 0.0, 0.0, 0.0, 0.0, 0.0, 1.636073420271315E9, 0.0, 2021-11-04 19:50:20.271
85.0, 556.1511726607569, 426.5767288459465, 105.75876089697704, 622.1753664785065, -0.03200000151991844, 0.3200000151991844, 0.9760000463575125, 0.0, 0.0, 0.0, 0.0, 0.0, 1.636073420271315E9, 0.0, 2021-11-04 19:50:20.271
86.0, 554.3111418825574, 418.2778908442706, 87.66512491134927, 622.3361821766011, -0.03200000151991844, 0.3200000151991844, 0.9760000463575125, 0.0, 0.0, 0.0, 0.0, 0.0, 1.6360734203189604E9, 0.0, 2021-11-04 19:50:20.318
86.0, 570.7330425879918, 413.7451320979744, 92.40731805516407, 623.1739197666757, -0.03200000151991844, 0.3200000151991844, 0.9760000463575125, 0.0, 0.0, 0.0, 0.0, 0.0, 1.6360734203189604E9, 0.0, 2021-11-04 19:50:20.318
87.0, 558.8962592282332, 423.85408167820424, 98.43229688378051, 608.794004437048, -0.03200000151991844, 0.3200000151991844, 0.9760000463575125, 0.0, 0.0, 0.0, 0.0, 0.0, 1.6360734203197153E9, 0.0, 2021-11-04 19:50:20.319
87.0, 565.2092103534378, 422.0514498995617, 86.0233088308014, 606.164854768198, -0.03200000151991844, 0.3200000151991844, 0.9760000463575125, 0.0, 0.0, 0.0, 0.0, 0.0, 1.6360734203197153E9, 0.0, 2021-11-04 19:50:20.319
88.0, 548.9069864465855, 414.69506668671966, 83.99254315486178, 604.8708493835293, -0.03200000151991844, 0.3200000151991844, 0.9760000463575125, 0.0, 0.0, 0.0, 0.0, 0.0, 1.6360734203204677E9, 0.0, 2021-11-04 19:50:20.320
88.0, 534.7215459146537, 419.4148204308003, 71.45639850338921, 607.9637466468848, -0.03200000151991844, 0.3200000151991844, 0.9760000463575125, 0.0, 0.0, 0.0, 0.0, 0.0, 1.6360734203204677E9, 0.0, 2021-11-04 19:50:20.320
89.0, 560.2052242127247, 430.4587449999526, 101.33071934944019, 612.279591195751, -0.03200000151991844, 0.3200000151991844, 0.9760000463575125, 0.0, 0.0, 0.0, 0.0, 0.0, 1.636073420321176E9, 0.0, 2021-11-04 19:50:20.321
89.0, 564.7454627589323, 415.69735987484455, 77.71325112925842, 602.7952049081214, -0.03200000151991844, 0.3200000151991844, 0.9760000463575125, 0.0, 0.0, 0.0, 0.0, 0.0, 1.636073420321176E9, 0.0, 2021-11-04 19:50:20.321
90.0, 524.6686948337592, 402.8508035270497, 62.817229605745524, 602.5745508107357, -0.03200000151991844, 0.3200000151991844, 0.9760000463575125, 0.0, 0.0, 0.0, 0.0, 0.0, 1.6360734203482723E9, 0.0, 2021-11-04 19:50:20.348
90.0, 560.2725424119271, 410.8953283317387, 89.99508258374408, 608.105862845201, -0.03200000151991844, 0.3200000151991844, 0.9760000463575125, 0.0, 0.0, 0.0, 0.0, 0.0, 1.6360734203482723E9, 0.0, 2021-11-04 19:50:20.348
91.0, 546.7341045723297, 414.3547357907519, 72.99723728513345, 596.4822537829168, -0.03200000151991844, 0.33600001595914364, 0.9760000463575125, 0.0, 0.0, 0.0, 0.0, 0.0, 1.6360734203489585E9, 0.0, 2021-11-04 19:50:20.348
91.0, 554.6252934788354, 409.2048935517669, 95.990142212715, 609.0146585344337, -0.03200000151991844, 0.33600001595914364, 0.9760000463575125, 0.0, 0.0, 0.0, 0.0, 0.0, 1.6360734203489585E9, 0.0, 2021-11-04 19:50:20.348
92.0, 568.6012996132486, 419.4896184299141, 91.40876476699486, 616.4869786459021, -0.01600000075995922, 0.33600001595914364, 0.9760000463575125, 0.0, 0.0, 0.0, 0.0, 0.0, 1.6360734203497105E9, 0.0, 2021-11-04 19:50:20.349
92.0, 557.8303877408616, 417.76926445029676, 83.2445631637238, 612.5264245928265, -0.01600000075995922, 0.33600001595914364, 0.9760000463575125, 0.0, 0.0, 0.0, 0.0, 0.0, 1.6360734203497105E9, 0.0, 2021-11-04 19:50:20.349
93.0, 562.722176882904, 428.6822925209999, 76.88673323905095, 608.685547338333, -0.01600000075995922, 0.33600001595914364, 0.9760000463575125, 0.0, 0.0, 0.0, 0.0, 0.0, 1.6360734203504605E9, 0.0, 2021-11-04 19:50:20.350
93.0, 542.2873635250144, 440.34330058284104, 74.66149276541546, 624.5539428503253, -0.01600000075995922, 0.33600001595914364, 0.9760000463575125, 0.0, 0.0, 0.0, 0.0, 0.0, 1.6360734203504605E9, 0.0, 2021-11-04 19:50:20.350
94.0, 569.8279867987148, 438.9483178993687, 94.80085402680561, 632.4264322570525, -0.01600000075995922, 0.33600001595914364, 0.9760000463575125, 0.0, 0.0, 0.0, 0.0, 0.0, 1.6360734203612301E9, 0.0, 2021-11-04 19:50:20.361
94.0, 570.3702722922899, 431.0982678923756, 94.89435152569786, 616.1242083502002, -0.01600000075995922, 0.33600001595914364, 0.9760000463575125, 0.0, 0.0, 0.0, 0.0, 0.0, 1.6360734203612301E9, 0.0, 2021-11-04 19:50:20.361
95.0, 569.5213150023483, 430.41760610044, 99.65524416929111, 629.333534993697, -0.01600000075995922, 0.33600001595914364, 0.9760000463575125, 0.0, 0.0, 0.0, 0.0, 0.0, 1.6360734203769145E9, 0.0, 2021-11-04 19:50:20.376
95.0, 568.2123500178568, 445.6090797204524, 109.26678705541417, 637.4304183977656, -0.01600000075995922, 0.33600001595914364, 0.9760000463575125, 0.0, 0.0, 0.0, 0.0, 0.0, 1.6360734203769145E9, 0.0, 2021-11-04 19:50:20.376
96.0, 583.093411941547, 446.5178754096851, 105.87843769555911, 625.7282714364119, -0.01600000075995922, 0.33600001595914364, 0.9760000463575125, 0.0, 0.0, 0.0, 0.0, 0.0, 1.6360734203776753E9, 0.0, 2021-11-04 19:50:20.377
96.0, 590.7003684514202, 443.9784833397716, 136.04073083819821, 634.1654857364483, -0.01600000075995922, 0.33600001595914364, 0.9760000463575125, 0.0, 0.0, 0.0, 0.0, 0.0, 1.6360734203776753E9, 0.0, 2021-11-04 19:50:20.377
97.0, 591.9233157369308, 446.2448627129197, 119.13638303847983, 638.6982444827445, -0.01600000075995922, 0.33600001595914364, 0.9760000463575125, 0.0, 0.0, 0.0, 0.0, 0.0, 1.6360734204216812E9, 0.0, 2021-11-04 19:50:20.421
97.0, 575.1311649358831, 455.2617615060881, 97.90123109007254, 631.6934118657373, -0.01600000075995922, 0.33600001595914364, 0.9760000463575125, 0.0, 0.0, 0.0, 0.0, 0.0, 1.6360734204216812E9, 0.0, 2021-11-04 19:50:20.421
98.0, 588.7406608746387, 447.38179229944944, 103.15205062786117, 633.0659551494755, -0.01600000075995922, 0.33600001595914364, 0.9760000463575125, 0.0, 0.0, 0.0, 0.0, 0.0, 1.6360734204547093E9, 0.0, 2021-11-04 19:50:20.454
98.0, 597.8136581671424, 448.5411612857133, 127.9662868338637, 633.4810840445571, -0.01600000075995922, 0.33600001595914364, 0.9760000463575125, 0.0, 0.0, 0.0, 0.0, 0.0, 1.6360734204547093E9, 0.0, 2021-11-04 19:50:20.454
99.0, 586.3770441026427, 453.7732813237235, 131.43317409278825, 637.8866861923598, -0.01600000075995922, 0.33600001595914364, 0.9760000463575125, 0.0, 0.0, 0.0, 0.0, 0.0, 1.6360734204554548E9, 0.0, 2021-11-04 19:50:20.455
99.0, 568.3395066163503, 444.96581692807376, 122.05724490387365, 635.3472941224463, -0.01600000075995922, 0.33600001595914364, 0.9760000463575125, 0.0, 0.0, 0.0, 0.0, 0.0, 1.6360734204554548E9, 0.0, 2021-11-04 19:50:20.455
100.0, 581.6535504586063, 458.9979215618223, 118.26872624875978, 631.6597527661361, -0.01600000075995922, 0.33600001595914364, 0.9600000455975533, 0.0, 0.0, 0.0, 0.0, 0.0, 1.6360734204561532E9, 0.0, 2021-11-04 19:50:20.456
100.0, 607.39528185362, 464.97802159097046, 114.51386669324711, 627.6057012141682, -0.01600000075995922, 0.33600001595914364, 0.9600000455975533, 0.0, 0.0, 0.0, 0.0, 0.0, 1.6360734204561532E9, 0.0, 2021-11-04 19:50:20.456
0.0, 597.5911341197789, 456.3556822431274, 102.0674796407111, 613.9064476764761, -0.01600000075995922, 0.33600001595914364, 0.9600000455975533, 0.0, 0.0, 0.0, 0.0, 0.0, 1.6360734204568856E9, 0.0, 2021-11-04 19:50:20.456
1.0, 584.6136812735349, 455.0467172586359, 113.78084630193189, 615.1219151620753, -0.01600000075995922, 0.33600001595914364, 0.9600000455975533, 0.0, 0.0, 0.0, 0.0, 0.0, 1.6360734204689348E9, 0.0, 2021-11-04 19:50:20.468
1.0, 596.9553511273116, 461.0193374878727, 121.89642920577899, 616.6590140438639, -0.01600000075995922, 0.33600001595914364, 0.9600000455975533, 0.0, 0.0, 0.0, 0.0, 0.0, 1.6360734204689348E9, 0.0, 2021-11-04 19:50:20.468
2.0, 596.431765133515, 447.7464325451292, 109.89135034801438, 614.0934426742606, -0.01600000075995922, 0.33600001595914364, 0.9600000455975533, 0.0, 0.0, 0.0, 0.0, 0.0, 1.6360734204697108E9, 0.0, 2021-11-04 19:50:20.469
2.0, 594.0344892619178, 443.9691335898824, 117.76757965469733, 614.7292256667279, -0.01600000075995922, 0.33600001595914364, 0.9600000455975533, 0.0, 0.0, 0.0, 0.0, 0.0, 1.6360734204697108E9, 0.0, 2021-11-04 19:50:20.469
3.0, 587.0932349441573, 448.28871803870425, 128.19816063111648, 622.4633387750946, -0.01600000075995922, 0.33600001595914364, 0.9600000455975533, 0.0, 0.0, 0.0, 0.0, 0.0, 1.6360734204704914E9, 0.0, 2021-11-04 19:50:20.470
3.0, 584.6548201730475, 446.2990912622772, 118.31360504822806, 615.8698951532133, -0.01600000075995922, 0.33600001595914364, 0.9600000455975533, 0.0, 0.0, 0.0, 0.0, 0.0, 1.6360734204704914E9, 0.0, 2021-11-04 19:50:20.470
4.0, 576.845909065567, 434.06213860725984, 106.83585208421573, 606.5912033631466, -0.01600000075995922, 0.33600001595914364, 0.9600000455975533, 0.0, 0.0, 0.0, 0.0, 0.0, 1.636073420471197E9, 0.0, 2021-11-04 19:50:20.471
4.0, 552.6898952517658, 433.31415861612186, 129.1518351198174, 611.1314419093542, -0.01600000075995922, 0.33600001595914364, 0.9600000455975533, 0.0, 0.0, 0.0, 0.0, 0.0, 1.636073420471197E9, 0.0, 2021-11-04 19:50:20.471
5.0, 570.140268445015, 444.69467418128625, 117.06447846302763, 619.5088178100996, -0.01600000075995922, 0.33600001595914364, 0.9600000455975533, 0.0, 0.0, 0.0, 0.0, 0.0, 1.6360734204819005E9, 0.0, 2021-11-04 19:50:20.481
5.0, 570.525478140451, 449.485486024525, 129.8624161113985, 609.3138505308889, -0.01600000075995922, 0.33600001595914364, 0.9600000455975533, 0.0, 0.0, 0.0, 0.0, 0.0, 1.6360734204819005E9, 0.0, 2021-11-04 19:50:20.481
6.0, 558.1314496872947, 450.6111959111877, 105.97193519445136, 613.5810763803311, -0.01600000075995922, 0.33600001595914364, 0.9600000455975533, 0.0, 0.0, 0.0, 0.0, 0.0, 1.6360734204826329E9, 0.0, 2021-11-04 19:50:20.482
6.0, 583.5964284855872, 451.8191835968755, 112.28114641970024, 620.5447700978257, -0.01600000075995922, 0.33600001595914364, 0.9600000455975533, 0.0, 0.0, 0.0, 0.0, 0.0, 1.6360734204826329E9, 0.0, 2021-11-04 19:50:20.482
7.0, 592.2505569830537, 441.42974151996896, 147.3464484042488, 611.3670556065626, -0.01600000075995922, 0.33600001595914364, 0.9600000455975533, 0.0, 0.0, 0.0, 0.0, 0.0, 1.6360734204962344E9, 0.0, 2021-11-04 19:50:20.496
7.0, 580.4212534232065, 439.72808704013005, 142.40230066282675, 607.7169132498093, -0.01600000075995922, 0.33600001595914364, 0.9600000455975533, 0.0, 0.0, 0.0, 0.0, 0.0, 1.6360734204962344E9, 0.0, 2021-11-04 19:50:20.496
8.0, 578.5550433453172, 452.69058028655127, 144.6798997358419, 610.5330579164438, -0.01600000075995922, 0.33600001595914364, 0.9600000455975533, 0.0, 0.0, 0.0, 0.0, 0.0, 1.636073420544058E9, 0.0, 2021-11-04 19:50:20.544
8.0, 566.6808609860018, 446.0746972649358, 130.93950729863718, 601.6208763220347, -0.01600000075995922, 0.33600001595914364, 0.9600000455975533, 0.0, 0.0, 0.0, 0.0, 0.0, 1.636073420544058E9, 0.0, 2021-11-04 19:50:20.544
9.0, 550.4796143779531, 446.28039176249877, 123.20539419027045, 608.8089640368707, -0.01600000075995922, 0.33600001595914364, 0.9600000455975533, 0.0, 0.0, 0.0, 0.0, 0.0, 1.6360734205447888E9, 0.0, 2021-11-04 19:50:20.544
9.0, 578.6261014444754, 454.54183076461777, 123.31011138902977, 615.8923345529474, -0.01600000075995922, 0.33600001595914364, 0.9600000455975533, 0.0, 0.0, 0.0, 0.0, 0.0, 1.6360734205447888E9, 0.0, 2021-11-04 19:50:20.544
10.0, 571.8456628248096, 435.2589065930806, 138.4903653091751, 612.5937427920289, -0.01600000075995922, 0.33600001595914364, 0.9760000463575125, 0.0, 0.0, 0.0, 0.0, 0.0, 1.636073420545512E9, 0.0, 2021-11-04 19:50:20.545
10.0, 565.0203454056755, 442.54797160672024, 113.36571740685031, 601.0075327293016, -0.01600000075995922, 0.33600001595914364, 0.9760000463575125, 0.0, 0.0, 0.0, 0.0, 0.0, 1.636073420545512E9, 0.0, 2021-11-04 19:50:20.545
11.0, 567.1146893808618, 448.40091503737494, 88.16253160545602, 612.0888562980108, -0.01600000075995922, 0.3200000151991844, 0.9760000463575125, 0.0, 0.0, 0.0, 0.0, 0.0, 1.6360734205461712E9, 0.0, 2021-11-04 19:50:20.546
11.0, 584.1013149796054, 444.32068418571725, 159.74795665731654, 609.7663784255274, -0.01600000075995922, 0.3200000151991844, 0.9760000463575125, 0.0, 0.0, 0.0, 0.0, 0.0, 1.6360734205461712E9, 0.0, 2021-11-04 19:50:20.546
12.0, 563.9208148187026, 435.217767693568, 158.43525177286938, 605.2111802794971, -0.03200000151991844, 0.3200000151991844, 0.9760000463575125, 0.0, 0.0, 0.0, 0.0, 0.0, 1.636073420573322E9, 0.0, 2021-11-04 19:50:20.573
12.0, 577.5789294568822, 431.7845395342447, 132.4915657802485, 603.6030232985504, -0.03200000151991844, 0.3200000151991844, 0.9760000463575125, 0.0, 0.0, 0.0, 0.0, 0.0, 1.636073420573322E9, 0.0, 2021-11-04 19:50:20.573
13.0, 573.0087717110291, 435.98070728452876, 125.94674085779116, 605.2410994791426, -0.03200000151991844, 0.3200000151991844, 0.9760000463575125, 0.0, 0.0, 0.0, 0.0, 0.0, 1.636073420574025E9, 0.0, 2021-11-04 19:50:20.574
13.0, 577.9454396525398, 436.5903109773062, 126.54138495074585, 599.8182445433922, -0.03200000151991844, 0.3200000151991844, 0.9760000463575125, 0.0, 0.0, 0.0, 0.0, 0.0, 1.636073420574025E9, 0.0, 2021-11-04 19:50:20.574
14.0, 562.155582039617, 439.98988003702834, 107.08268548129126, 587.8056858857162, -0.03200000151991844, 0.3200000151991844, 0.9760000463575125, 0.0, 0.0, 0.0, 0.0, 0.0, 1.6360734205748367E9, 0.0, 2021-11-04 19:50:20.574
14.0, 554.0960976351053, 438.73327365191653, 104.9920814060606, 597.8024384672754, -0.03200000151991844, 0.3200000151991844, 0.9760000463575125, 0.0, 0.0, 0.0, 0.0, 0.0, 1.6360734205748367E9, 0.0, 2021-11-04 19:50:20.574
15.0, 576.1989063732326, 443.5914036943577, 152.74312404030934, 607.0287716579624, -0.03200000151991844, 0.3200000151991844, 0.9760000463575125, 0.0, 0.0, 0.0, 0.0, 0.0, 1.6360734205755675E9, 0.0, 2021-11-04 19:50:20.575
15.0, 578.1062553506345, 438.1984679582529, 109.06109255785123, 605.0728039811365, -0.03200000151991844, 0.3200000151991844, 0.9760000463575125, 0.0, 0.0, 0.0, 0.0, 0.0, 1.6360734205755675E9, 0.0, 2021-11-04 19:50:20.575
16.0, 591.1173672964796, 430.8981832447462, 124.17028837883845, 609.9795527230017, -0.03200000151991844, 0.3200000151991844, 0.9760000463575125, 0.0, 0.0, 0.0, 0.0, 0.0, 1.636073420586239E9, 0.0, 2021-11-04 19:50:20.586
16.0, 591.1472864961252, 443.62506279395893, 146.70692551182583, 610.3124038190581, -0.03200000151991844, 0.3200000151991844, 0.9760000463575125, 0.0, 0.0, 0.0, 0.0, 0.0, 1.636073420586239E9, 0.0, 2021-11-04 19:50:20.586
17.0, 571.6362284272909, 441.83365071518347, 121.65333570865914, 621.0533964917995, -0.03200000151991844, 0.3200000151991844, 0.9760000463575125, 0.0, 0.0, 0.0, 0.0, 0.0, 1.6360734206019163E9, 0.0, 2021-11-04 19:50:20.601
17.0, 569.7625385494903, 450.341923114378, 106.55535958753899, 606.4229078651406, -0.03200000151991844, 0.3200000151991844, 0.9760000463575125, 0.0, 0.0, 0.0, 0.0, 0.0, 1.6360734206019163E9, 0.0, 2021-11-04 19:50:20.601
18.0, 583.9554588813335, 443.9317345903255, 133.99126566248015, 603.9433541945182, -0.03200000151991844, 0.3200000151991844, 0.9760000463575125, 0.0, 0.0, 0.0, 0.0, 0.0, 1.6360734206026416E9, 0.0, 2021-11-04 19:50:20.602
18.0, 580.0023846281692, 441.8112113154493, 154.39989972067997, 601.1683484273963, -0.03200000151991844, 0.3200000151991844, 0.9760000463575125, 0.0, 0.0, 0.0, 0.0, 0.0, 1.6360734206026416E9, 0.0, 2021-11-04 19:50:20.602
19.0, 592.078521585092, 430.4456553501077, 123.13059619115666, 594.3243315084837, -0.03200000151991844, 0.3200000151991844, 0.9760000463575125, 0.0, 0.0, 0.0, 0.0, 0.0, 1.6360734206496263E9, 0.0, 2021-11-04 19:50:20.649
19.0, 567.7018536739051, 437.31585156871006, 129.0807770206593, 600.6559821334668, -0.03200000151991844, 0.3200000151991844, 0.9760000463575125, 0.0, 0.0, 0.0, 0.0, 0.0, 1.6360734206496263E9, 0.0, 2021-11-04 19:50:20.649
20.0, 575.4359667822719, 450.6710343104787, 129.61558271432295, 610.1254088212736, -0.03200000151991844, 0.3200000151991844, 0.9760000463575125, 0.0, 0.0, 0.0, 0.0, 0.0, 1.6360734206504612E9, 0.0, 2021-11-04 19:50:20.650
20.0, 591.1996450955048, 452.5746433879249, 134.7916042529978, 606.4677866646089, -0.03200000151991844, 0.3200000151991844, 0.9760000463575125, 0.0, 0.0, 0.0, 0.0, 0.0, 1.6360734206504612E9, 0.0, 2021-11-04 19:50:20.650
21.0, 579.6844931319356, 442.5292721069418, 124.04313178034499, 616.15038764989, -0.03200000151991844, 0.3200000151991844, 0.9760000463575125, 0.0, 0.0, 0.0, 0.0, 0.0, 1.6360734206511106E9, 0.0, 2021-11-04 19:50:20.651
21.0, 593.1219536727294, 442.779845403973, 107.99148117052391, 635.1715188245289, -0.03200000151991844, 0.3200000151991844, 0.9760000463575125, 0.0, 0.0, 0.0, 0.0, 0.0, 1.6360734206511106E9, 0.0, 2021-11-04 19:50:20.651
22.0, 592.138359984383, 452.55220398819074, 136.16788743669167, 628.3275019056164, -0.03200000151991844, 0.3200000151991844, 0.9760000463575125, 0.0, 0.0, 0.0, 0.0, 0.0, 1.6360734206519403E9, 0.0, 2021-11-04 19:50:20.651
22.0, 583.2149586901069, 438.3667634562589, 148.6067946893163, 614.968579263892, -0.03200000151991844, 0.3200000151991844, 0.9760000463575125, 0.0, 0.0, 0.0, 0.0, 0.0, 1.6360734206519403E9, 0.0, 2021-11-04 19:50:20.651
23.0, 574.1718805972487, 449.88191541982815, 139.7170524946414, 609.6841006265022, -0.03200000151991844, 0.3200000151991844, 0.9760000463575125, 0.0, 0.0, 0.0, 0.0, 0.0, 1.6360734206618624E9, 0.0, 2021-11-04 19:50:20.661
23.0, 569.5867632515728, 453.47969917720184, 110.84128493675962, 607.4513803529553, -0.03200000151991844, 0.3200000151991844, 0.9760000463575125, 0.0, 0.0, 0.0, 0.0, 0.0, 1.6360734206618624E9, 0.0, 2021-11-04 19:50:20.661
24.0, 555.4723808187991, 457.421553730499, 146.04122331971303, 617.0105646396987, -0.03200000151991844, 0.3200000151991844, 0.9760000463575125, 0.0, 0.0, 0.0, 0.0, 0.0, 1.6360734206626296E9, 0.0, 2021-11-04 19:50:20.662
24.0, 580.0510033275932, 437.72724056383595, 145.83926872210577, 624.4866246511228, -0.03200000151991844, 0.3200000151991844, 0.9760000463575125, 0.0, 0.0, 0.0, 0.0, 0.0, 1.6360734206626296E9, 0.0, 2021-11-04 19:50:20.662
25.0, 589.2212380189449, 435.94330828497186, 121.73935340764001, 612.3955280943774, -0.03200000151991844, 0.3200000151991844, 0.9760000463575125, 0.0, 0.0, 0.0, 0.0, 0.0, 1.6360734206762629E9, 0.0, 2021-11-04 19:50:20.676
25.0, 557.3385908966884, 442.4956130073406, 149.51559037854895, 605.8245238722302, -0.03200000151991844, 0.3200000151991844, 0.9760000463575125, 0.0, 0.0, 0.0, 0.0, 0.0, 1.6360734206762629E9, 0.0, 2021-11-04 19:50:20.676
26.0, 577.2984369602054, 442.6788681051694, 124.86216987064108, 596.1007839874364, -0.03200000151991844, 0.3200000151991844, 0.9760000463575125, 0.0, 0.0, 0.0, 0.0, 0.0, 1.6360734206919444E9, 0.0, 2021-11-04 19:50:20.691
26.0, 569.5456243520603, 430.1202840539627, 129.75395901268348, 598.4606608594768, -0.03200000151991844, 0.3200000151991844, 0.9760000463575125, 0.0, 0.0, 0.0, 0.0, 0.0, 1.6360734206919444E9, 0.0, 2021-11-04 19:50:20.691
27.0, 576.3447624715045, 423.94196932716295, 127.3005846417509, 593.3033388205804, -0.03200000151991844, 0.3200000151991844, 0.9760000463575125, 0.0, 0.0, 0.0, 0.0, 0.0, 1.6360734206926672E9, 0.0, 2021-11-04 19:50:20.692
27.0, 580.9523192169145, 434.21173460548744, 96.44267010735348, 593.729687415529, -0.03200000151991844, 0.3200000151991844, 0.9760000463575125, 0.0, 0.0, 0.0, 0.0, 0.0, 1.6360734206926672E9, 0.0, 2021-11-04 19:50:20.692
28.0, 580.3240160243586, 428.9683948676102, 109.89135034801438, 596.5869709816761, -0.03200000151991844, 0.3200000151991844, 0.9760000463575125, 0.0, 0.0, 0.0, 0.0, 0.0, 1.6360734207062116E9, 0.0, 2021-11-04 19:50:20.706
28.0, 572.7170595144853, 425.95029560336843, 138.81947650527582, 592.5777982291766, -0.03200000151991844, 0.3200000151991844, 0.9760000463575125, 0.0, 0.0, 0.0, 0.0, 0.0, 1.6360734207062116E9, 0.0, 2021-11-04 19:50:20.706
29.0, 555.4761207187548, 435.76753298705444, 118.47442074632272, 600.5400452348404, -0.03200000151991844, 0.3200000151991844, 0.9760000463575125, 0.0, 0.0, 0.0, 0.0, 0.0, 1.6360734207218611E9, 0.0, 2021-11-04 19:50:20.721
29.0, 566.7855781847611, 443.50912589533255, 114.44654849404469, 596.4224153836258, -0.03200000151991844, 0.3200000151991844, 0.9760000463575125, 0.0, 0.0, 0.0, 0.0, 0.0, 1.6360734207218611E9, 0.0, 2021-11-04 19:50:20.721
30.0, 573.4874789053574, 445.69696736941114, 147.31652920460328, 602.2603992144577, -0.03200000151991844, 0.3200000151991844, 0.9760000463575125, 0.0, 0.0, 0.0, 0.0, 0.0, 1.6360734207226489E9, 0.0, 2021-11-04 19:50:20.722
30.0, 585.7842699596658, 428.65424327133223, 138.04157731449232, 601.991126417648, -0.03200000151991844, 0.3200000151991844, 0.9760000463575125, 0.0, 0.0, 0.0, 0.0, 0.0, 1.6360734207226489E9, 0.0, 2021-11-04 19:50:20.722
31.0, 573.6819537030533, 432.046332531143, 131.96049998654053, 605.5290717757307, -0.03200000151991844, 0.3200000151991844, 0.9760000463575125, 0.0, 0.0, 0.0, 0.0, 0.0, 1.6360734207666333E9, 0.0, 2021-11-04 19:50:20.766
31.0, 568.4423538651317, 432.4876407259144, 130.5243784035556, 610.4059013179503, -0.03200000151991844, 0.3200000151991844, 0.9760000463575125, 0.0, 0.0, 0.0, 0.0, 0.0, 1.6360734207666333E9, 0.0, 2021-11-04 19:50:20.766
32.0, 579.0711495392025, 427.5285333846696, 108.26823376724496, 602.2678790143691, -0.01600000075995922, 0.3200000151991844, 0.9760000463575125, 0.0, 0.0, 0.0, 0.0, 0.0, 1.636073420799045E9, 0.0, 2021-11-04 19:50:20.799
32.0, 590.0440160091966, 431.31331213982776, 116.05844537494704, 589.8439313615672, -0.01600000075995922, 0.3200000151991844, 0.9760000463575125, 0.0, 0.0, 0.0, 0.0, 0.0, 1.636073420799045E9, 0.0, 2021-11-04 19:50:20.799
33.0, 586.4275327520445, 432.61479732440785, 136.69147343048826, 594.8366978024133, -0.01600000075995922, 0.3200000151991844, 0.9760000463575125, 0.0, 0.0, 0.0, 0.0, 0.0, 1.636073420799791E9, 0.0, 2021-11-04 19:50:20.799
33.0, 578.6896797437221, 436.3359977803193, 145.52511712582782, 596.2765592853539, -0.01600000075995922, 0.3200000151991844, 0.9760000463575125, 0.0, 0.0, 0.0, 0.0, 0.0, 1.636073420799791E9, 0.0, 2021-11-04 19:50:20.799
34.0, 567.0361514817923, 431.21233484102413, 118.1864484497346, 592.9966670242138, -0.01600000075995922, 0.3200000151991844, 0.9760000463575125, 0.0, 0.0, 0.0, 0.0, 0.0, 1.636073420800455E9, 0.0, 2021-11-04 19:50:20.800
34.0, 573.1770672090352, 441.9308881140314, 143.76362424669787, 603.752619296778, -0.01600000075995922, 0.3200000151991844, 0.9760000463575125, 0.0, 0.0, 0.0, 0.0, 0.0, 1.636073420800455E9, 0.0, 2021-11-04 19:50:20.800
35.0, 580.2978367246687, 449.13393542869017, 171.4351440188475, 598.7374134561978, -0.01600000075995922, 0.3200000151991844, 0.9760000463575125, 0.0, 0.0, 0.0, 0.0, 0.0, 1.6360734208012128E9, 0.0, 2021-11-04 19:50:20.801
35.0, 585.8927270583808, 442.91822170233354, 149.8671409743838, 593.4155358192511, -0.01600000075995922, 0.3200000151991844, 0.9760000463575125, 0.0, 0.0, 0.0, 0.0, 0.0, 1.6360734208012128E9, 0.0, 2021-11-04 19:50:20.801
36.0, 595.3060552468523, 444.0738507886417, 138.50532490899786, 597.4845469710417, -0.01600000075995922, 0.3200000151991844, 0.9760000463575125, 0.0, 0.0, 0.0, 0.0, 0.0, 1.6360734208133063E9, 0.0, 2021-11-04 19:50:20.813
36.0, 588.4582984279841, 429.5630389605649, 148.8648477862589, 598.1876481627114, -0.01600000075995922, 0.3200000151991844, 0.9760000463575125, 0.0, 0.0, 0.0, 0.0, 0.0, 1.6360734208133063E9, 0.0, 2021-11-04 19:50:20.813
37.0, 572.9601530116051, 445.5548511710949, 147.94857229711488, 595.3041852968745, -0.01600000075995922, 0.3200000151991844, 0.9760000463575125, 0.0, 0.0, 0.0, 0.0, 0.0, 1.6360734208140876E9, 0.0, 2021-11-04 19:50:20.814
37.0, 589.9879175098613, 454.81110356142744, 133.44150036899373, 599.9154819422401, -0.01600000075995922, 0.3200000151991844, 0.9760000463575125, 0.0, 0.0, 0.0, 0.0, 0.0, 1.6360734208140876E9, 0.0, 2021-11-04 19:50:20.814
38.0, 577.6425077561289, 438.1161901592277, 107.20984207978472, 597.6715419688262, -0.01600000075995922, 0.3200000151991844, 0.9760000463575125, 0.0, 0.0, 0.0, 0.0, 0.0, 1.6360734208148375E9, 0.0, 2021-11-04 19:50:20.814
38.0, 560.973773653619, 444.9976060776971, 146.22821831749752, 590.5993911526166, -0.01600000075995922, 0.3200000151991844, 0.9760000463575125, 0.0, 0.0, 0.0, 0.0, 0.0, 1.6360734208148375E9, 0.0, 2021-11-04 19:50:20.814
39.0, 588.6602530255914, 434.17433560593054, 151.239684258122, 582.7456012456678, -0.01600000075995922, 0.3200000151991844, 0.9760000463575125, 0.0, 0.0, 0.0, 0.0, 0.0, 1.6360734208155768E9, 0.0, 2021-11-04 19:50:20.815
39.0, 595.683785142377, 445.9064017669298, 130.77121180063114, 582.7269017458893, -0.01600000075995922, 0.3200000151991844, 0.9760000463575125, 0.0, 0.0, 0.0, 0.0, 0.0, 1.6360734208155768E9, 0.0, 2021-11-04 19:50:20.815
40.0, 582.1790064023808, 446.47112666023895, 149.4931509788148, 580.572719371412, -0.01600000075995922, 0.3200000151991844, 0.9760000463575125, 0.0, 0.0, 0.0, 0.0, 0.0, 1.6360734208262434E9, 0.0, 2021-11-04 19:50:20.826
40.0, 574.493511993438, 444.2571058864705, 144.62754113646224, 585.5467863124795, -0.01600000075995922, 0.3200000151991844, 0.9760000463575125, 0.0, 0.0, 0.0, 0.0, 0.0, 1.6360734208262434E9, 0.0, 2021-11-04 19:50:20.826
41.0, 591.8279482880607, 442.6751282052137, 115.38526338292286, 587.614950987976, -0.01600000075995922, 0.33600001595914364, 0.9760000463575125, 0.0, 0.0, 0.0, 0.0, 0.0, 1.636073420873942E9, 0.0, 2021-11-04 19:50:20.873
41.0, 591.8952664872631, 447.9371674428694, 139.27948419982567, 577.9173904028721, -0.01600000075995922, 0.33600001595914364, 0.9760000463575125, 0.0, 0.0, 0.0, 0.0, 0.0, 1.636073420873942E9, 0.0, 2021-11-04 19:50:20.873
42.0, 596.6524192309007, 446.87129595549777, 173.16671769833192, 566.955743632745, -0.03200000151991844, 0.33600001595914364, 0.9760000463575125, 0.0, 0.0, 0.0, 0.0, 0.0, 1.6360734208747604E9, 0.0, 2021-11-04 19:50:20.874
42.0, 568.1955204680562, 444.46654028398916, 150.29722946928814, 566.7687486349605, -0.03200000151991844, 0.33600001595914364, 0.9760000463575125, 0.0, 0.0, 0.0, 0.0, 0.0, 1.6360734208747604E9, 0.0, 2021-11-04 19:50:20.874
43.0, 560.1098567638546, 436.7810458750464, 139.28322409978136, 588.5349663770758, -0.03200000151991844, 0.33600001595914364, 0.9760000463575125, 0.0, 0.0, 0.0, 0.0, 0.0, 1.6360734208755136E9, 0.0, 2021-11-04 19:50:20.875
43.0, 583.1214611912146, 432.5923579246737, 152.5673487423919, 574.6524577415548, -0.03200000151991844, 0.33600001595914364, 0.9760000463575125, 0.0, 0.0, 0.0, 0.0, 0.0, 1.6360734208755136E9, 0.0, 2021-11-04 19:50:20.875
44.0, 603.6983907474205, 441.32128442125395, 120.31071162456647, 581.7507878574543, -0.03200000151991844, 0.33600001595914364, 0.9760000463575125, 0.0, 0.0, 0.0, 0.0, 0.0, 1.6360734208761933E9, 0.0, 2021-11-04 19:50:20.876
44.0, 601.3272941755131, 459.0970289106481, 166.84628677321598, 586.0367132066749, -0.03200000151991844, 0.33600001595914364, 0.9760000463575125, 0.0, 0.0, 0.0, 0.0, 0.0, 1.6360734208761933E9, 0.0, 2021-11-04 19:50:20.876
45.0, 578.1698336498812, 438.80433175107464, 162.10783352935687, 582.3267324506305, -0.03200000151991844, 0.33600001595914364, 0.9760000463575125, 0.0, 0.0, 0.0, 0.0, 0.0, 1.6360734208867052E9, 0.0, 2021-11-04 19:50:20.886
45.0, 575.2078328849748, 439.76548603968695, 132.01659848587587, 589.2081483691, -0.03200000151991844, 0.33600001595914364, 0.9760000463575125, 0.0, 0.0, 0.0, 0.0, 0.0, 1.6360734208867052E9, 0.0, 2021-11-04 19:50:20.886
46.0, 573.4874789053574, 429.9258092562668, 170.74700242700055, 590.606870952528, -0.03200000151991844, 0.33600001595914364, 0.9760000463575125, 0.0, 0.0, 0.0, 0.0, 0.0, 1.6360734209026153E9, 0.0, 2021-11-04 19:50:20.902
46.0, 555.6294566169381, 424.57027251971886, 180.09675231622532, 593.9279021131806, -0.03200000151991844, 0.33600001595914364, 0.9760000463575125, 0.0, 0.0, 0.0, 0.0, 0.0, 1.6360734209026153E9, 0.0, 2021-11-04 19:50:20.902
47.0, 566.4452472887933, 419.76076117670164, 179.4422698239796, 592.6151972287335, -0.03200000151991844, 0.33600001595914364, 0.9760000463575125, 0.0, 0.0, 0.0, 0.0, 0.0, 1.63607342090339E9, 0.0, 2021-11-04 19:50:20.903
47.0, 575.035797487013, 403.7016307669692, 182.63240448618308, 596.3700567842461, -0.03200000151991844, 0.33600001595914364, 0.9760000463575125, 0.0, 0.0, 0.0, 0.0, 0.0, 1.63607342090339E9, 0.0, 2021-11-04 19:50:20.903
48.0, 571.4941122289747, 395.14473966835067, 189.72699470212683, 603.0270787053742, -0.03200000151991844, 0.33600001595914364, 0.9760000463575125, 0.0, 0.0, 0.0, 0.0, 0.0, 1.6360734209040627E9, 0.0, 2021-11-04 19:50:20.904
48.0, 564.6126963105053, 390.3838470247574, 192.05321247456595, 615.0508570629172, -0.03200000151991844, 0.33600001595914364, 0.9760000463575125, 0.0, 0.0, 0.0, 0.0, 0.0, 1.6360734209040627E9, 0.0, 2021-11-04 19:50:20.904
49.0, 548.8452780973166, 387.6163210575469, 215.87263529235497, 614.5721498685889, -0.03200000151991844, 0.33600001595914364, 0.9760000463575125, 0.0, 0.0, 0.0, 0.0, 0.0, 1.6360734209162085E9, 0.0, 2021-11-04 19:50:20.916
49.0, 551.3547509675846, 374.62016871152446, 205.7449862123467, 614.7554049664177, -0.03200000151991844, 0.33600001595914364, 0.9760000463575125, 0.0, 0.0, 0.0, 0.0, 0.0, 1.6360734209162085E9, 0.0, 2021-11-04 19:50:20.916
50.0, 555.8314112145454, 380.37213484337553, 213.29958412284032, 624.8381752469577, -0.03200000151991844, 0.33600001595914364, 0.9760000463575125, 0.0, 0.0, 0.0, 0.0, 0.0, 1.636073420931886E9, 0.0, 2021-11-04 19:50:20.931
50.0, 552.6337967524305, 364.76553232828155, 200.1463559786789, 626.2855165298097, -0.03200000151991844, 0.33600001595914364, 0.9760000463575125, 0.0, 0.0, 0.0, 0.0, 0.0, 1.636073420931886E9, 0.0, 2021-11-04 19:50:20.931
51.0, 550.1879021814093, 369.18235417595133, 183.33924557780847, 633.6531194425188, -0.03200000151991844, 0.33600001595914364, 0.9760000463575125, 0.0, 0.0, 0.0, 0.0, 0.0, 1.6360734209326007E9, 0.0, 2021-11-04 19:50:20.932
51.0, 540.6062784949318, 378.25161156849936, 211.62036904273555, 643.1898643295281, -0.03200000151991844, 0.33600001595914364, 0.9760000463575125, 0.0, 0.0, 0.0, 0.0, 0.0, 1.6360734209326007E9, 0.0, 2021-11-04 19:50:20.932
52.0, 571.2472788318992, 373.0045319306664, 234.4300188724883, 645.8863321975805, -0.03200000151991844, 0.33600001595914364, 0.9760000463575125, 0.0, 0.0, 0.0, 0.0, 0.0, 1.636073420977377E9, 0.0, 2021-11-04 19:50:20.977
52.0, 568.2815381670371, 370.46887976070866, 245.74695613840595, 655.5352740832604, -0.03200000151991844, 0.33600001595914364, 0.9760000463575125, 0.0, 0.0, 0.0, 0.0, 0.0, 1.636073420977377E9, 0.0, 2021-11-04 19:50:20.977
53.0, 573.9886254994199, 370.98872585454956, 239.84165410837159, 658.7628077450208, -0.03200000151991844, 0.33600001595914364, 0.9760000463575125, 0.0, 0.0, 0.0, 0.0, 0.0, 1.6360734209781559E9, 0.0, 2021-11-04 19:50:20.978
53.0, 576.314843271859, 367.80981089221314, 258.38033818872645, 657.2369285630994, -0.03200000151991844, 0.33600001595914364, 0.9760000463575125, 0.0, 0.0, 0.0, 0.0, 0.0, 1.6360734209781559E9, 0.0, 2021-11-04 19:50:20.978
54.0, 571.1874404326081, 364.02503213705495, 231.0491493125446, 658.0896257529967, -0.03200000151991844, 0.33600001595914364, 0.9760000463575125, 0.0, 0.0, 0.0, 0.0, 0.0, 1.6360734209930604E9, 0.0, 2021-11-04 19:50:20.993
54.0, 569.6615612506866, 363.9651937377639, 234.25798347452655, 671.2615533969365, -0.03200000151991844, 0.33600001595914364, 0.9760000463575125, 0.0, 0.0, 0.0, 0.0, 0.0, 1.6360734209930604E9, 0.0, 2021-11-04 19:50:20.993
55.0, 560.4614073596895, 362.854443450924, 242.89715237217024, 676.9200220298953, -0.03200000151991844, 0.33600001595914364, 0.9760000463575125, 0.0, 0.0, 0.0, 0.0, 0.0, 1.636073420993784E9, 0.0, 2021-11-04 19:50:20.993
55.0, 551.7175212632865, 357.3717501158826, 241.48347018891945, 670.7716265027411, -0.03200000151991844, 0.33600001595914364, 0.9760000463575125, 0.0, 0.0, 0.0, 0.0, 0.0, 1.636073420993784E9, 0.0, 2021-11-04 19:50:20.993
56.0, 573.4089410062879, 365.02358542522416, 240.45125780114904, 669.5598989170976, -0.03200000151991844, 0.33600001595914364, 0.9760000463575125, 0.0, 0.0, 0.0, 0.0, 0.0, 1.636073420994491E9, 0.0, 2021-11-04 19:50:20.994
56.0, 563.8721961192787, 349.54413950862363, 235.2079180632718, 672.3423844841309, -0.03200000151991844, 0.33600001595914364, 0.9760000463575125, 0.0, 0.0, 0.0, 0.0, 0.0, 1.636073420994491E9, 0.0, 2021-11-04 19:50:20.994
57.0, 578.1586139500141, 355.09041114291176, 221.29175032814965, 667.2224614447914, -0.03200000151991844, 0.33600001595914364, 0.9760000463575125, 0.0, 0.0, 0.0, 0.0, 0.0, 1.6360734210066617E9, 0.0, 2021-11-04 19:50:21.006
57.0, 557.282492397353, 348.65030341921374, 205.27749871788546, 667.1813225452788, -0.03200000151991844, 0.33600001595914364, 0.9760000463575125, 0.0, 0.0, 0.0, 0.0, 0.0, 1.6360734210066617E9, 0.0, 2021-11-04 19:50:21.006
58.0, 579.7443315312266, 348.9233161159791, 230.15905312309042, 666.938229048159, -0.03200000151991844, 0.33600001595914364, 0.9760000463575125, 0.0, 0.0, 0.0, 0.0, 0.0, 1.6360734210226023E9, 0.0, 2021-11-04 19:50:21.022
58.0, 578.2109725493938, 346.2567674475722, 170.7245630272664, 661.463015513029, -0.03200000151991844, 0.33600001595914364, 0.9760000463575125, 0.0, 0.0, 0.0, 0.0, 0.0, 1.6360734210226023E9, 0.0, 2021-11-04 19:50:21.022
59.0, 570.9256474357098, 348.478268021252, 193.79226595396176, 667.4655549419113, -0.03200000151991844, 0.33600001595914364, 0.9760000463575125, 0.0, 0.0, 0.0, 0.0, 0.0, 1.6360734210233953E9, 0.0, 2021-11-04 19:50:21.023
59.0, 580.4885716224089, 339.7643011244945, 190.01496699871495, 667.8283252376132, -0.03200000151991844, 0.33600001595914364, 0.9760000463575125, 0.0, 0.0, 0.0, 0.0, 0.0, 1.6360734210233953E9, 0.0, 2021-11-04 19:50:21.023
60.0, 566.980052982457, 348.56802562018856, 198.54567879764363, 668.1013379343785, -0.03200000151991844, 0.33600001595914364, 0.9760000463575125, 0.0, 0.0, 0.0, 0.0, 0.0, 1.6360734210240805E9, 0.0, 2021-11-04 19:50:21.024
60.0, 571.4342738296837, 357.23711371747777, 206.76597890025005, 652.5059551191516, -0.03200000151991844, 0.33600001595914364, 0.9760000463575125, 0.0, 0.0, 0.0, 0.0, 0.0, 1.6360734210240805E9, 0.0, 2021-11-04 19:50:21.024
61.0, 578.2633311487734, 366.014658913482, 177.01507475273684, 656.6722036697902, -0.03200000151991844, 0.33600001595914364, 0.9760000463575125, 0.0, 0.0, 0.0, 0.0, 0.0, 1.6360734210362337E9, 0.0, 2021-11-04 19:50:21.036
61.0, 570.8059706371278, 366.7775985044427, 182.3593917894177, 654.0580136007629, -0.03200000151991844, 0.33600001595914364, 0.9760000463575125, 0.0, 0.0, 0.0, 0.0, 0.0, 1.6360734210362337E9, 0.0, 2021-11-04 19:50:21.036
62.0, 570.1926270443946, 356.27969932882115, 153.169472635258, 646.1518650944345, -0.03200000151991844, 0.33600001595914364, 0.9760000463575125, 0.0, 0.0, 0.0, 0.0, 0.0, 1.636073421051923E9, 0.0, 2021-11-04 19:50:21.051
62.0, 537.3338660337031, 362.65622875327244, 166.1731047811918, 648.2349893697537, -0.03200000151991844, 0.33600001595914364, 0.9760000463575125, 0.0, 0.0, 0.0, 0.0, 0.0, 1.636073421051923E9, 0.0, 2021-11-04 19:50:21.051
63.0, 582.8783676940948, 371.32531685056165, 181.01676770532504, 661.365778114181, -0.03200000151991844, 0.33600001595914364, 0.9760000463575125, 0.0, 0.0, 0.0, 0.0, 0.0, 1.6360734210526528E9, 0.0, 2021-11-04 19:50:21.052
63.0, 579.4376597348601, 348.1379371252842, 172.6580913043581, 646.7764283870347, -0.03200000151991844, 0.33600001595914364, 0.9760000463575125, 0.0, 0.0, 0.0, 0.0, 0.0, 1.6360734210526528E9, 0.0, 2021-11-04 19:50:21.052
64.0, 566.4863861883059, 352.24808717658743, 164.04136180644855, 647.2439158814959, -0.03200000151991844, 0.33600001595914364, 0.9760000463575125, 0.0, 0.0, 0.0, 0.0, 0.0, 1.636073421098945E9, 0.0, 2021-11-04 19:50:21.098
64.0, 570.68255393859, 360.21033418225124, 181.63759109796956, 642.9505107323639, -0.03200000151991844, 0.33600001595914364, 0.9760000463575125, 0.0, 0.0, 0.0, 0.0, 0.0, 1.636073421098945E9, 0.0, 2021-11-04 19:50:21.098
65.0, 567.8439698722214, 368.28477818658575, 186.89589043566957, 644.6596450121142, -0.03200000151991844, 0.33600001595914364, 0.9760000463575125, 0.0, 0.0, 0.0, 0.0, 0.0, 1.6360734210996652E9, 0.0, 2021-11-04 19:50:21.099
65.0, 526.3385601639748, 362.8656631507911, 144.3470486397855, 645.650718500372, -0.03200000151991844, 0.33600001595914364, 0.9760000463575125, 0.0, 0.0, 0.0, 0.0, 0.0, 1.6360734210996652E9, 0.0, 2021-11-04 19:50:21.099
66.0, 571.6100491276011, 369.87423566775396, 175.0628469758667, 657.9512494546361, -0.03200000151991844, 0.33600001595914364, 0.9760000463575125, 0.0, 0.0, 0.0, 0.0, 0.0, 1.6360734211003866E9, 0.0, 2021-11-04 19:50:21.100
66.0, 575.9296335764229, 372.0171983423643, 171.62587891658768, 653.1566977114417, -0.03200000151991844, 0.33600001595914364, 0.9760000463575125, 0.0, 0.0, 0.0, 0.0, 0.0, 1.6360734211003866E9, 0.0, 2021-11-04 19:50:21.100
67.0, 557.6153434934095, 368.2660786868073, 152.54116944270208, 649.8543660505675, -0.03200000151991844, 0.33600001595914364, 0.9760000463575125, 0.0, 0.0, 0.0, 0.0, 0.0, 1.63607342110123E9, 0.0, 2021-11-04 19:50:21.101
67.0, 547.1735428171232, 367.91452809097245, 154.88234681496397, 646.7614687872119, -0.03200000151991844, 0.33600001595914364, 0.9760000463575125, 0.0, 0.0, 0.0, 0.0, 0.0, 1.63607342110123E9, 0.0, 2021-11-04 19:50:21.101
68.0, 571.0976828336716, 366.665401505772, 144.4966446380131, 656.649764270056, -0.03200000151991844, 0.33600001595914364, 0.9760000463575125, 0.0, 0.0, 0.0, 0.0, 0.0, 1.636073421128289E9, 0.0, 2021-11-04 19:50:21.128
68.0, 568.1880406681448, 365.73416641680524, 145.54755652556196, 648.8969516619109, -0.03200000151991844, 0.33600001595914364, 0.9760000463575125, 0.0, 0.0, 0.0, 0.0, 0.0, 1.636073421128289E9, 0.0, 2021-11-04 19:50:21.128
69.0, 568.4311341652647, 368.25485898694023, 142.25270466459915, 643.5900336247869, -0.03200000151991844, 0.33600001595914364, 0.9760000463575125, 0.0, 0.0, 0.0, 0.0, 0.0, 1.6360734211290505E9, 0.0, 2021-11-04 19:50:21.129
69.0, 559.9789602654055, 365.6668482176028, 162.6837781225331, 637.9016457921825, -0.03200000151991844, 0.33600001595914364, 0.9760000463575125, 0.0, 0.0, 0.0, 0.0, 0.0, 1.6360734211290505E9, 0.0, 2021-11-04 19:50:21.129
70.0, 555.9174289135262, 368.2324195872061, 152.41401284420863, 643.6162129244767, -0.03200000151991844, 0.33600001595914364, 0.9760000463575125, 0.0, 0.0, 0.0, 0.0, 0.0, 1.6360734211298544E9, 0.0, 2021-11-04 19:50:21.129
70.0, 528.3842854397371, 363.95023413794115, 137.06546342605725, 633.0584753495641, -0.03200000151991844, 0.33600001595914364, 0.9760000463575125, 0.0, 0.0, 0.0, 0.0, 0.0, 1.6360734211298544E9, 0.0, 2021-11-04 19:50:21.129
71.0, 544.8398452447727, 373.7151129222475, 159.67315865820274, 647.2813148810528, -0.03200000151991844, 0.33600001595914364, 0.9760000463575125, 0.0, 0.0, 0.0, 0.0, 0.0, 1.6360734211305256E9, 0.0, 2021-11-04 19:50:21.130
71.0, 547.7008687108755, 378.10201557027176, 158.34549417393282, 636.0354357142933, -0.03200000151991844, 0.33600001595914364, 0.9760000463575125, 0.0, 0.0, 0.0, 0.0, 0.0, 1.6360734211305256E9, 0.0, 2021-11-04 19:50:21.130
