%OpenBCI Raw EEG Data
%Number of channels = 4
%Sample Rate = 200 Hz
%Board = OpenBCI_GUI$BoardGanglionBLE
Sample Index, EXG Channel 0, EXG Channel 1, EXG Channel 2, EXG Channel 3, Accel Channel 0, Accel Channel 1, Accel Channel 2, Other, Other, Other, Other, Other, Timestamp, Other, Timestamp (Formatted)
0.0, 918.003322923556, 297.0022850311361, -174.0474641378969, 1013.0584901473485, 0.0, 0.0, 0.0, 0.0, 0.0, 0.0, 0.0, 0.0, 1.6360728088253844E9, 0.0, 2021-11-04 19:40:08.825
1.0, 865.3642310472205, 286.35852975724265, -191.40433983225375, 980.1099715377204, 0.0, 0.288000013679266, 0.0, 0.0, 0.0, 0.0, 0.0, 0.0, 1.6360728088388646E9, 0.0, 2021-11-04 19:40:08.838
1.0, 896.8579285740852, 257.71837589656934, -224.71936863753945, 919.4674937562086, 0.0, 0.288000013679266, 0.0, 0.0, 0.0, 0.0, 0.0, 0.0, 1.6360728088388646E9, 0.0, 2021-11-04 19:40:08.838
2.0, 796.9652007576078, 202.58103084983304, -250.31150403432548, 867.3706873734482, -0.04800000227987766, 0.288000013679266, 0.0, 0.0, 0.0, 0.0, 0.0, 0.0, 1.6360728088552687E9, 0.0, 2021-11-04 19:40:08.855
2.0, 801.1576286079362, 228.6780527406372, -209.73358951509, 884.6415453688242, -0.04800000227987766, 0.288000013679266, 0.0, 0.0, 0.0, 0.0, 0.0, 0.0, 1.6360728088552687E9, 0.0, 2021-11-04 19:40:08.855
3.0, 828.9563049785793, 278.98718694457784, -137.72181586828083, 940.1042617117055, -0.04800000227987766, 0.288000013679266, 0.0, 0.0, 0.0, 0.0, 0.0, 0.0, 1.6360728088692107E9, 0.0, 2021-11-04 19:40:08.869
3.0, 817.7291253115982, 310.99325076537207, -97.84326264075935, 982.297813011799, -0.04800000227987766, 0.288000013679266, 0.0, 0.0, 0.0, 0.0, 0.0, 0.0, 1.6360728088692107E9, 0.0, 2021-11-04 19:40:08.869
4.0, 837.3748197788373, 363.06013794848695, -26.336375487968326, 1036.3356274715625, -0.04800000227987766, 0.288000013679266, 0.0, 0.0, 0.0, 0.0, 0.0, 0.0, 1.6360728088699758E9, 0.0, 2021-11-04 19:40:08.869
4.0, 843.9495639009401, 345.31431265873834, -46.434597849845886, 1002.7438460695557, -0.04800000227987766, 0.288000013679266, 0.0, 0.0, 0.0, 0.0, 0.0, 0.0, 1.6360728088699758E9, 0.0, 2021-11-04 19:40:08.869
5.0, 785.360291195102, 325.6274792919867, -71.00200065877289, 973.5090481159277, -0.04800000227987766, 0.288000013679266, 0.0, 0.0, 0.0, 0.0, 0.0, 0.0, 1.6360728089312418E9, 0.0, 2021-11-04 19:40:08.931
5.0, 882.0853237491101, 368.99535917816684, -7.995906105265021, 1015.0929957232438, -0.04800000227987766, 0.288000013679266, 0.0, 0.0, 0.0, 0.0, 0.0, 0.0, 1.6360728089312418E9, 0.0, 2021-11-04 19:40:08.931
6.0, 891.1171821421012, 416.61176541401073, 48.80943432170898, 1061.8754042689689, -0.04800000227987766, 0.288000013679266, 0.0, 0.0, 0.0, 0.0, 0.0, 0.0, 1.6360728089319553E9, 0.0, 2021-11-04 19:40:08.931
6.0, 908.993903930299, 415.8039470235817, 57.792674015276134, 1061.1536035775207, -0.04800000227987766, 0.288000013679266, 0.0, 0.0, 0.0, 0.0, 0.0, 0.0, 1.6360728089319553E9, 0.0, 2021-11-04 19:40:08.931
7.0, 858.1088251331821, 396.913712347392, 51.0982530945912, 1035.8083015778102, -0.04800000227987766, 0.288000013679266, 0.0, 0.0, 0.0, 0.0, 0.0, 0.0, 1.636072808932761E9, 0.0, 2021-11-04 19:40:08.932
7.0, 914.4504179656506, 466.74512432003394, 121.12413986492902, 1097.5465700463392, -0.04800000227987766, 0.288000013679266, 0.0, 0.0, 0.0, 0.0, 0.0, 0.0, 1.636072808932761E9, 0.0, 2021-11-04 19:40:08.932
8.0, 873.0347658563405, 433.9948204080574, 97.13268164917827, 1076.3787362971343, -0.04800000227987766, 0.288000013679266, 0.0, 0.0, 0.0, 0.0, 0.0, 0.0, 1.6360728089335012E9, 0.0, 2021-11-04 19:40:08.933
8.0, 843.504515806213, 383.7904034028761, 41.9093189034611, 1026.6418067864142, -0.04800000227987766, 0.288000013679266, 0.0, 0.0, 0.0, 0.0, 0.0, 0.0, 1.6360728089335012E9, 0.0, 2021-11-04 19:40:08.933
9.0, 750.8223151043057, 298.47954551363364, -34.18642549496144, 937.6957661402412, -0.04800000227987766, 0.288000013679266, 0.0, 0.0, 0.0, 0.0, 0.0, 0.0, 1.6360728089619267E9, 0.0, 2021-11-04 19:40:08.961
9.0, 634.4328885832801, 214.36919551016763, -138.79516715556383, 842.1637616720982, -0.04800000227987766, 0.288000013679266, 0.0, 0.0, 0.0, 0.0, 0.0, 0.0, 1.6360728089619267E9, 0.0, 2021-11-04 19:40:08.961
10.0, 721.7558126486838, 234.82270836783573, -117.9078259030357, 875.8976592724212, -0.04800000227987766, 0.288000013679266, 0.9760000463575125, 0.0, 0.0, 0.0, 0.0, 0.0, 1.636072808962646E9, 0.0, 2021-11-04 19:40:08.962
10.0, 703.9725883593783, 233.81667527975515, -71.5891649518162, 877.1505257575773, -0.04800000227987766, 0.288000013679266, 0.9760000463575125, 0.0, 0.0, 0.0, 0.0, 0.0, 1.636072808962646E9, 0.0, 2021-11-04 19:40:08.962
11.0, 544.4920345488936, 185.98709474643692, -102.58919568452984, 849.3144503873773, -0.04800000227987766, 0.144000006839633, 0.9760000463575125, 0.0, 0.0, 0.0, 0.0, 0.0, 1.636072808963474E9, 0.0, 2021-11-04 19:40:08.963
11.0, 633.7335272915661, 154.12314712395892, -142.81555960793048, 831.5948043973185, -0.04800000227987766, 0.144000006839633, 0.9760000463575125, 0.0, 0.0, 0.0, 0.0, 0.0, 1.636072808963474E9, 0.0, 2021-11-04 19:40:08.963
12.0, 646.6137427389622, 128.87882242305204, -124.29931492730975, 835.96674744552, -0.03200000151991844, 0.144000006839633, 0.9760000463575125, 0.0, 0.0, 0.0, 0.0, 0.0, 1.6360728089643047E9, 0.0, 2021-11-04 19:40:08.964
12.0, 568.4124346654862, 61.986971815582365, -169.79893778823316, 771.7264859066345, -0.03200000151991844, 0.144000006839633, 0.9760000463575125, 0.0, 0.0, 0.0, 0.0, 0.0, 1.6360728089643047E9, 0.0, 2021-11-04 19:40:08.964
13.0, 514.2287641074508, 3.3266410105861723, -236.7020080955699, 707.2917495700531, -0.03200000151991844, 0.144000006839633, 0.9760000463575125, 0.0, 0.0, 0.0, 0.0, 0.0, 1.63607280897501E9, 0.0, 2021-11-04 19:40:08.975
13.0, 515.6835851902142, 6.262462475802749, -220.90841058269143, 719.3903259267099, -0.03200000151991844, 0.144000006839633, 0.9760000463575125, 0.0, 0.0, 0.0, 0.0, 0.0, 1.63607280897501E9, 0.0, 2021-11-04 19:40:08.975
14.0, 520.1041469378397, -7.309634463395923, -231.4811077574268, 712.5724883074872, -0.03200000151991844, 0.144000006839633, 0.9760000463575125, 0.0, 0.0, 0.0, 0.0, 0.0, 1.6360728089757063E9, 0.0, 2021-11-04 19:40:08.975
14.0, 515.3469941942021, -18.813566727098078, -229.42790268175304, 717.8719265446998, -0.03200000151991844, 0.144000006839633, 0.9760000463575125, 0.0, 0.0, 0.0, 0.0, 0.0, 1.6360728089757063E9, 0.0, 2021-11-04 19:40:08.975
15.0, 500.7202454674989, -37.68136200355366, -239.80238515883684, 704.6252009016462, -0.03200000151991844, 0.144000006839633, 0.9760000463575125, 0.0, 0.0, 0.0, 0.0, 0.0, 1.6360728089765213E9, 0.0, 2021-11-04 19:40:08.976
15.0, 464.102885001339, -28.612104611005634, -232.53575954493135, 702.4859781269915, -0.03200000151991844, 0.144000006839633, 0.9760000463575125, 0.0, 0.0, 0.0, 0.0, 0.0, 1.6360728089765213E9, 0.0, 2021-11-04 19:40:08.976
16.0, 475.31884496845305, -57.89178136410192, -267.07747553568333, 674.4816072587855, -0.03200000151991844, 0.144000006839633, 0.9760000463575125, 0.0, 0.0, 0.0, 0.0, 0.0, 1.6360728090512388E9, 0.0, 2021-11-04 19:40:09.051
16.0, 438.6154668033123, -87.00316261919215, -300.97966863401234, 647.0569208837114, -0.03200000151991844, 0.144000006839633, 0.9760000463575125, 0.0, 0.0, 0.0, 0.0, 0.0, 1.6360728090512388E9, 0.0, 2021-11-04 19:40:09.051
17.0, 431.6181139862165, -92.24276245711371, -310.4378756219521, 629.9319189866073, -0.03200000151991844, 0.144000006839633, 0.9760000463575125, 0.0, 0.0, 0.0, 0.0, 0.0, 1.6360728090520723E9, 0.0, 2021-11-04 19:40:09.052
17.0, 444.44971073418856, -80.40971899731085, -293.1109191272408, 640.452257561963, -0.03200000151991844, 0.144000006839633, 0.9760000463575125, 0.0, 0.0, 0.0, 0.0, 0.0, 1.6360728090520723E9, 0.0, 2021-11-04 19:40:09.052
18.0, 440.2198838843033, -99.27377437381074, -337.51101140119135, 612.8592756888829, -0.03200000151991844, 0.144000006839633, 0.9760000463575125, 0.0, 0.0, 0.0, 0.0, 0.0, 1.6360728090527995E9, 0.0, 2021-11-04 19:40:09.052
18.0, 431.2852628901601, -99.33361277310178, -316.23846045322716, 630.0067169857211, -0.03200000151991844, 0.144000006839633, 0.9760000463575125, 0.0, 0.0, 0.0, 0.0, 0.0, 1.6360728090527995E9, 0.0, 2021-11-04 19:40:09.052
19.0, 450.6130658611655, -117.95083475252613, -343.352735131979, 604.9045084831305, -0.03200000151991844, 0.144000006839633, 0.9760000463575125, 0.0, 0.0, 0.0, 0.0, 0.0, 1.6360728090535564E9, 0.0, 2021-11-04 19:40:09.053
19.0, 463.452142409049, -119.51037303404883, -348.40907987207174, 607.6682945503853, -0.03200000151991844, 0.144000006839633, 0.9760000463575125, 0.0, 0.0, 0.0, 0.0, 0.0, 1.6360728090535564E9, 0.0, 2021-11-04 19:40:09.053
20.0, 495.65642092749476, -85.75403603399172, -339.77365087438375, 608.1096027451567, -0.03200000151991844, 0.144000006839633, 0.49600002355873585, 0.0, 0.0, 0.0, 0.0, 0.0, 1.6360728090655828E9, 0.0, 2021-11-04 19:40:09.065
20.0, 454.8541124109179, -74.36978056887165, -330.315443886444, 617.5603299331851, -0.03200000151991844, 0.144000006839633, 0.49600002355873585, 0.0, 0.0, 0.0, 0.0, 0.0, 1.6360728090655828E9, 0.0, 2021-11-04 19:40:09.065
21.0, 488.5655706115067, -72.43625229177997, -321.42570169176906, 640.9309647562914, -0.03200000151991844, 0.2240000106394291, 0.49600002355873585, 0.0, 0.0, 0.0, 0.0, 0.0, 1.6360728090662827E9, 0.0, 2021-11-04 19:40:09.066
21.0, 472.0352128073573, -101.15120415156707, -368.63071893248707, 615.7464784546755, -0.03200000151991844, 0.2240000106394291, 0.49600002355873585, 0.0, 0.0, 0.0, 0.0, 0.0, 1.6360728090662827E9, 0.0, 2021-11-04 19:40:09.066
22.0, 408.6289489585906, -152.38035374460742, -421.4306265069172, 566.1703646420501, -0.04800000227987766, 0.2240000106394291, 0.49600002355873585, 0.0, 0.0, 0.0, 0.0, 0.0, 1.6360728090670848E9, 0.0, 2021-11-04 19:40:09.067
22.0, 397.42794859129936, -172.41873770719394, -443.3651397470385, 532.2532119438984, -0.04800000227987766, 0.2240000106394291, 0.49600002355873585, 0.0, 0.0, 0.0, 0.0, 0.0, 1.6360728090670848E9, 0.0, 2021-11-04 19:40:09.067
24.0, 424.8750743661076, -142.6753133595921, -416.4303802661598, 540.409933747258, -0.04800000227987766, 0.2240000106394291, 0.49600002355873585, 0.0, 0.0, 0.0, 0.0, 0.0, 1.6360728090679536E9, 0.0, 2021-11-04 19:40:09.067
24.0, 493.46857945341617, -68.77863013511524, -365.5453014690429, 587.1138043939136, -0.04800000227987766, 0.2240000106394291, 0.49600002355873585, 0.0, 0.0, 0.0, 0.0, 0.0, 1.6360728090679536E9, 0.0, 2021-11-04 19:40:09.067
25.0, 546.9454089198261, -9.246902640443295, -311.35789101105183, 670.2891794084571, -0.04800000227987766, 0.2240000106394291, 0.49600002355873585, 0.0, 0.0, 0.0, 0.0, 0.0, 1.6360728090784953E9, 0.0, 2021-11-04 19:40:09.078
25.0, 651.0567438863218, 103.2156289271079, -176.2727046115324, 805.5725805056281, -0.04800000227987766, 0.2240000106394291, 0.49600002355873585, 0.0, 0.0, 0.0, 0.0, 0.0, 1.6360728090784953E9, 0.0, 2021-11-04 19:40:09.078
26.0, 728.0762435737997, 192.0345129747875, -108.82360891066492, 862.5387366306968, -0.04800000227987766, 0.2240000106394291, 0.49600002355873585, 0.0, 0.0, 0.0, 0.0, 0.0, 1.6360728090941913E9, 0.0, 2021-11-04 19:40:09.094
26.0, 827.7109182933345, 289.91517461510375, -16.94548669923097, 967.7683016839437, -0.04800000227987766, 0.2240000106394291, 0.49600002355873585, 0.0, 0.0, 0.0, 0.0, 0.0, 1.6360728090941913E9, 0.0, 2021-11-04 19:40:09.094
27.0, 884.0076323263347, 383.827802402433, 57.59819921758026, 1050.2630149065517, -0.04800000227987766, 0.2240000106394291, 0.49600002355873585, 0.0, 0.0, 0.0, 0.0, 0.0, 1.6360728090948665E9, 0.0, 2021-11-04 19:40:09.094
27.0, 924.275135149248, 432.38292352715507, 108.70393211208284, 1110.295888995286, -0.04800000227987766, 0.2240000106394291, 0.49600002355873585, 0.0, 0.0, 0.0, 0.0, 0.0, 1.6360728090948665E9, 0.0, 2021-11-04 19:40:09.094
28.0, 921.2046772856265, 422.05705974949524, 73.35813763085753, 1083.147955216933, -0.04800000227987766, 0.2240000106394291, 0.49600002355873585, 0.0, 0.0, 0.0, 0.0, 0.0, 1.6360728091389608E9, 0.0, 2021-11-04 19:40:09.138
28.0, 905.0333498772234, 424.31595932273194, 75.14206990972161, 1085.3956350903027, -0.04800000227987766, 0.2240000106394291, 0.49600002355873585, 0.0, 0.0, 0.0, 0.0, 0.0, 1.6360728091389608E9, 0.0, 2021-11-04 19:40:09.138
29.0, 804.3889021696523, 351.38791018677875, 2.0307656759396195, 997.1115567362867, -0.04800000227987766, 0.2240000106394291, 0.49600002355873585, 0.0, 0.0, 0.0, 0.0, 0.0, 1.6360728091539495E9, 0.0, 2021-11-04 19:40:09.153
29.0, 826.7310645049438, 320.89650584803894, -27.162893378175795, 968.7556352722459, -0.04800000227987766, 0.2240000106394291, 0.49600002355873585, 0.0, 0.0, 0.0, 0.0, 0.0, 1.6360728091539495E9, 0.0, 2021-11-04 19:40:09.153
30.0, 895.25725139305, 397.82250803662464, 28.464378562755883, 1036.100013774354, -0.04800000227987766, 0.2240000106394291, 0.7360000349581242, 0.0, 0.0, 0.0, 0.0, 0.0, 1.636072809186283E9, 0.0, 2021-11-04 19:40:09.186
30.0, 889.8119570575655, 452.5671635880135, 71.30867245513946, 1071.4345885557123, -0.04800000227987766, 0.2240000106394291, 0.7360000349581242, 0.0, 0.0, 0.0, 0.0, 0.0, 1.636072809186283E9, 0.0, 2021-11-04 19:40:09.186
31.0, 978.5560431061313, 503.87111118016765, 120.43599827308208, 1125.191910518799, -0.04800000227987766, 0.25600001215934753, 0.7360000349581242, 0.0, 0.0, 0.0, 0.0, 0.0, 1.6360728091869967E9, 0.0, 2021-11-04 19:40:09.186
31.0, 1063.814542395994, 592.5777982291766, 207.9085183367133, 1223.9252693490125, -0.04800000227987766, 0.25600001215934753, 0.7360000349581242, 0.0, 0.0, 0.0, 0.0, 0.0, 1.6360728091869967E9, 0.0, 2021-11-04 19:40:09.186
32.0, 1190.933741889894, 689.7216995782219, 301.85854512359947, 1341.4104865570553, -0.04800000227987766, 0.25600001215934753, 0.7360000349581242, 0.0, 0.0, 0.0, 0.0, 0.0, 1.6360728091878808E9, 0.0, 2021-11-04 19:40:09.187
32.0, 1291.6455077966675, 782.5235770787112, 393.27291974052787, 1427.9031528322957, -0.04800000227987766, 0.25600001215934753, 0.7360000349581242, 0.0, 0.0, 0.0, 0.0, 0.0, 1.6360728091878808E9, 0.0, 2021-11-04 19:40:09.187
33.0, 1384.7278777938336, 897.1028920211829, 485.233319750987, 1530.559666716028, -0.04800000227987766, 0.25600001215934753, 0.7360000349581242, 0.0, 0.0, 0.0, 0.0, 0.0, 1.6360728091884909E9, 0.0, 2021-11-04 19:40:09.188
33.0, 1548.5691549526528, 1079.1425223643892, 672.4115726333112, 1740.7831831253134, -0.04800000227987766, 0.25600001215934753, 0.7360000349581242, 0.0, 0.0, 0.0, 0.0, 0.0, 1.6360728091884909E9, 0.0, 2021-11-04 19:40:09.188
34.0, 1749.6112169707194, 1259.2411446305923, 850.5766666224226, 1929.4461762900464, -0.04800000227987766, 0.25600001215934753, 0.7360000349581242, 0.0, 0.0, 0.0, 0.0, 0.0, 1.6360728092013195E9, 0.0, 2021-11-04 19:40:09.201
34.0, 1814.090832106769, 1334.8843611343764, 898.6381209529936, 1975.521743744146, -0.04800000227987766, 0.25600001215934753, 0.7360000349581242, 0.0, 0.0, 0.0, 0.0, 0.0, 1.6360728092013195E9, 0.0, 2021-11-04 19:40:09.201
35.0, 1862.2794430358335, 1395.7325334134512, 955.7052543768659, 2036.9271611166187, -0.04800000227987766, 0.25600001215934753, 0.7360000349581242, 0.0, 0.0, 0.0, 0.0, 0.0, 1.6360728092019696E9, 0.0, 2021-11-04 19:40:09.201
35.0, 1909.7986118728295, 1418.5870620426722, 995.0602216105908, 2093.777380343061, -0.04800000227987766, 0.25600001215934753, 0.7360000349581242, 0.0, 0.0, 0.0, 0.0, 0.0, 1.6360728092019696E9, 0.0, 2021-11-04 19:40:09.201
36.0, 2015.8397352164611, 1502.8881469438784, 1073.6953580789268, 2184.8514240640216, -0.04800000227987766, 0.25600001215934753, 0.7360000349581242, 0.0, 0.0, 0.0, 0.0, 0.0, 1.636072809202734E9, 0.0, 2021-11-04 19:40:09.202
36.0, 2106.562228341587, 1606.1355650206096, 1153.112133638002, 2271.0112392432056, -0.04800000227987766, 0.25600001215934753, 0.7360000349581242, 0.0, 0.0, 0.0, 0.0, 0.0, 1.636072809202734E9, 0.0, 2021-11-04 19:40:09.202
37.0, 2186.9999965885654, 1704.5921712541021, 1261.090525158681, 2373.9407658237033, -0.04800000227987766, 0.25600001215934753, 0.7360000349581242, 0.0, 0.0, 0.0, 0.0, 0.0, 1.6360728092035158E9, 0.0, 2021-11-04 19:40:09.203
37.0, 2270.88595259469, 1761.4311707806773, 1330.3796516377479, 2440.5222047348507, -0.04800000227987766, 0.25600001215934753, 0.7360000349581242, 0.0, 0.0, 0.0, 0.0, 0.0, 1.6360728092035158E9, 0.0, 2021-11-04 19:40:09.203
38.0, 2285.8231130177155, 1763.7312092534266, 1322.0284550366923, 2452.179472896736, -0.04800000227987766, 0.25600001215934753, 0.7360000349581242, 0.0, 0.0, 0.0, 0.0, 0.0, 1.6360728092612996E9, 0.0, 2021-11-04 19:40:09.261
38.0, 2294.937249209732, 1765.5861996314488, 1349.3708636127412, 2478.643004983198, -0.04800000227987766, 0.25600001215934753, 0.7360000349581242, 0.0, 0.0, 0.0, 0.0, 0.0, 1.6360728092612996E9, 0.0, 2021-11-04 19:40:09.261
39.0, 2346.327214500867, 1800.2326328209601, 1381.1338339364156, 2501.6022508111782, -0.04800000227987766, 0.25600001215934753, 0.7360000349581242, 0.0, 0.0, 0.0, 0.0, 0.0, 1.6360728092621024E9, 0.0, 2021-11-04 19:40:09.262
39.0, 2375.2179416585714, 1848.1669305530377, 1414.0486934464425, 2524.9579260344617, -0.04800000227987766, 0.25600001215934753, 0.7360000349581242, 0.0, 0.0, 0.0, 0.0, 0.0, 1.6360728092621024E9, 0.0, 2021-11-04 19:40:09.262
40.0, 2349.5996269620955, 1819.0592891979031, 1372.5881625376642, 2493.512847207021, -0.04800000227987766, 0.25600001215934753, 0.8480000402778387, 0.0, 0.0, 0.0, 0.0, 0.0, 1.6360728092629E9, 0.0, 2021-11-04 19:40:09.262
40.0, 2252.085475517437, 1714.5590046360157, 1265.1744959102944, 2396.615779255051, -0.04800000227987766, 0.25600001215934753, 0.8480000402778387, 0.0, 0.0, 0.0, 0.0, 0.0, 1.6360728092629E9, 0.0, 2021-11-04 19:40:09.262
41.0, 2099.6471533235162, 1557.8459767927416, 1109.3403445566073, 2233.4551638881676, -0.04800000227987766, 0.27200001291930676, 0.8480000402778387, 0.0, 0.0, 0.0, 0.0, 0.0, 1.63607280926351E9, 0.0, 2021-11-04 19:40:09.263
41.0, 1950.6981577882543, 1387.340197912883, 924.6640847446397, 2055.8024361929856, -0.04800000227987766, 0.27200001291930676, 0.8480000402778387, 0.0, 0.0, 0.0, 0.0, 0.0, 1.63607280926351E9, 0.0, 2021-11-04 19:40:09.263
42.0, 1807.254294987768, 1281.4187513678335, 819.0156508963555, 1938.0928249876015, -0.04800000227987766, 0.27200001291930676, 0.8480000402778387, 0.0, 0.0, 0.0, 0.0, 0.0, 1.6360728092913797E9, 0.0, 2021-11-04 19:40:09.291
42.0, 1759.1816209573299, 1256.9560657576658, 805.3874554578215, 1931.6788965635933, -0.04800000227987766, 0.27200001291930676, 0.8480000402778387, 0.0, 0.0, 0.0, 0.0, 0.0, 1.6360728092913797E9, 0.0, 2021-11-04 19:40:09.291
43.0, 1866.8383810818195, 1285.03149472503, 824.834935227409, 1959.204560237471, -0.04800000227987766, 0.27200001291930676, 0.8480000402778387, 0.0, 0.0, 0.0, 0.0, 0.0, 1.6360728092919283E9, 0.0, 2021-11-04 19:40:09.291
43.0, 1897.864591114223, 1318.825230724644, 862.9893945753574, 2005.5381807885133, -0.04800000227987766, 0.27200001291930676, 0.8480000402778387, 0.0, 0.0, 0.0, 0.0, 0.0, 1.6360728092919283E9, 0.0, 2021-11-04 19:40:09.291
44.0, 1825.4264688724652, 1246.4319872823544, 785.8389983894303, 1924.674063946586, -0.04800000227987766, 0.27200001291930676, 0.8480000402778387, 0.0, 0.0, 0.0, 0.0, 0.0, 1.6360728092926824E9, 0.0, 2021-11-04 19:40:09.292
44.0, 1717.2311631543562, 1141.9017835208215, 662.9346661455929, 1815.5774423391558, -0.04800000227987766, 0.27200001291930676, 0.8480000402778387, 0.0, 0.0, 0.0, 0.0, 0.0, 1.6360728092926824E9, 0.0, 2021-11-04 19:40:09.292
45.0, 1588.7020213771611, 1055.480175344739, 582.1079483032227, 1746.9839372518472, -0.04800000227987766, 0.27200001291930676, 0.8480000402778387, 0.0, 0.0, 0.0, 0.0, 0.0, 1.6360728092934253E9, 0.0, 2021-11-04 19:40:09.293
45.0, 1566.3374196421355, 1035.5652080806904, 580.0884023271501, 1743.2889160956256, -0.04800000227987766, 0.27200001291930676, 0.8480000402778387, 0.0, 0.0, 0.0, 0.0, 0.0, 1.6360728092934253E9, 0.0, 2021-11-04 19:40:09.293
46.0, 1631.0863075749949, 1040.0830072271638, 595.044262249954, 1763.5965728550218, -0.04800000227987766, 0.27200001291930676, 0.8480000402778387, 0.0, 0.0, 0.0, 0.0, 0.0, 1.6360728093048873E9, 0.0, 2021-11-04 19:40:09.304
46.0, 1702.5146568287164, 1106.4774511405267, 649.9422536995262, 1812.9146335707046, -0.04800000227987766, 0.27200001291930676, 0.8480000402778387, 0.0, 0.0, 0.0, 0.0, 0.0, 1.6360728093048873E9, 0.0, 2021-11-04 19:40:09.304
47.0, 1741.8060457631946, 1151.906015902292, 710.9699411764741, 1865.3779501491226, -0.04800000227987766, 0.27200001291930676, 0.8480000402778387, 0.0, 0.0, 0.0, 0.0, 0.0, 1.63607280930559E9, 0.0, 2021-11-04 19:40:09.305
47.0, 1761.9641065243632, 1151.4385284078307, 709.4066629949957, 1861.4809743952937, -0.04800000227987766, 0.27200001291930676, 0.8480000402778387, 0.0, 0.0, 0.0, 0.0, 0.0, 1.63607280930559E9, 0.0, 2021-11-04 19:40:09.305
48.0, 1701.2804898433387, 1126.325100205373, 667.8414148874581, 1839.142551959958, -0.04800000227987766, 0.27200001291930676, 0.8480000402778387, 0.0, 0.0, 0.0, 0.0, 0.0, 1.6360728093063872E9, 0.0, 2021-11-04 19:40:09.306
48.0, 1710.0505552394316, 1123.6697712368332, 661.5920420615003, 1833.6598586249165, -0.04800000227987766, 0.27200001291930676, 0.8480000402778387, 0.0, 0.0, 0.0, 0.0, 0.0, 1.6360728093063872E9, 0.0, 2021-11-04 19:40:09.306
49.0, 1737.3667845157906, 1118.8976588933729, 672.2245776355267, 1836.2067304947414, -0.04800000227987766, 0.27200001291930676, 0.8480000402778387, 0.0, 0.0, 0.0, 0.0, 0.0, 1.6360728093185043E9, 0.0, 2021-11-04 19:40:09.318
49.0, 1718.0240219449624, 1123.755788935814, 665.5525961145759, 1841.289254534524, -0.04800000227987766, 0.27200001291930676, 0.8480000402778387, 0.0, 0.0, 0.0, 0.0, 0.0, 1.6360728093185043E9, 0.0, 2021-11-04 19:40:09.318
50.0, 1681.1037295823917, 1113.1643922613002, 660.7169054718688, 1836.4199047922157, -0.04800000227987766, 0.27200001291930676, 0.9120000433176756, 0.0, 0.0, 0.0, 0.0, 0.0, 1.6360728093670104E9, 0.0, 2021-11-04 19:40:09.367
50.0, 1702.0583890341222, 1103.6538266739808, 633.5353125939146, 1817.264137219172, -0.04800000227987766, 0.27200001291930676, 0.9120000433176756, 0.0, 0.0, 0.0, 0.0, 0.0, 1.6360728093670104E9, 0.0, 2021-11-04 19:40:09.367
51.0, 1716.5841604620218, 1126.3662391048856, 682.8758127093315, 1845.4517631852068, -0.04800000227987766, 0.288000013679266, 0.9120000433176756, 0.0, 0.0, 0.0, 0.0, 0.0, 1.6360728093676484E9, 0.0, 2021-11-04 19:40:09.367
51.0, 1734.3486852515489, 1154.692241369281, 739.2024459419772, 1869.9294083951972, -0.04800000227987766, 0.288000013679266, 0.9120000433176756, 0.0, 0.0, 0.0, 0.0, 0.0, 1.6360728093676484E9, 0.0, 2021-11-04 19:40:09.367
52.0, 1770.0198510289192, 1130.0425607613288, 730.9821458393708, 1853.6234445883892, -0.04800000227987766, 0.288000013679266, 0.9120000433176756, 0.0, 0.0, 0.0, 0.0, 0.0, 1.636072809368411E9, 0.0, 2021-11-04 19:40:09.368
52.0, 1709.115580250509, 1081.797851332929, 691.0961128119379, 1819.182705896441, -0.04800000227987766, 0.288000013679266, 0.9120000433176756, 0.0, 0.0, 0.0, 0.0, 0.0, 1.636072809368411E9, 0.0, 2021-11-04 19:40:09.368
53.0, 1658.0846453551203, 1030.310648642946, 643.7228000732139, 1766.9250838155858, -0.04800000227987766, 0.288000013679266, 0.9120000433176756, 0.0, 0.0, 0.0, 0.0, 0.0, 1.6360728093691716E9, 0.0, 2021-11-04 19:40:09.369
53.0, 1604.1141490945593, 975.2368818954565, 597.9165054159239, 1723.5235448298045, -0.04800000227987766, 0.288000013679266, 0.9120000433176756, 0.0, 0.0, 0.0, 0.0, 0.0, 1.6360728093691716E9, 0.0, 2021-11-04 19:40:09.369
54.0, 1549.7547032386065, 937.6396676409058, 563.01201912947, 1683.0840066089295, -0.04800000227987766, 0.288000013679266, 0.9120000433176756, 0.0, 0.0, 0.0, 0.0, 0.0, 1.636072809379187E9, 0.0, 2021-11-04 19:40:09.379
54.0, 1533.2654843339697, 913.2330805300735, 551.541745965369, 1667.7429369906895, -0.04800000227987766, 0.288000013679266, 0.9120000433176756, 0.0, 0.0, 0.0, 0.0, 0.0, 1.636072809379187E9, 0.0, 2021-11-04 19:40:09.379
55.0, 1450.6323948130012, 889.6343118096702, 525.7738352706656, 1657.58162881108, -0.04800000227987766, 0.288000013679266, 0.9120000433176756, 0.0, 0.0, 0.0, 0.0, 0.0, 1.6360728093799932E9, 0.0, 2021-11-04 19:40:09.379
55.0, 1464.6158807473257, 892.07272658078, 556.7065478041768, 1664.6276003275998, -0.04800000227987766, 0.288000013679266, 0.9120000433176756, 0.0, 0.0, 0.0, 0.0, 0.0, 1.6360728093799932E9, 0.0, 2021-11-04 19:40:09.379
56.0, 1448.6652074363083, 873.5751813999377, 546.7284947223961, 1653.3630216610618, -0.04800000227987766, 0.288000013679266, 0.9120000433176756, 0.0, 0.0, 0.0, 0.0, 0.0, 1.6360728093945892E9, 0.0, 2021-11-04 19:40:09.394
56.0, 1464.6345802471042, 865.5530959949829, 539.8620384037495, 1660.969978170935, -0.04800000227987766, 0.288000013679266, 0.9120000433176756, 0.0, 0.0, 0.0, 0.0, 0.0, 1.6360728093945892E9, 0.0, 2021-11-04 19:40:09.394
57.0, 1410.8996976837516, 844.445100645069, 513.2713497187942, 1620.9717481448315, -0.04800000227987766, 0.288000013679266, 0.9120000433176756, 0.0, 0.0, 0.0, 0.0, 0.0, 1.6360728094091947E9, 0.0, 2021-11-04 19:40:09.409
57.0, 1397.1593052465469, 799.0726343826391, 470.4046164266765, 1566.2270925934426, -0.04800000227987766, 0.288000013679266, 0.9120000433176756, 0.0, 0.0, 0.0, 0.0, 0.0, 1.6360728094091947E9, 0.0, 2021-11-04 19:40:09.409
58.0, 1309.9186589801684, 759.2277402547188, 429.6808458091691, 1537.2129487372003, -0.04800000227987766, 0.288000013679266, 0.9120000433176756, 0.0, 0.0, 0.0, 0.0, 0.0, 1.636072809409968E9, 0.0, 2021-11-04 19:40:09.409
58.0, 1266.2927259970456, 737.4951816122048, 414.4631928894669, 1522.79189450806, -0.04800000227987766, 0.288000013679266, 0.9120000433176756, 0.0, 0.0, 0.0, 0.0, 0.0, 1.636072809409968E9, 0.0, 2021-11-04 19:40:09.409
59.0, 1301.0737955849618, 722.030695295427, 399.54847186617553, 1510.2594897565432, -0.04800000227987766, 0.288000013679266, 0.9120000433176756, 0.0, 0.0, 0.0, 0.0, 0.0, 1.6360728094245975E9, 0.0, 2021-11-04 19:40:09.424
59.0, 1319.08889367152, 749.4067629710771, 440.5714344801381, 1535.0363269629888, -0.04800000227987766, 0.288000013679266, 0.9120000433176756, 0.0, 0.0, 0.0, 0.0, 0.0, 1.6360728094245975E9, 0.0, 2021-11-04 19:40:09.424
60.0, 1383.7891629049554, 792.4305720613338, 487.24912582710385, 1582.4021599018015, -0.04800000227987766, 0.288000013679266, 0.944000044837594, 0.0, 0.0, 0.0, 0.0, 0.0, 1.6360728094554577E9, 0.0, 2021-11-04 19:40:09.455
60.0, 1454.469532167539, 855.0364973195828, 548.9649548958987, 1649.6717404047959, -0.04800000227987766, 0.288000013679266, 0.944000044837594, 0.0, 0.0, 0.0, 0.0, 0.0, 1.6360728094554577E9, 0.0, 2021-11-04 19:40:09.455
61.0, 1540.1917790519074, 921.8124110284261, 612.7003299407661, 1713.7212670459412, -0.04800000227987766, 0.288000013679266, 0.944000044837594, 0.0, 0.0, 0.0, 0.0, 0.0, 1.6360728094862716E9, 0.0, 2021-11-04 19:40:09.486
61.0, 1576.8652380174026, 969.7878476600163, 641.8117111958563, 1765.2720480351709, -0.04800000227987766, 0.288000013679266, 0.944000044837594, 0.0, 0.0, 0.0, 0.0, 0.0, 1.6360728094862716E9, 0.0, 2021-11-04 19:40:09.486
62.0, 1569.4639760050923, 1003.4731265609153, 676.6974979825318, 1785.6507628937252, -0.06400000303983688, 0.288000013679266, 0.944000044837594, 0.0, 0.0, 0.0, 0.0, 0.0, 1.636072809487013E9, 0.0, 2021-11-04 19:40:09.487
62.0, 1659.0009208442643, 1032.5583285163157, 704.1745429569855, 1826.0267228153534, -0.06400000303983688, 0.288000013679266, 0.944000044837594, 0.0, 0.0, 0.0, 0.0, 0.0, 1.636072809487013E9, 0.0, 2021-11-04 19:40:09.487
63.0, 1633.4761036466807, 1039.7800753307529, 695.883184755221, 1835.0623211083002, -0.06400000303983688, 0.288000013679266, 0.944000044837594, 0.0, 0.0, 0.0, 0.0, 0.0, 1.6360728094877288E9, 0.0, 2021-11-04 19:40:09.487
63.0, 1583.301605841145, 1018.1447540870868, 678.4402913618833, 1823.2143180486746, -0.06400000303983688, 0.288000013679266, 0.944000044837594, 0.0, 0.0, 0.0, 0.0, 0.0, 1.6360728094877288E9, 0.0, 2021-11-04 19:40:09.487
64.0, 1503.0957113914192, 952.3337345668115, 603.7694488465786, 1746.5201896573417, -0.06400000303983688, 0.288000013679266, 0.944000044837594, 0.0, 0.0, 0.0, 0.0, 0.0, 1.6360728094887133E9, 0.0, 2021-11-04 19:40:09.488
64.0, 1499.3408518359065, 890.457089799922, 546.3358052270487, 1684.9801358864643, -0.06400000303983688, 0.288000013679266, 0.944000044837594, 0.0, 0.0, 0.0, 0.0, 0.0, 1.6360728094887133E9, 0.0, 2021-11-04 19:40:09.488
65.0, 1464.9001131439582, 857.639467688743, 509.74836396053433, 1656.437219424639, -0.06400000303983688, 0.288000013679266, 0.944000044837594, 0.0, 0.0, 0.0, 0.0, 0.0, 1.6360728095162575E9, 0.0, 2021-11-04 19:40:09.516
65.0, 1414.7817138377577, 820.132011033129, 477.31969144474715, 1610.582306067925, -0.06400000303983688, 0.288000013679266, 0.944000044837594, 0.0, 0.0, 0.0, 0.0, 0.0, 1.6360728095162575E9, 0.0, 2021-11-04 19:40:09.516
66.0, 1330.0468005416915, 783.9896178613417, 439.7000377904624, 1565.8905015974306, -0.06400000303983688, 0.288000013679266, 0.944000044837594, 0.0, 0.0, 0.0, 0.0, 0.0, 1.6360728095171185E9, 0.0, 2021-11-04 19:40:09.517
66.0, 1314.6309329243377, 774.7258856710978, 417.8702417491004, 1562.846223033499, -0.06400000303983688, 0.288000013679266, 0.944000044837594, 0.0, 0.0, 0.0, 0.0, 0.0, 1.6360728095171185E9, 0.0, 2021-11-04 19:40:09.517
67.0, 1318.2287166817114, 756.8678633826785, 393.7067481353879, 1535.3093396597542, -0.06400000303983688, 0.288000013679266, 0.944000044837594, 0.0, 0.0, 0.0, 0.0, 0.0, 1.6360728095177135E9, 0.0, 2021-11-04 19:40:09.517
67.0, 1266.1767890984192, 714.8089484809898, 352.2424773266539, 1489.8508556983434, -0.06400000303983688, 0.288000013679266, 0.944000044837594, 0.0, 0.0, 0.0, 0.0, 0.0, 1.6360728095177135E9, 0.0, 2021-11-04 19:40:09.517
68.0, 1230.528062720783, 650.8716188385151, 280.8290876727551, 1420.5355499195866, -0.06400000303983688, 0.288000013679266, 0.944000044837594, 0.0, 0.0, 0.0, 0.0, 0.0, 1.636072809518433E9, 0.0, 2021-11-04 19:40:09.518
68.0, 1162.517982026562, 585.348571614828, 213.5108884703368, 1349.5410290607251, -0.06400000303983688, 0.288000013679266, 0.944000044837594, 0.0, 0.0, 0.0, 0.0, 0.0, 1.636072809518433E9, 0.0, 2021-11-04 19:40:09.518
69.0, 1112.6277166176587, 551.9737044102512, 173.901608039625, 1313.1742418915965, -0.06400000303983688, 0.288000013679266, 0.944000044837594, 0.0, 0.0, 0.0, 0.0, 0.0, 1.636072809529398E9, 0.0, 2021-11-04 19:40:09.529
69.0, 1097.1183515014127, 541.4758052346297, 155.91642915271223, 1286.1833839113824, -0.06400000303983688, 0.288000013679266, 0.944000044837594, 0.0, 0.0, 0.0, 0.0, 0.0, 1.636072809529398E9, 0.0, 2021-11-04 19:40:09.529
70.0, 1080.1878244020045, 525.9888795181178, 137.5423006704077, 1268.3665005224757, -0.06400000303983688, 0.288000013679266, 0.9600000455975533, 0.0, 0.0, 0.0, 0.0, 0.0, 1.636072809530124E9, 0.0, 2021-11-04 19:40:09.530
70.0, 1046.68954049889, 503.71777528198436, 119.0185761898756, 1250.5870161331259, -0.06400000303983688, 0.288000013679266, 0.9600000455975533, 0.0, 0.0, 0.0, 0.0, 0.0, 1.636072809530124E9, 0.0, 2021-11-04 19:40:09.530
71.0, 987.0306564057246, 472.85612084763125, 74.53620611689985, 1208.7263159290887, -0.06400000303983688, 0.288000013679266, 0.9600000455975533, 0.0, 0.0, 0.0, 0.0, 0.0, 1.6360728095618486E9, 0.0, 2021-11-04 19:40:09.561
71.0, 948.9696945566684, 419.60742527851835, 19.552196968346834, 1152.8409908912145, -0.06400000303983688, 0.288000013679266, 0.9600000455975533, 0.0, 0.0, 0.0, 0.0, 0.0, 1.6360728095618486E9, 0.0, 2021-11-04 19:40:09.561
72.0, 876.430595016107, 340.45244271634147, -58.03576751239598, 1078.2711256747134, -0.04800000227987766, 0.288000013679266, 0.9600000455975533, 0.0, 0.0, 0.0, 0.0, 0.0, 1.6360728095626125E9, 0.0, 2021-11-04 19:40:09.562
72.0, 758.8668399089947, 233.41276608454064, -177.99679849110544, 969.7055698609911, -0.04800000227987766, 0.288000013679266, 0.9600000455975533, 0.0, 0.0, 0.0, 0.0, 0.0, 1.6360728095626125E9, 0.0, 2021-11-04 19:40:09.562
73.0, 653.2034464608878, 127.04627144476399, -286.9587837001309, 851.031064467039, -0.04800000227987766, 0.288000013679266, 0.9600000455975533, 0.0, 0.0, 0.0, 0.0, 0.0, 1.636072809563366E9, 0.0, 2021-11-04 19:40:09.563
73.0, 537.9808687260374, 7.074020766187459, -399.79530526325107, 738.3553586020134, -0.04800000227987766, 0.288000013679266, 0.9600000455975533, 0.0, 0.0, 0.0, 0.0, 0.0, 1.636072809563366E9, 0.0, 2021-11-04 19:40:09.563
74.0, 441.3268942711875, -94.44930343097076, -502.130187750794, 616.415920546744, -0.04800000227987766, 0.288000013679266, 0.9600000455975533, 0.0, 0.0, 0.0, 0.0, 0.0, 1.6360728095641024E9, 0.0, 2021-11-04 19:40:09.564
74.0, 356.25912987906486, -171.03497472358868, -589.8719806112349, 526.1384755163454, -0.04800000227987766, 0.288000013679266, 0.9600000455975533, 0.0, 0.0, 0.0, 0.0, 0.0, 1.6360728095641024E9, 0.0, 2021-11-04 19:40:09.564
75.0, 257.54821044858545, -227.21949175791815, -648.3004376189783, 480.0666479622014, -0.04800000227987766, 0.288000013679266, 0.9600000455975533, 0.0, 0.0, 0.0, 0.0, 0.0, 1.6360728095892904E9, 0.0, 2021-11-04 19:40:09.589
75.0, 243.69936091266572, -235.85118085565045, -654.1646007495001, 470.81787537178025, -0.04800000227987766, 0.288000013679266, 0.9600000455975533, 0.0, 0.0, 0.0, 0.0, 0.0, 1.6360728095892904E9, 0.0, 2021-11-04 19:40:09.589
76.0, 237.31909158825874, -240.38393960194662, -659.411680387333, 452.428787289653, -0.04800000227987766, 0.288000013679266, 0.9600000455975533, 0.0, 0.0, 0.0, 0.0, 0.0, 1.6360728095900233E9, 0.0, 2021-11-04 19:40:09.590
76.0, 270.54810269456357, -234.32156177377328, -663.6265476373956, 450.3830620138906, -0.04800000227987766, 0.288000013679266, 0.9600000455975533, 0.0, 0.0, 0.0, 0.0, 0.0, 1.6360728095900233E9, 0.0, 2021-11-04 19:40:09.590
77.0, 281.11332006938756, -218.78227745788172, -643.045878181234, 449.51166532421485, -0.04800000227987766, 0.288000013679266, 0.9600000455975533, 0.0, 0.0, 0.0, 0.0, 0.0, 1.6360728096042168E9, 0.0, 2021-11-04 19:40:09.604
77.0, 286.9438241003081, -181.71238909708336, -601.9705569678918, 475.00282342219725, -0.04800000227987766, 0.288000013679266, 0.9600000455975533, 0.0, 0.0, 0.0, 0.0, 0.0, 1.6360728096042168E9, 0.0, 2021-11-04 19:40:09.604
78.0, 319.9372215094045, -154.53079621912912, -569.8672557482496, 506.8069326453842, -0.04800000227987766, 0.288000013679266, 0.9600000455975533, 0.0, 0.0, 0.0, 0.0, 0.0, 1.6360728096050036E9, 0.0, 2021-11-04 19:40:09.605
78.0, 371.67499749641865, -116.02104637539014, -523.9637236921117, 554.8870864757337, -0.04800000227987766, 0.288000013679266, 0.9600000455975533, 0.0, 0.0, 0.0, 0.0, 0.0, 1.6360728096050036E9, 0.0, 2021-11-04 19:40:09.605
79.0, 367.0973599506542, -57.603809067513794, -454.285647617653, 617.8071633302607, -0.04800000227987766, 0.288000013679266, 0.9600000455975533, 0.0, 0.0, 0.0, 0.0, 0.0, 1.6360728096185424E9, 0.0, 2021-11-04 19:40:09.618
79.0, 468.38881035055965, -19.643824517261237, -414.9792990833521, 652.0758666242473, -0.04800000227987766, 0.288000013679266, 0.9600000455975533, 0.0, 0.0, 0.0, 0.0, 0.0, 1.6360728096185424E9, 0.0, 2021-11-04 19:40:09.618
80.0, 517.2169441720471, -4.658045394811779, -393.0447858432308, 674.8294179546647, -0.04800000227987766, 0.288000013679266, 0.9600000455975533, 0.0, 0.0, 0.0, 0.0, 0.0, 1.6360728096343255E9, 0.0, 2021-11-04 19:40:09.634
80.0, 457.5879792785272, -9.748049234505743, -388.953335291706, 660.9618689189665, -0.04800000227987766, 0.288000013679266, 0.9600000455975533, 0.0, 0.0, 0.0, 0.0, 0.0, 1.6360728096343255E9, 0.0, 2021-11-04 19:40:09.634
81.0, 432.6503263739869, -18.24510193383321, -403.6025234181434, 644.083700418938, -0.04800000227987766, 0.288000013679266, 0.9600000455975533, 0.0, 0.0, 0.0, 0.0, 0.0, 1.6360728096350296E9, 0.0, 2021-11-04 19:40:09.635
81.0, 474.57834477722645, -29.21048860391602, -413.09812940564007, 647.5505876778625, -0.04800000227987766, 0.288000013679266, 0.9600000455975533, 0.0, 0.0, 0.0, 0.0, 0.0, 1.6360728096350296E9, 0.0, 2021-11-04 19:40:09.635
82.0, 466.0064940787852, -27.852904920000583, -412.99341220688075, 647.4570901789702, -0.04800000227987766, 0.288000013679266, 0.9600000455975533, 0.0, 0.0, 0.0, 0.0, 0.0, 1.6360728096485307E9, 0.0, 2021-11-04 19:40:09.648
82.0, 415.7123194746673, -21.835405891295522, -403.31829102151096, 645.1233926066197, -0.04800000227987766, 0.288000013679266, 0.9600000455975533, 0.0, 0.0, 0.0, 0.0, 0.0, 1.6360728096485307E9, 0.0, 2021-11-04 19:40:09.648
83.0, 446.1401455141604, -9.777968434151262, -391.2197146648541, 665.3973902664147, -0.04800000227987766, 0.288000013679266, 0.9600000455975533, 0.0, 0.0, 0.0, 0.0, 0.0, 1.6360728096962607E9, 0.0, 2021-11-04 19:40:09.696
83.0, 488.77126510906965, 0.764809540938586, -384.1139047490433, 681.5986368744634, -0.04800000227987766, 0.288000013679266, 0.9600000455975533, 0.0, 0.0, 0.0, 0.0, 0.0, 1.6360728096962607E9, 0.0, 2021-11-04 19:40:09.696
84.0, 506.2814767016098, 27.886564019601792, -362.1681718090549, 691.0306645627134, -0.04800000227987766, 0.288000013679266, 0.9600000455975533, 0.0, 0.0, 0.0, 0.0, 0.0, 1.636072809697051E9, 0.0, 2021-11-04 19:40:09.697
84.0, 523.5224154973403, 54.57449010340497, -344.3400687202811, 712.6809454062022, -0.04800000227987766, 0.288000013679266, 0.9600000455975533, 0.0, 0.0, 0.0, 0.0, 0.0, 1.636072809697051E9, 0.0, 2021-11-04 19:40:09.697
85.0, 572.4814458172768, 79.56450160732493, -329.3355900980532, 727.8387599266134, -0.04800000227987766, 0.288000013679266, 0.9600000455975533, 0.0, 0.0, 0.0, 0.0, 0.0, 1.6360728096979253E9, 0.0, 2021-11-04 19:40:09.697
85.0, 582.223885201849, 109.44630225328729, -287.0522811990231, 749.4890407701023, -0.04800000227987766, 0.288000013679266, 0.9600000455975533, 0.0, 0.0, 0.0, 0.0, 0.0, 1.6360728096979253E9, 0.0, 2021-11-04 19:40:09.697
86.0, 618.6991294696927, 110.6617697388865, -271.77104998007417, 781.8017763872631, -0.04800000227987766, 0.288000013679266, 0.9600000455975533, 0.0, 0.0, 0.0, 0.0, 0.0, 1.6360728096984272E9, 0.0, 2021-11-04 19:40:09.698
86.0, 637.619283345528, 136.05943033797666, -268.00123082473874, 783.069602472242, -0.04800000227987766, 0.288000013679266, 0.9600000455975533, 0.0, 0.0, 0.0, 0.0, 0.0, 1.6360728096984272E9, 0.0, 2021-11-04 19:40:09.698
87.0, 640.0090794172138, 176.30823366111144, -234.89937631692737, 790.0108567900024, -0.04800000227987766, 0.288000013679266, 0.9600000455975533, 0.0, 0.0, 0.0, 0.0, 0.0, 1.6360728097091491E9, 0.0, 2021-11-04 19:40:09.709
87.0, 643.0832771807909, 217.59298927197233, -204.18731788080186, 823.3333653951995, -0.04800000227987766, 0.288000013679266, 0.9600000455975533, 0.0, 0.0, 0.0, 0.0, 0.0, 1.6360728097091491E9, 0.0, 2021-11-04 19:40:09.709
88.0, 701.4818149888888, 228.40877994382754, -226.8137126127258, 843.3493099580519, -0.04800000227987766, 0.288000013679266, 0.9600000455975533, 0.0, 0.0, 0.0, 0.0, 0.0, 1.6360728097099185E9, 0.0, 2021-11-04 19:40:09.709
88.0, 732.728679118678, 247.25413582054898, -207.30639444384724, 857.628247988876, -0.04800000227987766, 0.288000013679266, 0.9600000455975533, 0.0, 0.0, 0.0, 0.0, 0.0, 1.6360728097099185E9, 0.0, 2021-11-04 19:40:09.709
89.0, 751.5777748953551, 260.0595532688312, -173.3368831463158, 876.6905180630274, -0.04800000227987766, 0.288000013679266, 0.9600000455975533, 0.0, 0.0, 0.0, 0.0, 0.0, 1.6360728097398832E9, 0.0, 2021-11-04 19:40:09.739
89.0, 707.2337811207399, 257.6697571971454, -157.68540183175355, 866.5142502835952, -0.04800000227987766, 0.288000013679266, 0.9600000455975533, 0.0, 0.0, 0.0, 0.0, 0.0, 1.6360728097398832E9, 0.0, 2021-11-04 19:40:09.739
90.0, 728.0388445742428, 274.8171984939836, -149.50250072870404, 877.528255653102, -0.04800000227987766, 0.288000013679266, 0.9760000463575125, 0.0, 0.0, 0.0, 0.0, 0.0, 1.6360728097407024E9, 0.0, 2021-11-04 19:40:09.740
90.0, 734.6435078959912, 299.61647510016337, -122.84075394459069, 901.4823148692958, -0.04800000227987766, 0.288000013679266, 0.9760000463575125, 0.0, 0.0, 0.0, 0.0, 0.0, 1.6360728097407024E9, 0.0, 2021-11-04 19:40:09.740
91.0, 794.1976747903973, 303.468572054524, -122.89685244392604, 896.7625611252151, -0.04800000227987766, 0.288000013679266, 0.9760000463575125, 0.0, 0.0, 0.0, 0.0, 0.0, 1.6360728097414277E9, 0.0, 2021-11-04 19:40:09.741
91.0, 786.1456701857969, 292.6677409824915, -139.251434950158, 875.7705026739277, -0.04800000227987766, 0.288000013679266, 0.9760000463575125, 0.0, 0.0, 0.0, 0.0, 0.0, 1.6360728097414277E9, 0.0, 2021-11-04 19:40:09.741
92.0, 767.3115340089425, 298.2289722166024, -125.63819911144674, 879.8544734255411, -0.04800000227987766, 0.288000013679266, 0.9760000463575125, 0.0, 0.0, 0.0, 0.0, 0.0, 1.636072809754258E9, 0.0, 2021-11-04 19:40:09.754
92.0, 825.2238848228008, 333.87021879432723, -73.27585983183235, 925.8328034807928, -0.04800000227987766, 0.288000013679266, 0.9760000463575125, 0.0, 0.0, 0.0, 0.0, 0.0, 1.636072809754258E9, 0.0, 2021-11-04 19:40:09.754
93.0, 818.720198799856, 331.3270868244581, -77.50942658167332, 921.3486634339206, -0.04800000227987766, 0.288000013679266, 0.9760000463575125, 0.0, 0.0, 0.0, 0.0, 0.0, 1.636072809755012E9, 0.0, 2021-11-04 19:40:09.755
93.0, 774.6828768216074, 317.9457247829996, -86.81429767142981, 914.8487173109315, -0.04800000227987766, 0.288000013679266, 0.9760000463575125, 0.0, 0.0, 0.0, 0.0, 0.0, 1.636072809755012E9, 0.0, 2021-11-04 19:40:09.755
94.0, 789.5601988453418, 301.8342357738875, -99.234505424276, 892.0502871810459, -0.04800000227987766, 0.288000013679266, 0.9760000463575125, 0.0, 0.0, 0.0, 0.0, 0.0, 1.6360728097686455E9, 0.0, 2021-11-04 19:40:09.768
94.0, 737.1529807662591, 279.3275178405456, -120.08070777729154, 867.3445080737583, -0.04800000227987766, 0.288000013679266, 0.9760000463575125, 0.0, 0.0, 0.0, 0.0, 0.0, 1.6360728097686455E9, 0.0, 2021-11-04 19:40:09.768
95.0, 668.735250976868, 247.8375602136366, -142.11245841626078, 852.0483172549866, -0.04800000227987766, 0.288000013679266, 0.9760000463575125, 0.0, 0.0, 0.0, 0.0, 0.0, 1.636072809784278E9, 0.0, 2021-11-04 19:40:09.784
95.0, 634.6872017802671, 217.86974186869338, -163.10825676750392, 824.1262241858058, -0.04800000227987766, 0.288000013679266, 0.9760000463575125, 0.0, 0.0, 0.0, 0.0, 0.0, 1.636072809784278E9, 0.0, 2021-11-04 19:40:09.784
96.0, 610.6845238646492, 184.16576346801594, -213.75772186741233, 772.2799911000766, -0.04800000227987766, 0.288000013679266, 0.9760000463575125, 0.0, 0.0, 0.0, 0.0, 0.0, 1.6360728097850432E9, 0.0, 2021-11-04 19:40:09.785
96.0, 621.5377135360613, 139.7918504937552, -251.31005732249469, 719.5287022250704, -0.04800000227987766, 0.288000013679266, 0.9760000463575125, 0.0, 0.0, 0.0, 0.0, 0.0, 1.6360728097850432E9, 0.0, 2021-11-04 19:40:09.785
97.0, 571.1687409328297, 110.86372433649376, -264.2800303688273, 685.3759358297102, -0.04800000227987766, 0.288000013679266, 0.9760000463575125, 0.0, 0.0, 0.0, 0.0, 0.0, 1.6360728098149395E9, 0.0, 2021-11-04 19:40:09.814
97.0, 544.1704031527042, 83.4652172611095, -289.89086526539177, 657.012534565758, -0.04800000227987766, 0.288000013679266, 0.9760000463575125, 0.0, 0.0, 0.0, 0.0, 0.0, 1.6360728098149395E9, 0.0, 2021-11-04 19:40:09.814
98.0, 472.8617306975648, 47.32656398927793, -334.1488413410261, 631.5213764677756, -0.04800000227987766, 0.288000013679266, 0.9760000463575125, 0.0, 0.0, 0.0, 0.0, 0.0, 1.6360728098156729E9, 0.0, 2021-11-04 19:40:09.815
98.0, 462.7116422178224, 18.2488418337889, -364.6103264801204, 615.2079328610562, -0.04800000227987766, 0.288000013679266, 0.9760000463575125, 0.0, 0.0, 0.0, 0.0, 0.0, 1.6360728098156729E9, 0.0, 2021-11-04 19:40:09.815
99.0, 411.32167692668736, -14.897891473490745, -403.31455112155527, 573.3285331572406, -0.04800000227987766, 0.288000013679266, 0.9760000463575125, 0.0, 0.0, 0.0, 0.0, 0.0, 1.6360728098164392E9, 0.0, 2021-11-04 19:40:09.816
99.0, 406.5271251834929, -37.62152360426262, -438.6491259029135, 546.7640237719752, -0.04800000227987766, 0.288000013679266, 0.9760000463575125, 0.0, 0.0, 0.0, 0.0, 0.0, 1.6360728098164392E9, 0.0, 2021-11-04 19:40:09.816
100.0, 397.24095359351486, -66.6805462599732, -474.1519961822778, 518.9055090020411, -0.04800000227987766, 0.288000013679266, 0.9760000463575125, 0.0, 0.0, 0.0, 0.0, 0.0, 1.6360728098291912E9, 0.0, 2021-11-04 19:40:09.829
100.0, 358.4656708529219, -91.96974976034835, -499.6020153807476, 494.4390834919177, -0.04800000227987766, 0.288000013679266, 0.9760000463575125, 0.0, 0.0, 0.0, 0.0, 0.0, 1.6360728098291912E9, 0.0, 2021-11-04 19:40:09.829
0.0, 315.6830853098072, -149.7512040757574, -562.5856705345213, 448.93759068101645, -0.04800000227987766, 0.288000013679266, 0.9760000463575125, 0.0, 0.0, 0.0, 0.0, 0.0, 1.636072809829922E9, 0.0, 2021-11-04 19:40:09.829
1.0, 273.6578295077197, -178.97478232951835, -581.3375289123505, 444.1093798382208, -0.04800000227987766, 0.288000013679266, 0.9760000463575125, 0.0, 0.0, 0.0, 0.0, 0.0, 1.63607280984351E9, 0.0, 2021-11-04 19:40:09.843
1.0, 290.5584374074824, -185.9571755467914, -595.9754973389208, 433.7648165607825, -0.04800000227987766, 0.288000013679266, 0.9760000463575125, 0.0, 0.0, 0.0, 0.0, 0.0, 1.63607280984351E9, 0.0, 2021-11-04 19:40:09.843
2.0, 342.3336123940535, -168.97802974795923, -594.7899490529671, 411.24687892757356, -0.04800000227987766, 0.288000013679266, 0.9760000463575125, 0.0, 0.0, 0.0, 0.0, 0.0, 1.6360728098592265E9, 0.0, 2021-11-04 19:40:09.859
2.0, 327.2094569732435, -184.21064226748422, -620.2773672509938, 394.6791221238673, -0.04800000227987766, 0.288000013679266, 0.9760000463575125, 0.0, 0.0, 0.0, 0.0, 0.0, 1.6360728098592265E9, 0.0, 2021-11-04 19:40:09.859
3.0, 292.3461095863022, -194.69358184328303, -640.1624153153971, 401.0780909480527, -0.04800000227987766, 0.288000013679266, 0.9760000463575125, 0.0, 0.0, 0.0, 0.0, 0.0, 1.6360728098599315E9, 0.0, 2021-11-04 19:40:09.859
3.0, 309.6468867813237, -185.63928405055776, -623.7068555103615, 414.02562459465116, -0.04800000227987766, 0.288000013679266, 0.9760000463575125, 0.0, 0.0, 0.0, 0.0, 0.0, 1.6360728098599315E9, 0.0, 2021-11-04 19:40:09.859
4.0, 296.74049203423783, -172.1719043101184, -627.7683868622407, 420.77614401467144, -0.04800000227987766, 0.288000013679266, 0.9760000463575125, 0.0, 0.0, 0.0, 0.0, 0.0, 1.6360728098735323E9, 0.0, 2021-11-04 19:40:09.873
4.0, 346.93742923950776, -170.1411386341788, -627.7945661619306, 434.7184910494834, -0.04800000227987766, 0.288000013679266, 0.9760000463575125, 0.0, 0.0, 0.0, 0.0, 0.0, 1.6360728098735323E9, 0.0, 2021-11-04 19:40:09.873
5.0, 359.72414718801156, -166.46107707777992, -623.1570902168751, 434.59133445098996, -0.04800000227987766, 0.288000013679266, 0.9760000463575125, 0.0, 0.0, 0.0, 0.0, 0.0, 1.6360728098891804E9, 0.0, 2021-11-04 19:40:09.889
5.0, 364.6047166301869, -151.13496705936268, -607.9768362967297, 439.90199238806963, -0.04800000227987766, 0.288000013679266, 0.9760000463575125, 0.0, 0.0, 0.0, 0.0, 0.0, 1.6360728098891804E9, 0.0, 2021-11-04 19:40:09.889
6.0, 351.6758824833669, -133.14604827249423, -594.8049086527899, 451.42088425159454, -0.04800000227987766, 0.288000013679266, 0.9760000463575125, 0.0, 0.0, 0.0, 0.0, 0.0, 1.6360728098899367E9, 0.0, 2021-11-04 19:40:09.889
6.0, 383.1172214108519, -118.30238534836099, -572.1485947212204, 479.7057476164773, -0.04800000227987766, 0.288000013679266, 0.9760000463575125, 0.0, 0.0, 0.0, 0.0, 0.0, 1.6360728098899367E9, 0.0, 2021-11-04 19:40:09.889
7.0, 358.9761671968736, -101.03526725294068, -549.492280789651, 506.0458630044013, -0.04800000227987766, 0.288000013679266, 0.9760000463575125, 0.0, 0.0, 0.0, 0.0, 0.0, 1.6360728099199235E9, 0.0, 2021-11-04 19:40:09.919
7.0, 411.41704437555745, -83.61107335938141, -544.4808148490265, 508.0541892806068, -0.04800000227987766, 0.288000013679266, 0.9760000463575125, 0.0, 0.0, 0.0, 0.0, 0.0, 1.6360728099199235E9, 0.0, 2021-11-04 19:40:09.919
8.0, 437.3831697679125, -61.560623220633715, -523.3653396992013, 530.194397018291, -0.04800000227987766, 0.288000013679266, 0.9760000463575125, 0.0, 0.0, 0.0, 0.0, 0.0, 1.6360728099206212E9, 0.0, 2021-11-04 19:40:09.920
8.0, 476.8652936001308, -45.909141906071454, -501.6028618570417, 548.3964901026338, -0.04800000227987766, 0.288000013679266, 0.9760000463575125, 0.0, 0.0, 0.0, 0.0, 0.0, 1.6360728099206212E9, 0.0, 2021-11-04 19:40:09.920
9.0, 478.04336208617315, -28.110958016943187, -496.3557822192088, 569.9644931470975, -0.04800000227987766, 0.288000013679266, 0.9760000463575125, 0.0, 0.0, 0.0, 0.0, 0.0, 1.6360728099213848E9, 0.0, 2021-11-04 19:40:09.921
9.0, 487.778321670834, -36.40231621870771, -493.18060715682805, 572.7843777136877, -0.04800000227987766, 0.288000013679266, 0.9760000463575125, 0.0, 0.0, 0.0, 0.0, 0.0, 1.6360728099213848E9, 0.0, 2021-11-04 19:40:09.921
10.0, 447.55195774743333, -31.091658281628042, -481.80383149161935, 584.2957897773013, -0.04800000227987766, 0.288000013679266, 0.9760000463575125, 0.0, 0.0, 0.0, 0.0, 0.0, 1.6360728099342363E9, 0.0, 2021-11-04 19:40:09.934
10.0, 464.93127284152433, -34.40894954232499, -486.2655321387574, 574.5757897924632, -0.04800000227987766, 0.288000013679266, 0.9760000463575125, 0.0, 0.0, 0.0, 0.0, 0.0, 1.6360728099342363E9, 0.0, 2021-11-04 19:40:09.934
11.0, 474.99908352224156, -31.349711378570646, -482.94450097810477, 584.0564361801371, -0.04800000227987766, 0.288000013679266, 0.9760000463575125, 0.0, 0.0, 0.0, 0.0, 0.0, 1.6360728099492645E9, 0.0, 2021-11-04 19:40:09.949
11.0, 486.1664247899316, -28.081038817297667, -464.49557449668646, 590.750857100822, -0.04800000227987766, 0.288000013679266, 0.9760000463575125, 0.0, 0.0, 0.0, 0.0, 0.0, 1.6360728099492645E9, 0.0, 2021-11-04 19:40:09.949
12.0, 477.4038391937502, -40.46010767063126, -470.39339672680944, 581.5955820092931, -0.04800000227987766, 0.288000013679266, 0.9760000463575125, 0.0, 0.0, 0.0, 0.0, 0.0, 1.6360728099499784E9, 0.0, 2021-11-04 19:40:09.949
12.0, 482.3666864349507, -43.78861863119528, -473.46385459043086, 574.3401760952547, -0.04800000227987766, 0.288000013679266, 0.9760000463575125, 0.0, 0.0, 0.0, 0.0, 0.0, 1.6360728099499784E9, 0.0, 2021-11-04 19:40:09.949
13.0, 453.1954667805694, -39.27829928463325, -463.4783217087388, 576.5616766689345, -0.04800000227987766, 0.288000013679266, 0.9760000463575125, 0.0, 0.0, 0.0, 0.0, 0.0, 1.636072809963562E9, 0.0, 2021-11-04 19:40:09.963
13.0, 484.2777753123082, -22.822739479597658, -440.2872020835057, 593.2865092707798, -0.04800000227987766, 0.288000013679266, 0.9760000463575125, 0.0, 0.0, 0.0, 0.0, 0.0, 1.636072809963562E9, 0.0, 2021-11-04 19:40:09.963
14.0, 479.15785227296874, -23.96714886603877, -436.93625172320753, 597.2620229236782, -0.04800000227987766, 0.288000013679266, 0.9760000463575125, 0.0, 0.0, 0.0, 0.0, 0.0, 1.6360728099791956E9, 0.0, 2021-11-04 19:40:09.979
14.0, 458.8950743130408, -12.485656002070755, -424.134574174881, 608.5490409899503, -0.04800000227987766, 0.288000013679266, 0.9760000463575125, 0.0, 0.0, 0.0, 0.0, 0.0, 1.6360728099791956E9, 0.0, 2021-11-04 19:40:09.979
15.0, 518.725993804168, -0.8171681403182447, -400.2291336581111, 617.4500028844923, -0.04800000227987766, 0.288000013679266, 0.9760000463575125, 0.0, 0.0, 0.0, 0.0, 0.0, 1.6360728099799497E9, 0.0, 2021-11-04 19:40:09.979
15.0, 513.635989964474, 7.709803758654743, -386.5635392200202, 634.0813379874453, -0.04800000227987766, 0.288000013679266, 0.9760000463575125, 0.0, 0.0, 0.0, 0.0, 0.0, 1.6360728099799497E9, 0.0, 2021-11-04 19:40:09.979
16.0, 564.6444854601286, 16.790280851069838, -376.82109983544797, 640.5102260112762, -0.04800000227987766, 0.288000013679266, 0.9760000463575125, 0.0, 0.0, 0.0, 0.0, 0.0, 1.6360728099935777E9, 0.0, 2021-11-04 19:40:09.993
16.0, 551.2219845191576, 31.379630578216165, -345.8958671018481, 664.5540428264067, -0.04800000227987766, 0.288000013679266, 0.9760000463575125, 0.0, 0.0, 0.0, 0.0, 0.0, 1.6360728099935777E9, 0.0, 2021-11-04 19:40:09.993
17.0, 558.5147894327529, 49.24513266654685, -325.8948821388185, 678.8217611573637, -0.04800000227987766, 0.288000013679266, 0.9760000463575125, 0.0, 0.0, 0.0, 0.0, 0.0, 1.6360728100091667E9, 0.0, 2021-11-04 19:40:10.009
17.0, 604.3098643901758, 59.47749894531444, -317.8653169339523, 695.9205837547779, -0.04800000227987766, 0.288000013679266, 0.9760000463575125, 0.0, 0.0, 0.0, 0.0, 0.0, 1.6360728100091667E9, 0.0, 2021-11-04 19:40:10.009
18.0, 598.445701259654, 71.82664859900251, -296.75358168408275, 717.7653393959627, -0.04800000227987766, 0.288000013679266, 0.9760000463575125, 0.0, 0.0, 0.0, 0.0, 0.0, 1.636072810009946E9, 0.0, 2021-11-04 19:40:10.009
18.0, 590.6480098520406, 72.93365898588672, -281.04226197022945, 719.7400065725669, -0.04800000227987766, 0.288000013679266, 0.9760000463575125, 0.0, 0.0, 0.0, 0.0, 0.0, 1.636072810009946E9, 0.0, 2021-11-04 19:40:10.009
19.0, 574.9105108384974, 81.97299717878923, -273.77563635632396, 729.400168158114, -0.04800000227987766, 0.288000013679266, 0.9760000463575125, 0.0, 0.0, 0.0, 0.0, 0.0, 1.6360728100396338E9, 0.0, 2021-11-04 19:40:10.039
19.0, 584.4734350251965, 79.63181980652735, -263.14310078229755, 735.514904585667, -0.04800000227987766, 0.288000013679266, 0.9760000463575125, 0.0, 0.0, 0.0, 0.0, 0.0, 1.6360728100396338E9, 0.0, 2021-11-04 19:40:10.039
20.0, 608.5322114401497, 88.57392060058191, -248.46773335617036, 761.4174516787753, -0.04800000227987766, 0.288000013679266, 0.9760000463575125, 0.0, 0.0, 0.0, 0.0, 0.0, 1.63607281004033E9, 0.0, 2021-11-04 19:40:10.040
20.0, 633.4848239445128, 127.91018833452836, -230.19458217266947, 769.1253854874521, -0.04800000227987766, 0.288000013679266, 0.9760000463575125, 0.0, 0.0, 0.0, 0.0, 0.0, 1.63607281004033E9, 0.0, 2021-11-04 19:40:10.040
21.0, 663.187109392602, 133.16848767222837, -233.5230931332335, 777.9889483824372, -0.04800000227987766, 0.288000013679266, 0.9760000463575125, 0.0, 0.0, 0.0, 0.0, 0.0, 1.6360728100540109E9, 0.0, 2021-11-04 19:40:10.054
21.0, 641.9444776442833, 131.94928028667346, -219.98465529363602, 772.8353662434965, -0.04800000227987766, 0.288000013679266, 0.9760000463575125, 0.0, 0.0, 0.0, 0.0, 0.0, 1.6360728100540109E9, 0.0, 2021-11-04 19:40:10.054
22.0, 635.4894103207625, 138.17621371289715, -214.38976495992392, 789.5003604460508, -0.04800000227987766, 0.288000013679266, 0.9760000463575125, 0.0, 0.0, 0.0, 0.0, 0.0, 1.6360728100699365E9, 0.0, 2021-11-04 19:40:10.069
22.0, 634.0719882375561, 142.22652536490932, -212.27672148495913, 781.7587675377727, -0.04800000227987766, 0.288000013679266, 0.9760000463575125, 0.0, 0.0, 0.0, 0.0, 0.0, 1.6360728100699365E9, 0.0, 2021-11-04 19:40:10.069
23.0, 660.9768285187893, 140.32291628746316, -196.32604817394167, 802.3356970939785, -0.04800000227987766, 0.288000013679266, 0.9760000463575125, 0.0, 0.0, 0.0, 0.0, 0.0, 1.6360728100706367E9, 0.0, 2021-11-04 19:40:10.070
23.0, 659.8623383319937, 135.4498266451992, -200.84384732041508, 802.9640002865344, -0.04800000227987766, 0.288000013679266, 0.9760000463575125, 0.0, 0.0, 0.0, 0.0, 0.0, 1.6360728100706367E9, 0.0, 2021-11-04 19:40:10.070
24.0, 650.7631617398001, 134.73176585370675, -204.29577497951686, 811.5021918853745, -0.04800000227987766, 0.288000013679266, 0.9760000463575125, 0.0, 0.0, 0.0, 0.0, 0.0, 1.6360728100713904E9, 0.0, 2021-11-04 19:40:10.071
24.0, 659.3836311376654, 145.89536722144112, -199.80789503268898, 813.2113261651248, -0.04800000227987766, 0.288000013679266, 0.9760000463575125, 0.0, 0.0, 0.0, 0.0, 0.0, 1.6360728100713904E9, 0.0, 2021-11-04 19:40:10.071
25.0, 649.3083406570368, 153.29288933379576, -185.36440140381455, 825.5305566191673, -0.04800000227987766, 0.288000013679266, 0.9760000463575125, 0.0, 0.0, 0.0, 0.0, 0.0, 1.6360728100835617E9, 0.0, 2021-11-04 19:40:10.083
25.0, 585.3784908144735, 163.22980351606384, -176.78133100550622, 830.0296562658623, -0.04800000227987766, 0.288000013679266, 0.9760000463575125, 0.0, 0.0, 0.0, 0.0, 0.0, 1.6360728100835617E9, 0.0, 2021-11-04 19:40:10.083
26.0, 661.908063607756, 189.85789120057598, -155.56487855687737, 865.491387645714, -0.04800000227987766, 0.288000013679266, 0.9760000463575125, 0.0, 0.0, 0.0, 0.0, 0.0, 1.6360728100991695E9, 0.0, 2021-11-04 19:40:10.099
26.0, 727.8088407269679, 206.08531710831448, -134.34842610824853, 884.6022764192894, -0.04800000227987766, 0.288000013679266, 0.9760000463575125, 0.0, 0.0, 0.0, 0.0, 0.0, 1.6360728100991695E9, 0.0, 2021-11-04 19:40:10.099
27.0, 732.2069630748592, 206.73231980064884, -133.45832991879433, 890.1822071531788, -0.04800000227987766, 0.288000013679266, 0.9760000463575125, 0.0, 0.0, 0.0, 0.0, 0.0, 1.6360728100998716E9, 0.0, 2021-11-04 19:40:10.099
27.0, 703.0095641207881, 224.4931046902202, -127.59790668822825, 908.2758431388065, -0.04800000227987766, 0.288000013679266, 0.9760000463575125, 0.0, 0.0, 0.0, 0.0, 0.0, 1.6360728100998716E9, 0.0, 2021-11-04 19:40:10.099
28.0, 745.2554740202613, 226.6772062643431, -119.53094248380512, 914.7757892617956, -0.04800000227987766, 0.288000013679266, 0.9760000463575125, 0.0, 0.0, 0.0, 0.0, 0.0, 1.6360728101135273E9, 0.0, 2021-11-04 19:40:10.113
28.0, 735.2624613386579, 226.11622127098963, -119.51224298402667, 913.5416222764179, -0.04800000227987766, 0.288000013679266, 0.9760000463575125, 0.0, 0.0, 0.0, 0.0, 0.0, 1.6360728101135273E9, 0.0, 2021-11-04 19:40:10.113
29.0, 766.7000603661872, 223.98447829624638, -136.4315503835678, 905.4821378719062, -0.04800000227987766, 0.288000013679266, 0.9760000463575125, 0.0, 0.0, 0.0, 0.0, 0.0, 1.6360728101610897E9, 0.0, 2021-11-04 19:40:10.161
29.0, 742.0204605585895, 218.79723705770448, -146.7013156618923, 911.8736268961802, -0.04800000227987766, 0.288000013679266, 0.9760000463575125, 0.0, 0.0, 0.0, 0.0, 0.0, 1.6360728101610897E9, 0.0, 2021-11-04 19:40:10.161
30.0, 710.3472478338517, 210.05709086125717, -156.06602515093982, 905.9832844659686, -0.04800000227987766, 0.288000013679266, 0.9760000463575125, 0.0, 0.0, 0.0, 0.0, 0.0, 1.6360728101618156E9, 0.0, 2021-11-04 19:40:10.161
30.0, 731.6497179814614, 196.73556721908972, -175.2330124238506, 891.7978439340368, -0.04800000227987766, 0.288000013679266, 0.9760000463575125, 0.0, 0.0, 0.0, 0.0, 0.0, 1.6360728101618156E9, 0.0, 2021-11-04 19:40:10.161
31.0, 728.1828307225369, 182.16117709176615, -196.4232855727896, 874.0407989444211, -0.04800000227987766, 0.288000013679266, 0.9760000463575125, 0.0, 0.0, 0.0, 0.0, 0.0, 1.636072810162513E9, 0.0, 2021-11-04 19:40:10.162
31.0, 643.3357204278, 174.18771038623527, -217.19842982664704, 855.7676477609202, -0.04800000227987766, 0.288000013679266, 0.9760000463575125, 0.0, 0.0, 0.0, 0.0, 0.0, 1.636072810162513E9, 0.0, 2021-11-04 19:40:10.162
32.0, 651.5074018309824, 164.7968215974979, -228.97537478711456, 853.8228997839615, -0.06400000303983688, 0.288000013679266, 0.9760000463575125, 0.0, 0.0, 0.0, 0.0, 0.0, 1.636072810163246E9, 0.0, 2021-11-04 19:40:10.163
32.0, 686.8457165122963, 164.93145799590275, -247.46918006800115, 849.510795135051, -0.06400000303983688, 0.288000013679266, 0.9760000463575125, 0.0, 0.0, 0.0, 0.0, 0.0, 1.636072810163246E9, 0.0, 2021-11-04 19:40:10.163
33.0, 706.5400296789594, 168.27492855628952, -246.77355867624283, 860.981068299152, -0.06400000303983688, 0.288000013679266, 0.9760000463575125, 0.0, 0.0, 0.0, 0.0, 0.0, 1.6360728101742148E9, 0.0, 2021-11-04 19:40:10.174
33.0, 702.9759050211869, 177.8079335433431, -234.89937631692737, 858.0527266338468, -0.06400000303983688, 0.288000013679266, 0.9760000463575125, 0.0, 0.0, 0.0, 0.0, 0.0, 1.6360728101742148E9, 0.0, 2021-11-04 19:40:10.174
34.0, 735.2587214387022, 196.73182731913403, -222.6586837619543, 877.3281710054725, -0.06400000303983688, 0.288000013679266, 0.9760000463575125, 0.0, 0.0, 0.0, 0.0, 0.0, 1.6360728101749344E9, 0.0, 2021-11-04 19:40:10.174
34.0, 742.1700565568171, 223.50951100187376, -190.70497854053974, 905.8149889679626, -0.06400000303983688, 0.288000013679266, 0.9760000463575125, 0.0, 0.0, 0.0, 0.0, 0.0, 1.6360728101749344E9, 0.0, 2021-11-04 19:40:10.174
35.0, 773.4019610867836, 264.5885721151717, -141.34203902538866, 942.2416145363823, -0.06400000303983688, 0.288000013679266, 0.9760000463575125, 0.0, 0.0, 0.0, 0.0, 0.0, 1.6360728101892157E9, 0.0, 2021-11-04 19:40:10.189
35.0, 819.660783638712, 288.95776022644714, -112.43261236790568, 958.0389519492164, -0.06400000303983688, 0.288000013679266, 0.9760000463575125, 0.0, 0.0, 0.0, 0.0, 0.0, 1.6360728101892157E9, 0.0, 2021-11-04 19:40:10.189
36.0, 841.8982287752442, 302.29798336839303, -101.972112191841, 980.2277783863246, -0.06400000303983688, 0.288000013679266, 0.9760000463575125, 0.0, 0.0, 0.0, 0.0, 0.0, 1.636072810189916E9, 0.0, 2021-11-04 19:40:10.189
36.0, 817.6861164621077, 301.69585947552696, -92.8205770002678, 997.2630226844922, -0.06400000303983688, 0.288000013679266, 0.9760000463575125, 0.0, 0.0, 0.0, 0.0, 0.0, 1.636072810189916E9, 0.0, 2021-11-04 19:40:10.189
37.0, 814.234188803006, 290.4125813092105, -105.78307024668902, 982.853188155219, -0.06400000303983688, 0.288000013679266, 0.9760000463575125, 0.0, 0.0, 0.0, 0.0, 0.0, 1.6360728102035422E9, 0.0, 2021-11-04 19:40:10.203
37.0, 784.999390849378, 267.56553247990087, -132.063347235322, 960.4362278208137, -0.06400000303983688, 0.288000013679266, 0.9760000463575125, 0.0, 0.0, 0.0, 0.0, 0.0, 1.6360728102035422E9, 0.0, 2021-11-04 19:40:10.203
38.0, 754.0928576155566, 219.32456295145676, -165.18016134295613, 932.4916953518987, -0.06400000303983688, 0.288000013679266, 0.9760000463575125, 0.0, 0.0, 0.0, 0.0, 0.0, 1.6360728102191408E9, 0.0, 2021-11-04 19:40:10.219
38.0, 677.2603529258631, 172.62817210471258, -222.52404736354947, 897.3702948680148, -0.06400000303983688, 0.288000013679266, 0.9760000463575125, 0.0, 0.0, 0.0, 0.0, 0.0, 1.6360728102191408E9, 0.0, 2021-11-04 19:40:10.219
39.0, 669.0325730233453, 159.22063076356426, -280.3129814788699, 832.8158817328513, -0.06400000303983688, 0.288000013679266, 0.9760000463575125, 0.0, 0.0, 0.0, 0.0, 0.0, 1.6360728102198973E9, 0.0, 2021-11-04 19:40:10.219
39.0, 665.3525114669465, 110.50843384070322, -334.9379602316767, 780.6741965506226, -0.06400000303983688, 0.288000013679266, 0.9760000463575125, 0.0, 0.0, 0.0, 0.0, 0.0, 1.6360728102198973E9, 0.0, 2021-11-04 19:40:10.219
40.0, 614.1832002731971, 75.66378595354035, -374.22560926619917, 748.1108876364306, -0.06400000303983688, 0.288000013679266, 0.9760000463575125, 0.0, 0.0, 0.0, 0.0, 0.0, 1.6360728102335503E9, 0.0, 2021-11-04 19:40:10.233
40.0, 558.4736505332403, 45.38929581223056, -404.8927889028564, 726.0005990983918, -0.06400000303983688, 0.288000013679266, 0.9760000463575125, 0.0, 0.0, 0.0, 0.0, 0.0, 1.6360728102335503E9, 0.0, 2021-11-04 19:40:10.233
41.0, 555.0703415735625, 29.95098879514262, -436.9437315231189, 695.6326114581898, -0.06400000303983688, 0.288000013679266, 0.9760000463575125, 0.0, 0.0, 0.0, 0.0, 0.0, 1.6360728102649264E9, 0.0, 2021-11-04 19:40:10.264
41.0, 541.266370837111, 18.589172729756683, -434.5763748511672, 692.0759666003287, -0.06400000303983688, 0.288000013679266, 0.9760000463575125, 0.0, 0.0, 0.0, 0.0, 0.0, 1.6360728102649264E9, 0.0, 2021-11-04 19:40:10.264
42.0, 550.9826309219934, 19.58772601792589, -423.4651320828125, 681.1031001303345, -0.04800000227987766, 0.288000013679266, 0.9760000463575125, 0.0, 0.0, 0.0, 0.0, 0.0, 1.6360728102656393E9, 0.0, 2021-11-04 19:40:10.265
42.0, 547.8111957595684, 35.590757928323, -410.46897973679006, 704.675689551048, -0.04800000227987766, 0.288000013679266, 0.9760000463575125, 0.0, 0.0, 0.0, 0.0, 0.0, 1.6360728102656393E9, 0.0, 2021-11-04 19:40:10.265
43.0, 547.0183369689621, 50.756052248645574, -391.57874506060034, 726.7672785893083, -0.04800000227987766, 0.288000013679266, 0.9760000463575125, 0.0, 0.0, 0.0, 0.0, 0.0, 1.636072810266405E9, 0.0, 2021-11-04 19:40:10.266
43.0, 564.7791218585335, 74.67271246528253, -354.9838239941746, 755.7739426456392, -0.04800000227987766, 0.288000013679266, 0.9760000463575125, 0.0, 0.0, 0.0, 0.0, 0.0, 1.636072810266405E9, 0.0, 2021-11-04 19:40:10.266
44.0, 636.473004009109, 103.97856851806864, -329.7507189931348, 786.3588444832712, -0.04800000227987766, 0.288000013679266, 0.9760000463575125, 0.0, 0.0, 0.0, 0.0, 0.0, 1.6360728102948544E9, 0.0, 2021-11-04 19:40:10.294
44.0, 642.8869324331172, 150.3458481687121, -279.6435393868014, 832.6662857346237, -0.04800000227987766, 0.288000013679266, 0.9760000463575125, 0.0, 0.0, 0.0, 0.0, 0.0, 1.6360728102948544E9, 0.0, 2021-11-04 19:40:10.294
45.0, 691.4196141581051, 184.3265791661106, -243.67692151293159, 865.5250467453152, -0.04800000227987766, 0.288000013679266, 0.9760000463575125, 0.0, 0.0, 0.0, 0.0, 0.0, 1.6360728102955446E9, 0.0, 2021-11-04 19:40:10.295
45.0, 722.404685290996, 182.22475539101288, -247.820730663836, 863.0679324744269, -0.04800000227987766, 0.288000013679266, 0.9760000463575125, 0.0, 0.0, 0.0, 0.0, 0.0, 1.6360728102955446E9, 0.0, 2021-11-04 19:40:10.295
46.0, 674.2609531613998, 191.4099496821873, -254.44783338531852, 876.284738917835, -0.04800000227987766, 0.288000013679266, 0.9760000463575125, 0.0, 0.0, 0.0, 0.0, 0.0, 1.6360728102963953E9, 0.0, 2021-11-04 19:40:10.296
46.0, 736.3208530261181, 199.42829518718645, -247.8955286629498, 886.7714183935896, -0.04800000227987766, 0.288000013679266, 0.9760000463575125, 0.0, 0.0, 0.0, 0.0, 0.0, 1.6360728102963953E9, 0.0, 2021-11-04 19:40:10.296
47.0, 743.6099180397578, 197.90615590522066, -261.32924930378795, 881.363523057662, -0.04800000227987766, 0.288000013679266, 0.9760000463575125, 0.0, 0.0, 0.0, 0.0, 0.0, 1.6360728103092632E9, 0.0, 2021-11-04 19:40:10.309
47.0, 712.2284175115637, 184.50609436398372, -279.9876101827249, 885.2904180111364, -0.04800000227987766, 0.288000013679266, 0.9760000463575125, 0.0, 0.0, 0.0, 0.0, 0.0, 1.6360728103092632E9, 0.0, 2021-11-04 19:40:10.309
48.0, 710.5716418311931, 186.27506704302505, -284.8083412256092, 877.2832922060043, -0.04800000227987766, 0.288000013679266, 0.9760000463575125, 0.0, 0.0, 0.0, 0.0, 0.0, 1.6360728103099816E9, 0.0, 2021-11-04 19:40:10.309
48.0, 697.4184136870317, 191.256613784004, -270.22273139841855, 881.6215761546046, -0.04800000227987766, 0.288000013679266, 0.9760000463575125, 0.0, 0.0, 0.0, 0.0, 0.0, 1.6360728103099816E9, 0.0, 2021-11-04 19:40:10.309
49.0, 739.6605836865492, 211.88964183954522, -263.3151361802593, 894.9879785962403, -0.04800000227987766, 0.288000013679266, 0.9760000463575125, 0.0, 0.0, 0.0, 0.0, 0.0, 1.6360728103235352E9, 0.0, 2021-11-04 19:40:10.323
49.0, 722.1354124941863, 218.55788346054032, -254.32441668678075, 912.3934729900211, -0.04800000227987766, 0.288000013679266, 0.9760000463575125, 0.0, 0.0, 0.0, 0.0, 0.0, 1.6360728103235352E9, 0.0, 2021-11-04 19:40:10.323
50.0, 750.7381673553027, 242.66901847487316, -233.4819542337209, 928.6358584975824, -0.04800000227987766, 0.288000013679266, 0.9760000463575125, 0.0, 0.0, 0.0, 0.0, 0.0, 1.6360728103391716E9, 0.0, 2021-11-04 19:40:10.339
50.0, 810.4755893475376, 267.5243935803883, -214.32992656063288, 954.534665690735, -0.04800000227987766, 0.288000013679266, 0.9760000463575125, 0.0, 0.0, 0.0, 0.0, 0.0, 1.6360728103391716E9, 0.0, 2021-11-04 19:40:10.339
51.0, 824.4815146815963, 270.69208884285763, -221.38337787706405, 952.6235768133774, -0.04800000227987766, 0.3040000144392252, 0.9760000463575125, 0.0, 0.0, 0.0, 0.0, 0.0, 1.6360728103398783E9, 0.0, 2021-11-04 19:40:10.339
51.0, 847.8596293046139, 300.99275828385726, -190.9031932381913, 977.5387903181836, -0.04800000227987766, 0.3040000144392252, 0.9760000463575125, 0.0, 0.0, 0.0, 0.0, 0.0, 1.6360728103398783E9, 0.0, 2021-11-04 19:40:10.339
52.0, 883.1343656866811, 330.30235423659906, -156.12960345018655, 1013.4642692925408, -0.04800000227987766, 0.3040000144392252, 0.9760000463575125, 0.0, 0.0, 0.0, 0.0, 0.0, 1.636072810369945E9, 0.0, 2021-11-04 19:40:10.369
52.0, 911.1275168550201, 370.1285488647409, -120.60055387113243, 1040.6645616702735, -0.04800000227987766, 0.3040000144392252, 0.9760000463575125, 0.0, 0.0, 0.0, 0.0, 0.0, 1.636072810369945E9, 0.0, 2021-11-04 19:40:10.369
53.0, 938.0884556355886, 400.60499360365793, -82.82008451875299, 1078.8713796176016, -0.04800000227987766, 0.3040000144392252, 0.9760000463575125, 0.0, 0.0, 0.0, 0.0, 0.0, 1.6360728103706677E9, 0.0, 2021-11-04 19:40:10.370
53.0, 939.0683094239794, 411.93689046939835, -62.44136966019869, 1085.9510102337226, -0.04800000227987766, 0.3040000144392252, 0.9760000463575125, 0.0, 0.0, 0.0, 0.0, 0.0, 1.6360728103706677E9, 0.0, 2021-11-04 19:40:10.370
54.0, 929.1164356418885, 405.60149994445965, -62.48998835962266, 1085.2404292421415, -0.04800000227987766, 0.3040000144392252, 0.9760000463575125, 0.0, 0.0, 0.0, 0.0, 0.0, 1.6360728103714108E9, 0.0, 2021-11-04 19:40:10.371
54.0, 885.1800909624435, 386.6551667689346, -70.77760666143149, 1074.0955273741856, -0.04800000227987766, 0.3040000144392252, 0.9760000463575125, 0.0, 0.0, 0.0, 0.0, 0.0, 1.6360728103714108E9, 0.0, 2021-11-04 19:40:10.371
55.0, 903.9207296404056, 365.99221951374784, -84.69003449659795, 1056.9854850769043, -0.04800000227987766, 0.3040000144392252, 0.9760000463575125, 0.0, 0.0, 0.0, 0.0, 0.0, 1.6360728103835323E9, 0.0, 2021-11-04 19:40:10.383
55.0, 858.3500486803241, 329.30754084838554, -117.85920720361173, 1012.3834382053465, -0.04800000227987766, 0.3040000144392252, 0.9760000463575125, 0.0, 0.0, 0.0, 0.0, 0.0, 1.6360728103835323E9, 0.0, 2021-11-04 19:40:10.383
56.0, 826.5459394571371, 293.80093066906556, -154.24843377247453, 967.1156891416758, -0.04800000227987766, 0.3040000144392252, 0.9760000463575125, 0.0, 0.0, 0.0, 0.0, 0.0, 1.6360728103991818E9, 0.0, 2021-11-04 19:40:10.399
56.0, 788.219444711227, 257.5426005986519, -180.6371678598225, 932.8208065479994, -0.04800000227987766, 0.3040000144392252, 0.9760000463575125, 0.0, 0.0, 0.0, 0.0, 0.0, 1.6360728103991818E9, 0.0, 2021-11-04 19:40:10.399
57.0, 721.2415764047764, 213.88300851592794, -217.26948792580515, 884.2058470239863, -0.04800000227987766, 0.3040000144392252, 0.9760000463575125, 0.0, 0.0, 0.0, 0.0, 0.0, 1.6360728103999305E9, 0.0, 2021-11-04 19:40:10.399
57.0, 689.0111185866408, 173.23777579749003, -263.3562750797719, 846.8292868668213, -0.04800000227987766, 0.3040000144392252, 0.9760000463575125, 0.0, 0.0, 0.0, 0.0, 0.0, 1.6360728103999305E9, 0.0, 2021-11-04 19:40:10.399
58.0, 632.9238389511593, 140.17332028923556, -302.0418002214283, 811.7901641819626, -0.04800000227987766, 0.3040000144392252, 0.9760000463575125, 0.0, 0.0, 0.0, 0.0, 0.0, 1.636072810413564E9, 0.0, 2021-11-04 19:40:10.413
58.0, 616.0269709513523, 113.93792210007086, -330.5286181839183, 778.7967667728662, -0.04800000227987766, 0.3040000144392252, 0.9760000463575125, 0.0, 0.0, 0.0, 0.0, 0.0, 1.636072810413564E9, 0.0, 2021-11-04 19:40:10.413
59.0, 613.2631848840974, 81.43445158516988, -371.15141150262207, 753.9301719674841, -0.04800000227987766, 0.3040000144392252, 0.9760000463575125, 0.0, 0.0, 0.0, 0.0, 0.0, 1.636072810429183E9, 0.0, 2021-11-04 19:40:10.429
59.0, 585.1503569171764, 65.70443237153813, -361.756782813929, 740.9302797215059, -0.04800000227987766, 0.3040000144392252, 0.9760000463575125, 0.0, 0.0, 0.0, 0.0, 0.0, 1.636072810429183E9, 0.0, 2021-11-04 19:40:10.429
60.0, 525.5438314233907, 46.672081497032195, -357.9869636585936, 727.8331500766799, -0.04800000227987766, 0.3040000144392252, 0.9760000463575125, 0.0, 0.0, 0.0, 0.0, 0.0, 1.6360728104299755E9, 0.0, 2021-11-04 19:40:10.429
60.0, 521.8525501671247, 18.510634830687195, -376.9482564339414, 724.7739119129255, -0.04800000227987766, 0.3040000144392252, 0.9760000463575125, 0.0, 0.0, 0.0, 0.0, 0.0, 1.6360728104299755E9, 0.0, 2021-11-04 19:40:10.429
61.0, 501.57107270741835, -16.199376658070832, -414.85214248485863, 685.3890254795551, -0.04800000227987766, 0.288000013679266, 0.9760000463575125, 0.0, 0.0, 0.0, 0.0, 0.0, 1.6360728104435153E9, 0.0, 2021-11-04 19:40:10.443
61.0, 489.19574375404045, -43.070557839702815, -431.48721748776734, 673.559721919708, -0.04800000227987766, 0.288000013679266, 0.9760000463575125, 0.0, 0.0, 0.0, 0.0, 0.0, 1.6360728104435153E9, 0.0, 2021-11-04 19:40:10.443
62.0, 455.03923745872453, -67.53698334982619, -443.48481654562056, 657.1303414143622, -0.04800000227987766, 0.288000013679266, 0.9760000463575125, 0.0, 0.0, 0.0, 0.0, 0.0, 1.63607281045912E9, 0.0, 2021-11-04 19:40:10.459
62.0, 415.4673560275696, -71.28436310542747, -441.7008842667565, 647.4776596287265, -0.04800000227987766, 0.288000013679266, 0.9760000463575125, 0.0, 0.0, 0.0, 0.0, 0.0, 1.63607281045912E9, 0.0, 2021-11-04 19:40:10.459
63.0, 472.1679792557843, -78.33407452190295, -440.75468957796693, 643.2927115783095, -0.04800000227987766, 0.288000013679266, 0.9760000463575125, 0.0, 0.0, 0.0, 0.0, 0.0, 1.6360728104599013E9, 0.0, 2021-11-04 19:40:10.459
63.0, 430.94306204421446, -90.59720647661015, -446.4767365101725, 628.1610763575882, -0.04800000227987766, 0.288000013679266, 0.9760000463575125, 0.0, 0.0, 0.0, 0.0, 0.0, 1.6360728104599013E9, 0.0, 2021-11-04 19:40:10.459
64.0, 437.23731366964057, -90.15589828183874, -454.07995312009007, 629.2531271446496, -0.04800000227987766, 0.288000013679266, 0.9760000463575125, 0.0, 0.0, 0.0, 0.0, 0.0, 1.636072810489959E9, 0.0, 2021-11-04 19:40:10.489
64.0, 457.14854103373364, -92.69903025170788, -449.56589387357235, 633.9841005885974, -0.04800000227987766, 0.288000013679266, 0.9760000463575125, 0.0, 0.0, 0.0, 0.0, 0.0, 1.636072810489959E9, 0.0, 2021-11-04 19:40:10.489
65.0, 431.732180934865, -94.55028072977439, -445.6277792202309, 639.3994757244363, -0.04800000227987766, 0.288000013679266, 0.9760000463575125, 0.0, 0.0, 0.0, 0.0, 0.0, 1.6360728104906485E9, 0.0, 2021-11-04 19:40:10.490
65.0, 450.1175291170366, -90.61216607643291, -449.0572674795985, 633.770926291123, -0.04800000227987766, 0.288000013679266, 0.9760000463575125, 0.0, 0.0, 0.0, 0.0, 0.0, 1.6360728104906485E9, 0.0, 2021-11-04 19:40:10.490
66.0, 447.1929273516871, -102.34423223743215, -464.5105340965092, 620.4868016485125, -0.04800000227987766, 0.288000013679266, 0.9760000463575125, 0.0, 0.0, 0.0, 0.0, 0.0, 1.636072810491372E9, 0.0, 2021-11-04 19:40:10.491
66.0, 403.52585546905175, -89.77816838631406, -445.1378523260355, 626.691295675002, -0.04800000227987766, 0.288000013679266, 0.9760000463575125, 0.0, 0.0, 0.0, 0.0, 0.0, 1.636072810491372E9, 0.0, 2021-11-04 19:40:10.491
67.0, 473.510603339877, -78.37147352145985, -422.85178849007934, 644.6577750621364, -0.04800000227987766, 0.288000013679266, 0.9760000463575125, 0.0, 0.0, 0.0, 0.0, 0.0, 1.636072810503526E9, 0.0, 2021-11-04 19:40:10.503
67.0, 470.41022627661005, -69.91181982168928, -427.5678023342043, 653.5175980571657, -0.04800000227987766, 0.288000013679266, 0.9760000463575125, 0.0, 0.0, 0.0, 0.0, 0.0, 1.636072810503526E9, 0.0, 2021-11-04 19:40:10.503
68.0, 478.52206928050146, -49.71636006096378, -420.55175001733005, 665.2347046183422, -0.04800000227987766, 0.288000013679266, 0.9760000463575125, 0.0, 0.0, 0.0, 0.0, 0.0, 1.6360728105192144E9, 0.0, 2021-11-04 19:40:10.519
68.0, 489.90632474562153, -34.78667943784967, -398.2582063814625, 669.1728192716837, -0.04800000227987766, 0.288000013679266, 0.9760000463575125, 0.0, 0.0, 0.0, 0.0, 0.0, 1.6360728105192144E9, 0.0, 2021-11-04 19:40:10.519
69.0, 478.9110188758932, -15.836606362368912, -388.7775599937886, 690.3032540213317, -0.04800000227987766, 0.288000013679266, 0.9760000463575125, 0.0, 0.0, 0.0, 0.0, 0.0, 1.6360728105200796E9, 0.0, 2021-11-04 19:40:10.520
69.0, 531.4079945539124, -7.534028460737318, -393.32153843995184, 702.6037849755958, -0.04800000227987766, 0.288000013679266, 0.9760000463575125, 0.0, 0.0, 0.0, 0.0, 0.0, 1.6360728105200796E9, 0.0, 2021-11-04 19:40:10.520
70.0, 536.2661245963536, 1.9092189273796976, -381.75402787700295, 706.0893717342988, -0.04800000227987766, 0.288000013679266, 0.9760000463575125, 0.0, 0.0, 0.0, 0.0, 0.0, 1.636072810533595E9, 0.0, 2021-11-04 19:40:10.533
70.0, 520.3491103849374, 4.269095799420029, -382.3374522700906, 707.3085791198537, -0.04800000227987766, 0.288000013679266, 0.9760000463575125, 0.0, 0.0, 0.0, 0.0, 0.0, 1.636072810533595E9, 0.0, 2021-11-04 19:40:10.533
71.0, 561.8395604933612, 12.777368198614568, -384.68236954230815, 703.6846160627902, -0.04800000227987766, 0.3040000144392252, 0.9760000463575125, 0.0, 0.0, 0.0, 0.0, 0.0, 1.6360728105492194E9, 0.0, 2021-11-04 19:40:10.549
71.0, 524.0777906407602, 11.90223160898313, -381.5184141797945, 703.3517649667338, -0.04800000227987766, 0.3040000144392252, 0.9760000463575125, 0.0, 0.0, 0.0, 0.0, 0.0, 1.6360728105492194E9, 0.0, 2021-11-04 19:40:10.549
72.0, 517.4432081193663, 12.235082705039531, -384.82822564058006, 707.0168669233099, -0.04800000227987766, 0.3040000144392252, 0.9760000463575125, 0.0, 0.0, 0.0, 0.0, 0.0, 1.6360728105503783E9, 0.0, 2021-11-04 19:40:10.550
72.0, 541.3523885360919, 8.753235846292228, -387.3040394112468, 708.703561803326, -0.04800000227987766, 0.3040000144392252, 0.9760000463575125, 0.0, 0.0, 0.0, 0.0, 0.0, 1.6360728105503783E9, 0.0, 2021-11-04 19:40:10.550
73.0, 536.273604396265, 3.865186604205519, -386.57101901993155, 713.9244621414691, -0.04800000227987766, 0.3040000144392252, 0.9760000463575125, 0.0, 0.0, 0.0, 0.0, 0.0, 1.6360728105635731E9, 0.0, 2021-11-04 19:40:10.563
73.0, 525.2446394269355, -5.181631388608366, -399.54847186617553, 690.5014687189832, -0.04800000227987766, 0.3040000144392252, 0.9760000463575125, 0.0, 0.0, 0.0, 0.0, 0.0, 1.6360728105635731E9, 0.0, 2021-11-04 19:40:10.563
74.0, 514.0473789595999, -1.931658327113837, -423.652127080597, 686.499775766395, -0.04800000227987766, 0.3040000144392252, 0.9760000463575125, 0.0, 0.0, 0.0, 0.0, 0.0, 1.636072810594924E9, 0.0, 2021-11-04 19:40:10.594
74.0, 525.442854124587, -2.5524817197583616, -407.8173906682059, 689.2074633343145, -0.04800000227987766, 0.3040000144392252, 0.9760000463575125, 0.0, 0.0, 0.0, 0.0, 0.0, 1.636072810594924E9, 0.0, 2021-11-04 19:40:10.594
75.0, 529.4370672772638, -9.0599076426588, -395.25132681708783, 690.1012994237244, -0.04800000227987766, 0.3040000144392252, 0.9760000463575125, 0.0, 0.0, 0.0, 0.0, 0.0, 1.636072810595558E9, 0.0, 2021-11-04 19:40:10.595
75.0, 505.05665946612135, -34.75302033824846, -424.99101126473397, 676.1028538895771, -0.04800000227987766, 0.3040000144392252, 0.9760000463575125, 0.0, 0.0, 0.0, 0.0, 0.0, 1.636072810595558E9, 0.0, 2021-11-04 19:40:10.595
76.0, 475.717144313734, -46.249472802039236, -446.1700647138059, 661.1208146670833, -0.04800000227987766, 0.3040000144392252, 0.9760000463575125, 0.0, 0.0, 0.0, 0.0, 0.0, 1.6360728105964403E9, 0.0, 2021-11-04 19:40:10.596
76.0, 498.2201223471202, -46.675821396987885, -443.64189234375954, 660.7430847715586, -0.04800000227987766, 0.3040000144392252, 0.9760000463575125, 0.0, 0.0, 0.0, 0.0, 0.0, 1.6360728105964403E9, 0.0, 2021-11-04 19:40:10.596
77.0, 470.241930778604, -54.44359360495582, -456.08827939629555, 646.3332502422854, -0.04800000227987766, 0.3040000144392252, 0.9760000463575125, 0.0, 0.0, 0.0, 0.0, 0.0, 1.636072810608919E9, 0.0, 2021-11-04 19:40:10.608
77.0, 430.7448473465629, -57.73844546591863, -456.9671558858827, 653.442800058052, -0.04800000227987766, 0.3040000144392252, 0.9760000463575125, 0.0, 0.0, 0.0, 0.0, 0.0, 1.636072810608919E9, 0.0, 2021-11-04 19:40:10.608
78.0, 439.68694814061746, -62.91446700459346, -463.23148831166327, 641.5648777987808, -0.04800000227987766, 0.3040000144392252, 0.9760000463575125, 0.0, 0.0, 0.0, 0.0, 0.0, 1.6360728106241813E9, 0.0, 2021-11-04 19:40:10.624
78.0, 434.4922271021642, -74.36978056887165, -465.5203070845455, 632.5330194057897, -0.04800000227987766, 0.3040000144392252, 0.9760000463575125, 0.0, 0.0, 0.0, 0.0, 0.0, 1.6360728106241813E9, 0.0, 2021-11-04 19:40:10.624
79.0, 485.2800685004331, -83.01268936647102, -479.118583323434, 615.1836235113442, -0.04800000227987766, 0.3040000144392252, 0.9760000463575125, 0.0, 0.0, 0.0, 0.0, 0.0, 1.6360728106249151E9, 0.0, 2021-11-04 19:40:10.624
79.0, 479.576721068006, -92.74390905117616, -489.6763208983466, 605.2915881285444, -0.04800000227987766, 0.3040000144392252, 0.9760000463575125, 0.0, 0.0, 0.0, 0.0, 0.0, 1.6360728106249151E9, 0.0, 2021-11-04 19:40:10.624
80.0, 466.7189450203441, -86.16542502911761, -485.0126656536013, 602.9728501560166, -0.04800000227987766, 0.3040000144392252, 0.9760000463575125, 0.0, 0.0, 0.0, 0.0, 0.0, 1.6360728106391647E9, 0.0, 2021-11-04 19:40:10.639
80.0, 455.25989155611023, -99.0306808766909, -494.06696344632655, 584.1948124784976, -0.04800000227987766, 0.3040000144392252, 0.9760000463575125, 0.0, 0.0, 0.0, 0.0, 0.0, 1.6360728106391647E9, 0.0, 2021-11-04 19:40:10.639
81.0, 450.18484731623903, -104.6629702099599, -498.85029548965394, 580.8812611177564, -0.04800000227987766, 0.288000013679266, 0.9760000463575125, 0.0, 0.0, 0.0, 0.0, 0.0, 1.636072810639886E9, 0.0, 2021-11-04 19:40:10.639
81.0, 429.13295046566054, -107.48285477655008, -502.9791450407356, 571.3445162307471, -0.04800000227987766, 0.288000013679266, 0.9760000463575125, 0.0, 0.0, 0.0, 0.0, 0.0, 1.636072810639886E9, 0.0, 2021-11-04 19:40:10.639
82.0, 392.2724965023808, -105.83355889609084, -501.4644855586812, 575.8548355773091, -0.04800000227987766, 0.288000013679266, 0.9760000463575125, 0.0, 0.0, 0.0, 0.0, 0.0, 1.63607281065357E9, 0.0, 2021-11-04 19:40:10.653
82.0, 363.87169623887166, -112.61773741571233, -506.36375450063497, 572.7095797145739, -0.04800000227987766, 0.288000013679266, 0.9760000463575125, 0.0, 0.0, 0.0, 0.0, 0.0, 1.63607281065357E9, 0.0, 2021-11-04 19:40:10.653
83.0, 437.039098971989, -118.16774894995615, -506.55448939837515, 570.6264554392546, -0.04800000227987766, 0.288000013679266, 0.9760000463575125, 0.0, 0.0, 0.0, 0.0, 0.0, 1.636072810669202E9, 0.0, 2021-11-04 19:40:10.669
83.0, 413.7357823480852, -115.98738727578893, -501.5729426573962, 579.5423769336194, -0.04800000227987766, 0.288000013679266, 0.9760000463575125, 0.0, 0.0, 0.0, 0.0, 0.0, 1.636072810669202E9, 0.0, 2021-11-04 19:40:10.669
84.0, 411.41330447560176, -121.5560983098112, -506.1767595028505, 575.8697951771319, -0.04800000227987766, 0.288000013679266, 0.9760000463575125, 0.0, 0.0, 0.0, 0.0, 0.0, 1.636072810669932E9, 0.0, 2021-11-04 19:40:10.669
84.0, 448.2400993392803, -121.94878780515864, -510.1597529556602, 563.3747894251719, -0.04800000227987766, 0.288000013679266, 0.9760000463575125, 0.0, 0.0, 0.0, 0.0, 0.0, 1.636072810669932E9, 0.0, 2021-11-04 19:40:10.669
85.0, 412.1725041666068, -118.11539035057649, -498.95501268841326, 573.0237313108519, -0.04800000227987766, 0.288000013679266, 0.9760000463575125, 0.0, 0.0, 0.0, 0.0, 0.0, 1.6360728106834931E9, 0.0, 2021-11-04 19:40:10.683
85.0, 428.98709436738864, -101.76080784434453, -483.5989834703505, 572.7843777136877, -0.04800000227987766, 0.288000013679266, 0.9760000463575125, 0.0, 0.0, 0.0, 0.0, 0.0, 1.6360728106834931E9, 0.0, 2021-11-04 19:40:10.683
86.0, 453.28522437950596, -87.82968050939962, -478.31824473291636, 598.95245770365, -0.04800000227987766, 0.288000013679266, 0.9760000463575125, 0.0, 0.0, 0.0, 0.0, 0.0, 1.636072810714955E9, 0.0, 2021-11-04 19:40:10.714
86.0, 451.10486270533875, -68.4981376384385, -461.04738673754036, 616.7431617928669, -0.04800000227987766, 0.288000013679266, 0.9760000463575125, 0.0, 0.0, 0.0, 0.0, 0.0, 1.636072810714955E9, 0.0, 2021-11-04 19:40:10.714
87.0, 462.33204237231985, -52.21087333140895, -447.67350449599326, 625.8872171845287, -0.04800000227987766, 0.288000013679266, 0.9760000463575125, 0.0, 0.0, 0.0, 0.0, 0.0, 1.636072810715608E9, 0.0, 2021-11-04 19:40:10.715
87.0, 457.5225310293026, -47.63697568560019, -436.45380462892354, 638.1204299395904, -0.04800000227987766, 0.288000013679266, 0.9760000463575125, 0.0, 0.0, 0.0, 0.0, 0.0, 1.636072810715608E9, 0.0, 2021-11-04 19:40:10.715
88.0, 485.78121509449556, -30.261400491464883, -425.18548606242985, 639.2274403264746, -0.04800000227987766, 0.288000013679266, 0.9760000463575125, 0.0, 0.0, 0.0, 0.0, 0.0, 1.636072810716441E9, 0.0, 2021-11-04 19:40:10.716
88.0, 497.2140892590396, -7.724763358477503, -404.77685200423, 667.2542505944148, -0.04800000227987766, 0.288000013679266, 0.9760000463575125, 0.0, 0.0, 0.0, 0.0, 0.0, 1.636072810716441E9, 0.0, 2021-11-04 19:40:10.716
89.0, 533.31908343127, 1.370673333760351, -402.4917731313035, 668.5145968794823, -0.04800000227987766, 0.288000013679266, 0.9760000463575125, 0.0, 0.0, 0.0, 0.0, 0.0, 1.6360728107292838E9, 0.0, 2021-11-04 19:40:10.729
89.0, 549.7596836364828, 17.85989223839715, -378.2160825189203, 695.4306568605825, -0.04800000227987766, 0.288000013679266, 0.9760000463575125, 0.0, 0.0, 0.0, 0.0, 0.0, 1.6360728107292838E9, 0.0, 2021-11-04 19:40:10.729
90.0, 537.552650181111, 28.33535201428458, -371.67499749641865, 703.6733963629231, -0.04800000227987766, 0.288000013679266, 0.9760000463575125, 0.0, 0.0, 0.0, 0.0, 0.0, 1.6360728107300181E9, 0.0, 2021-11-04 19:40:10.730
90.0, 525.6448087221943, 40.35913037182763, -362.2018309086561, 701.6014917874709, -0.04800000227987766, 0.288000013679266, 0.9760000463575125, 0.0, 0.0, 0.0, 0.0, 0.0, 1.6360728107300181E9, 0.0, 2021-11-04 19:40:10.730
91.0, 553.7164977896027, 53.68439391395077, -351.52067663520575, 720.2448930665851, -0.04800000227987766, 0.288000013679266, 0.9760000463575125, 0.0, 0.0, 0.0, 0.0, 0.0, 1.6360728107434762E9, 0.0, 2021-11-04 19:40:10.743
91.0, 560.8148279055022, 59.933766739908606, -335.10999562963843, 730.2042466485873, -0.04800000227987766, 0.288000013679266, 0.9760000463575125, 0.0, 0.0, 0.0, 0.0, 0.0, 1.6360728107434762E9, 0.0, 2021-11-04 19:40:10.743
92.0, 588.9276558724232, 66.50477096205577, -326.8186374278739, 740.1748199304566, -0.04800000227987766, 0.288000013679266, 0.9760000463575125, 0.0, 0.0, 0.0, 0.0, 0.0, 1.6360728107592237E9, 0.0, 2021-11-04 19:40:10.759
92.0, 583.744154533837, 70.97021150914952, -326.9719733260572, 726.8757356880233, -0.04800000227987766, 0.288000013679266, 0.9760000463575125, 0.0, 0.0, 0.0, 0.0, 0.0, 1.6360728107592237E9, 0.0, 2021-11-04 19:40:10.759
93.0, 550.2720499304123, 81.14273938862607, -320.61040350142866, 744.969371673651, -0.04800000227987766, 0.288000013679266, 0.9760000463575125, 0.0, 0.0, 0.0, 0.0, 0.0, 1.6360728107599704E9, 0.0, 2021-11-04 19:40:10.759
93.0, 615.8399759535678, 94.2473488333635, -307.19538236036897, 755.1830384526402, -0.04800000227987766, 0.288000013679266, 0.9760000463575125, 0.0, 0.0, 0.0, 0.0, 0.0, 1.6360728107599704E9, 0.0, 2021-11-04 19:40:10.759
94.0, 592.813411926385, 95.36931882007048, -316.68350854795426, 753.4589445730671, -0.04800000227987766, 0.288000013679266, 0.9760000463575125, 0.0, 0.0, 0.0, 0.0, 0.0, 1.636072810773527E9, 0.0, 2021-11-04 19:40:10.773
94.0, 624.3258089530282, 90.46630997816101, -305.27307378314435, 771.1187521638349, -0.04800000227987766, 0.288000013679266, 0.9760000463575125, 0.0, 0.0, 0.0, 0.0, 0.0, 1.636072810773527E9, 0.0, 2021-11-04 19:40:10.773
95.0, 585.2700337157585, 86.28884172765538, -303.79207340069115, 769.3161203851923, -0.04800000227987766, 0.288000013679266, 0.9760000463575125, 0.0, 0.0, 0.0, 0.0, 0.0, 1.6360728107891445E9, 0.0, 2021-11-04 19:40:10.789
95.0, 627.306509217713, 106.87699098372832, -298.26450126618147, 753.6085405712947, -0.04800000227987766, 0.288000013679266, 0.9760000463575125, 0.0, 0.0, 0.0, 0.0, 0.0, 1.6360728107891445E9, 0.0, 2021-11-04 19:40:10.789
96.0, 639.8276942693628, 103.01367432950065, -319.7838856112212, 743.3350353930146, -0.04800000227987766, 0.288000013679266, 0.9760000463575125, 0.0, 0.0, 0.0, 0.0, 0.0, 1.6360728107900019E9, 0.0, 2021-11-04 19:40:10.790
96.0, 621.4535657870583, 96.25567510956898, -319.7913654111326, 757.8121881214902, -0.04800000227987766, 0.288000013679266, 0.9760000463575125, 0.0, 0.0, 0.0, 0.0, 0.0, 1.6360728107900019E9, 0.0, 2021-11-04 19:40:10.790
97.0, 608.468633140903, 97.63943809317425, -311.8889568047598, 757.7112108226866, -0.04800000227987766, 0.288000013679266, 0.9760000463575125, 0.0, 0.0, 0.0, 0.0, 0.0, 1.63607281081994E9, 0.0, 2021-11-04 19:40:10.819
97.0, 598.928148353938, 99.52060777088627, -314.4769675740972, 747.8154355399311, -0.04800000227987766, 0.288000013679266, 0.9760000463575125, 0.0, 0.0, 0.0, 0.0, 0.0, 1.63607281081994E9, 0.0, 2021-11-04 19:40:10.819
98.0, 594.1074173110537, 94.50166203035042, -315.54283906146884, 744.4233462801203, -0.04800000227987766, 0.288000013679266, 0.9760000463575125, 0.0, 0.0, 0.0, 0.0, 0.0, 1.6360728108206952E9, 0.0, 2021-11-04 19:40:10.820
98.0, 598.1165900635533, 94.75223532738164, -314.7013615714386, 749.3824536213651, -0.04800000227987766, 0.288000013679266, 0.9760000463575125, 0.0, 0.0, 0.0, 0.0, 0.0, 1.6360728108206952E9, 0.0, 2021-11-04 19:40:10.820
99.0, 563.844146869611, 89.33312029158697, -321.64635578915477, 751.8133885925636, -0.04800000227987766, 0.288000013679266, 0.9760000463575125, 0.0, 0.0, 0.0, 0.0, 0.0, 1.6360728108214092E9, 0.0, 2021-11-04 19:40:10.821
99.0, 582.1546970526688, 82.70975747006014, -330.2294261874631, 742.28038360551, -0.04800000227987766, 0.288000013679266, 0.9760000463575125, 0.0, 0.0, 0.0, 0.0, 0.0, 1.6360728108214092E9, 0.0, 2021-11-04 19:40:10.821
100.0, 589.42506256653, 79.52336270781234, -336.2319656163454, 744.378467480652, -0.04800000227987766, 0.288000013679266, 0.9760000463575125, 0.0, 0.0, 0.0, 0.0, 0.0, 1.636072810849962E9, 0.0, 2021-11-04 19:40:10.849
100.0, 603.3599298014306, 76.62120034219697, -344.07079592347145, 748.6569130299613, -0.04800000227987766, 0.288000013679266, 0.9760000463575125, 0.0, 0.0, 0.0, 0.0, 0.0, 1.636072810849962E9, 0.0, 2021-11-04 19:40:10.849
0.0, 568.4872326646, 69.70986522408202, -354.0525889052078, 719.7811454720795, -0.04800000227987766, 0.288000013679266, 0.9760000463575125, 0.0, 0.0, 0.0, 0.0, 0.0, 1.6360728108506176E9, 0.0, 2021-11-04 19:40:10.850
1.0, 507.496944187209, 63.89432079298422, -358.585347651504, 701.1190446931869, -0.04800000227987766, 0.288000013679266, 0.9760000463575125, 0.0, 0.0, 0.0, 0.0, 0.0, 1.6360728108514037E9, 0.0, 2021-11-04 19:40:10.851
1.0, 576.8384292656556, 53.68813381390646, -352.18637882731855, 728.0463243741542, -0.04800000227987766, 0.288000013679266, 0.9760000463575125, 0.0, 0.0, 0.0, 0.0, 0.0, 1.6360728108514037E9, 0.0, 2021-11-04 19:40:10.851
2.0, 587.6841391371563, 45.32197761302814, -373.45144997537136, 697.2893871385604, -0.04800000227987766, 0.288000013679266, 0.9760000463575125, 0.0, 0.0, 0.0, 0.0, 0.0, 1.6360728108642292E9, 0.0, 2021-11-04 19:40:10.864
2.0, 567.0922499811277, 40.96125426469371, -392.35290435142815, 688.8072940390557, -0.04800000227987766, 0.288000013679266, 0.9760000463575125, 0.0, 0.0, 0.0, 0.0, 0.0, 1.6360728108642292E9, 0.0, 2021-11-04 19:40:10.864
3.0, 493.58825625199825, 34.610904139932245, -388.82991859316826, 673.2306107236072, -0.04800000227987766, 0.288000013679266, 0.9760000463575125, 0.0, 0.0, 0.0, 0.0, 0.0, 1.6360728108649025E9, 0.0, 2021-11-04 19:40:10.864
3.0, 546.2984062274918, 39.016506287734956, -395.068071719259, 695.2885406622663, -0.04800000227987766, 0.288000013679266, 0.9760000463575125, 0.0, 0.0, 0.0, 0.0, 0.0, 1.6360728108649025E9, 0.0, 2021-11-04 19:40:10.864
4.0, 499.62445478048176, 22.052320088725537, -416.91656726039946, 671.4915572442114, -0.04800000227987766, 0.288000013679266, 0.9760000463575125, 0.0, 0.0, 0.0, 0.0, 0.0, 1.6360728108784995E9, 0.0, 2021-11-04 19:40:10.878
4.0, 548.4750280017033, 6.744909570086747, -430.0997146042064, 656.4908185219392, -0.04800000227987766, 0.288000013679266, 0.9760000463575125, 0.0, 0.0, 0.0, 0.0, 0.0, 1.6360728108784995E9, 0.0, 2021-11-04 19:40:10.878
5.0, 566.3928886894137, 10.398791826795787, -429.4190528122708, 640.2222537146881, -0.04800000227987766, 0.288000013679266, 0.9760000463575125, 0.0, 0.0, 0.0, 0.0, 0.0, 1.6360728108942473E9, 0.0, 2021-11-04 19:40:10.894
5.0, 572.0438775224611, 11.236529416870326, -416.8193298615515, 640.525185611099, -0.04800000227987766, 0.288000013679266, 0.9760000463575125, 0.0, 0.0, 0.0, 0.0, 0.0, 1.6360728108942473E9, 0.0, 2021-11-04 19:40:10.894
6.0, 543.534620160237, 7.85565985692665, -431.3899800889194, 657.5716496091336, -0.04800000227987766, 0.288000013679266, 0.9760000463575125, 0.0, 0.0, 0.0, 0.0, 0.0, 1.6360728108952446E9, 0.0, 2021-11-04 19:40:10.895
6.0, 448.870272481814, -11.05701421899721, -459.5065479557961, 645.2000605557114, -0.04800000227987766, 0.288000013679266, 0.9760000463575125, 0.0, 0.0, 0.0, 0.0, 0.0, 1.6360728108952446E9, 0.0, 2021-11-04 19:40:10.895
7.0, 460.7481947410852, 3.6520123067311943, -421.18753300979733, 640.8916958067566, -0.04800000227987766, 0.288000013679266, 0.9760000463575125, 0.0, 0.0, 0.0, 0.0, 0.0, 1.6360728109085033E9, 0.0, 2021-11-04 19:40:10.908
7.0, 487.6006764229387, 8.540061548817903, -417.6383679518476, 635.0798912756145, -0.04800000227987766, 0.288000013679266, 0.9760000463575125, 0.0, 0.0, 0.0, 0.0, 0.0, 1.6360728109085033E9, 0.0, 2021-11-04 19:40:10.908
8.0, 558.5877174818888, 1.0752212372608483, -426.55054954625666, 633.022946299985, -0.04800000227987766, 0.288000013679266, 0.9760000463575125, 0.0, 0.0, 0.0, 0.0, 0.0, 1.6360728109242156E9, 0.0, 2021-11-04 19:40:10.924
8.0, 551.4931272659451, -25.59400534676388, -429.07872191630304, 609.3755588801578, -0.04800000227987766, 0.288000013679266, 0.9760000463575125, 0.0, 0.0, 0.0, 0.0, 0.0, 1.6360728109242156E9, 0.0, 2021-11-04 19:40:10.924
9.0, 500.5669095693156, -12.238822604995221, -461.64203083049506, 624.4548355014995, -0.04800000227987766, 0.288000013679266, 0.9760000463575125, 0.0, 0.0, 0.0, 0.0, 0.0, 1.6360728109254787E9, 0.0, 2021-11-04 19:40:10.925
9.0, 503.6186679331586, 2.4028857215307653, -430.3054091017693, 595.6538659427315, -0.04800000227987766, 0.288000013679266, 0.9760000463575125, 0.0, 0.0, 0.0, 0.0, 0.0, 1.6360728109254787E9, 0.0, 2021-11-04 19:40:10.925
10.0, 452.82708663493395, 9.594713336322457, -416.18728676903993, 596.2672095354646, -0.04800000227987766, 0.288000013679266, 0.9760000463575125, 0.0, 0.0, 0.0, 0.0, 0.0, 1.6360728109384968E9, 0.0, 2021-11-04 19:40:10.938
10.0, 447.00780230388045, 33.855444348882884, -381.82882587611675, 621.7396681336686, -0.04800000227987766, 0.288000013679266, 0.9760000463575125, 0.0, 0.0, 0.0, 0.0, 0.0, 1.6360728109384968E9, 0.0, 2021-11-04 19:40:10.938
11.0, 408.21755996346474, 26.487841436173767, -363.5369751928374, 623.1383907170966, -0.04800000227987766, 0.288000013679266, 0.9760000463575125, 0.0, 0.0, 0.0, 0.0, 0.0, 1.6360728109541855E9, 0.0, 2021-11-04 19:40:10.954
11.0, 478.2584063336253, 24.872204655315727, -365.9118116647005, 597.8454473167658, -0.04800000227987766, 0.288000013679266, 0.9760000463575125, 0.0, 0.0, 0.0, 0.0, 0.0, 1.6360728109541855E9, 0.0, 2021-11-04 19:40:10.954
12.0, 493.62939515151083, 35.373843730892986, -343.7229852275923, 579.0636697392911, -0.04800000227987766, 0.288000013679266, 0.9760000463575125, 0.0, 0.0, 0.0, 0.0, 0.0, 1.6360728109549792E9, 0.0, 2021-11-04 19:40:10.954
12.0, 477.49920664262027, 41.72045395569876, -331.25789867527783, 586.517290350981, -0.04800000227987766, 0.288000013679266, 0.9760000463575125, 0.0, 0.0, 0.0, 0.0, 0.0, 1.6360728109549792E9, 0.0, 2021-11-04 19:40:10.954
13.0, 456.8100800877437, 62.828449305612594, -254.17856058850884, 558.393242684193, -0.04800000227987766, 0.288000013679266, 0.9760000463575125, 0.0, 0.0, 0.0, 0.0, 0.0, 1.6360728109684658E9, 0.0, 2021-11-04 19:40:10.968
13.0, 469.31630553957075, 79.80759510444477, -255.36410887446254, 542.7679406693205, -0.04800000227987766, 0.288000013679266, 0.9760000463575125, 0.0, 0.0, 0.0, 0.0, 0.0, 1.6360728109684658E9, 0.0, 2021-11-04 19:40:10.968
14.0, 444.0607611387968, 74.16034617135301, -255.05369717814028, 544.4359360495582, -0.04800000227987766, 0.288000013679266, 0.9760000463575125, 0.0, 0.0, 0.0, 0.0, 0.0, 1.6360728109849272E9, 0.0, 2021-11-04 19:40:10.984
14.0, 385.3742510341108, 76.89421303896233, -282.3175678551197, 536.0249010492116, -0.04800000227987766, 0.288000013679266, 0.9760000463575125, 0.0, 0.0, 0.0, 0.0, 0.0, 1.6360728109849272E9, 0.0, 2021-11-04 19:40:10.984
15.0, 429.718244808726, 71.35542120458558, -274.2356440508738, 541.0550664896145, -0.04800000227987766, 0.288000013679266, 0.9760000463575125, 0.0, 0.0, 0.0, 0.0, 0.0, 1.6360728109854307E9, 0.0, 2021-11-04 19:40:10.985
15.0, 483.9804532658309, 97.19438999844715, -228.61634439136833, 553.4528348427266, -0.04800000227987766, 0.288000013679266, 0.9760000463575125, 0.0, 0.0, 0.0, 0.0, 0.0, 1.6360728109854307E9, 0.0, 2021-11-04 19:40:10.985
16.0, 450.78510125912726, 102.97253542998806, -219.92855679430068, 566.5125654879957, -0.04800000227987766, 0.288000013679266, 0.9760000463575125, 0.0, 0.0, 0.0, 0.0, 0.0, 1.636072810998443E9, 0.0, 2021-11-04 19:40:10.998
16.0, 433.55164226330817, 91.08713337080553, -225.8862174237147, 586.4050933523104, -0.04800000227987766, 0.288000013679266, 0.9760000463575125, 0.0, 0.0, 0.0, 0.0, 0.0, 1.636072810998443E9, 0.0, 2021-11-04 19:40:10.998
17.0, 406.84501667972654, 119.57769123325124, -203.1700650928542, 575.241491984576, -0.04800000227987766, 0.288000013679266, 0.9760000463575125, 0.0, 0.0, 0.0, 0.0, 0.0, 1.6360728110143137E9, 0.0, 2021-11-04 19:40:11.014
17.0, 446.181284413673, 124.39468237617984, -221.38337787706405, 592.2729963827878, -0.04800000227987766, 0.288000013679266, 0.9760000463575125, 0.0, 0.0, 0.0, 0.0, 0.0, 1.6360728110143137E9, 0.0, 2021-11-04 19:40:11.014
18.0, 422.13746759854257, 97.38138499623165, -231.5521658565849, 588.929525822401, -0.04800000227987766, 0.288000013679266, 0.9760000463575125, 0.0, 0.0, 0.0, 0.0, 0.0, 1.6360728110151E9, 0.0, 2021-11-04 19:40:11.015
18.0, 474.09963758289814, 94.84947272622958, -239.45831436291337, 590.3245085058734, -0.04800000227987766, 0.288000013679266, 0.9760000463575125, 0.0, 0.0, 0.0, 0.0, 0.0, 1.6360728110151E9, 0.0, 2021-11-04 19:40:11.015
19.0, 362.2541895080358, 78.4275720207952, -294.2067098142579, 511.6557129379362, -0.04800000227987766, 0.288000013679266, 0.9760000463575125, 0.0, 0.0, 0.0, 0.0, 0.0, 1.636072811028528E9, 0.0, 2021-11-04 19:40:11.028
19.0, 435.773142836988, 60.51719113299623, -297.48660207539797, 517.6470326669514, -0.04800000227987766, 0.288000013679266, 0.9760000463575125, 0.0, 0.0, 0.0, 0.0, 0.0, 1.636072811028528E9, 0.0, 2021-11-04 19:40:11.028
20.0, 472.0052936077118, 44.323424324858934, -277.4631777126342, 528.1037929430604, -0.04800000227987766, 0.288000013679266, 0.9760000463575125, 0.0, 0.0, 0.0, 0.0, 0.0, 1.6360728110442047E9, 0.0, 2021-11-04 19:40:11.044
20.0, 401.6428158413619, 33.50763365300372, -301.0731661329046, 527.0005224561319, -0.04800000227987766, 0.288000013679266, 0.9760000463575125, 0.0, 0.0, 0.0, 0.0, 0.0, 1.6360728110442047E9, 0.0, 2021-11-04 19:40:11.044
21.0, 399.1109035713598, 14.243408981245011, -300.815113035962, 547.1062246179208, -0.04800000227987766, 0.3040000144392252, 0.9760000463575125, 0.0, 0.0, 0.0, 0.0, 0.0, 1.6360728110448806E9, 0.0, 2021-11-04 19:40:11.044
21.0, 366.6149128563702, -17.665417440701276, -309.4168829340488, 551.2350741690025, -0.04800000227987766, 0.3040000144392252, 0.9760000463575125, 0.0, 0.0, 0.0, 0.0, 0.0, 1.6360728110448806E9, 0.0, 2021-11-04 19:40:11.044
22.0, 261.6359211001545, -62.66389370756224, -323.10491677187383, 512.4336121287197, -0.04800000227987766, 0.3040000144392252, 0.9760000463575125, 0.0, 0.0, 0.0, 0.0, 0.0, 1.636072811074892E9, 0.0, 2021-11-04 19:40:11.074
22.0, 387.5882718078792, -127.66709483740851, -347.6386604811996, 521.1550588253886, -0.04800000227987766, 0.3040000144392252, 0.9760000463575125, 0.0, 0.0, 0.0, 0.0, 0.0, 1.636072811074892E9, 0.0, 2021-11-04 19:40:11.074
23.0, 352.15271972771734, -150.52162346662953, -388.2577138999477, 508.18882567901164, -0.04800000227987766, 0.3040000144392252, 0.9760000463575125, 0.0, 0.0, 0.0, 0.0, 0.0, 1.6360728110755205E9, 0.0, 2021-11-04 19:40:11.075
23.0, 375.2466019541025, -159.26924946298823, -390.292219475843, 453.8368596229702, -0.04800000227987766, 0.3040000144392252, 0.9760000463575125, 0.0, 0.0, 0.0, 0.0, 0.0, 1.6360728110755205E9, 0.0, 2021-11-04 19:40:11.075
24.0, 328.4529737085104, -195.86791042936966, -383.5192606560886, 472.72335439920425, -0.04800000227987766, 0.3040000144392252, 0.9760000463575125, 0.0, 0.0, 0.0, 0.0, 0.0, 1.6360728110762875E9, 0.0, 2021-11-04 19:40:11.076
24.0, 293.44751012325287, -223.93211969686672, -399.61952996533364, 425.750210955739, -0.04800000227987766, 0.3040000144392252, 0.9760000463575125, 0.0, 0.0, 0.0, 0.0, 0.0, 1.6360728110762875E9, 0.0, 2021-11-04 19:40:11.076
25.0, 253.4156209975481, -225.5701958774589, -429.235797714442, 454.334266317077, -0.04800000227987766, 0.3040000144392252, 0.9760000463575125, 0.0, 0.0, 0.0, 0.0, 0.0, 1.636072811088512E9, 0.0, 2021-11-04 19:40:11.088
25.0, 267.39910693187267, -236.52436284767464, -514.0754282092676, 437.11950682103634, -0.04800000227987766, 0.3040000144392252, 0.9760000463575125, 0.0, 0.0, 0.0, 0.0, 0.0, 1.636072811088512E9, 0.0, 2021-11-04 19:40:11.088
26.0, 309.9554285276681, -246.96990342391655, -597.4864169210196, 398.2656861813739, -0.04800000227987766, 0.3040000144392252, 0.9760000463575125, 0.0, 0.0, 0.0, 0.0, 0.0, 1.636072811120284E9, 0.0, 2021-11-04 19:40:11.120
26.0, 216.9590762294829, -253.0622004517354, -633.1538427984342, 383.53048035595566, -0.04800000227987766, 0.3040000144392252, 0.9760000463575125, 0.0, 0.0, 0.0, 0.0, 0.0, 1.636072811120284E9, 0.0, 2021-11-04 19:40:11.120
27.0, 202.86713319644332, -232.92283919034526, -653.8205299535766, 401.0780909480527, -0.04800000227987766, 0.3040000144392252, 0.9760000463575125, 0.0, 0.0, 0.0, 0.0, 0.0, 1.6360728111210341E9, 0.0, 2021-11-04 19:40:11.121
27.0, 217.81925321929157, -259.82393957162276, -687.995735748671, 382.19907597173005, -0.04800000227987766, 0.3040000144392252, 0.9760000463575125, 0.0, 0.0, 0.0, 0.0, 0.0, 1.6360728111210341E9, 0.0, 2021-11-04 19:40:11.121
28.0, 350.96343154180795, -231.32590190926567, -671.7309108413756, 429.127340615727, -0.04800000227987766, 0.3040000144392252, 0.9760000463575125, 0.0, 0.0, 0.0, 0.0, 0.0, 1.6360728111497207E9, 0.0, 2021-11-04 19:40:11.149
28.0, 311.65334310755134, -173.93713708920404, -646.0901567451656, 494.8261631373316, -0.04800000227987766, 0.3040000144392252, 0.9760000463575125, 0.0, 0.0, 0.0, 0.0, 0.0, 1.6360728111497207E9, 0.0, 2021-11-04 19:40:11.149
29.0, 455.0747665083036, -111.56308562820777, -600.5531348846853, 501.1204147627577, -0.04800000227987766, 0.3040000144392252, 0.9760000463575125, 0.0, 0.0, 0.0, 0.0, 0.0, 1.6360728111503644E9, 0.0, 2021-11-04 19:40:11.150
29.0, 445.807294418104, -51.85558283561841, -527.2024770537391, 576.0119113754481, -0.04800000227987766, 0.3040000144392252, 0.9760000463575125, 0.0, 0.0, 0.0, 0.0, 0.0, 1.6360728111503644E9, 0.0, 2021-11-04 19:40:11.150
30.0, 450.11939906701446, -25.94929584255442, -558.3969825841486, 543.6954358583316, -0.04800000227987766, 0.3040000144392252, 0.9760000463575125, 0.0, 0.0, 0.0, 0.0, 0.0, 1.6360728111656027E9, 0.0, 2021-11-04 19:40:11.165
30.0, 487.3837622255087, -13.323393592145294, -567.522338476032, 562.4285947363824, -0.04800000227987766, 0.3040000144392252, 0.9760000463575125, 0.0, 0.0, 0.0, 0.0, 0.0, 1.6360728111656027E9, 0.0, 2021-11-04 19:40:11.165
31.0, 487.4174213251099, -7.698584058787674, -572.6759206149727, 552.6936351517215, -0.04800000227987766, 0.288000013679266, 0.9760000463575125, 0.0, 0.0, 0.0, 0.0, 0.0, 1.636072811166371E9, 0.0, 2021-11-04 19:40:11.166
31.0, 445.90453181695193, -33.1074643577449, -599.591980596073, 516.7157975779846, -0.04800000227987766, 0.288000013679266, 0.9760000463575125, 0.0, 0.0, 0.0, 0.0, 0.0, 1.636072811166371E9, 0.0, 2021-11-04 19:40:11.166
32.0, 434.0303494576365, -40.93507496500388, -580.9373596170917, 485.69706734549254, -0.06400000303983688, 0.288000013679266, 0.9760000463575125, 0.0, 0.0, 0.0, 0.0, 0.0, 1.6360728111671357E9, 0.0, 2021-11-04 19:40:11.167
32.0, 411.6470482228324, -55.68524039024487, -579.5573365334421, 466.60487807169557, -0.06400000303983688, 0.288000013679266, 0.9760000463575125, 0.0, 0.0, 0.0, 0.0, 0.0, 1.6360728111671357E9, 0.0, 2021-11-04 19:40:11.167
33.0, 463.8410920044407, -42.98828004067764, -557.922015289776, 456.42861029226333, -0.06400000303983688, 0.288000013679266, 0.9760000463575125, 0.0, 0.0, 0.0, 0.0, 0.0, 1.6360728111678762E9, 0.0, 2021-11-04 19:40:11.167
33.0, 378.37689821701497, -45.98393990518525, -563.554304623045, 466.12243097741157, -0.06400000303983688, 0.288000013679266, 0.9760000463575125, 0.0, 0.0, 0.0, 0.0, 0.0, 1.6360728111678762E9, 0.0, 2021-11-04 19:40:11.167
34.0, 433.82091506011784, -80.37231999775395, -596.0128963384777, 434.60255415085703, -0.06400000303983688, 0.288000013679266, 0.9760000463575125, 0.0, 0.0, 0.0, 0.0, 0.0, 1.636072811178511E9, 0.0, 2021-11-04 19:40:11.178
34.0, 364.71130377892405, -155.3872333089821, -627.4579751659185, 356.2703495789319, -0.06400000303983688, 0.288000013679266, 0.9760000463575125, 0.0, 0.0, 0.0, 0.0, 0.0, 1.636072811178511E9, 0.0, 2021-11-04 19:40:11.178
35.0, 276.2701496267691, -210.91352795111015, -636.448694659397, 271.84958787914366, -0.06400000303983688, 0.288000013679266, 0.9760000463575125, 0.0, 0.0, 0.0, 0.0, 0.0, 1.636072811194285E9, 0.0, 2021-11-04 19:40:11.194
35.0, 295.2800611015409, -221.99485151981935, -628.9202760485932, 267.0849553355947, -0.06400000303983688, 0.288000013679266, 0.9760000463575125, 0.0, 0.0, 0.0, 0.0, 0.0, 1.636072811194285E9, 0.0, 2021-11-04 19:40:11.194
36.0, 324.152088759467, -218.7523582582362, -629.3802837431431, 263.85368177387863, -0.06400000303983688, 0.288000013679266, 0.9760000463575125, 0.0, 0.0, 0.0, 0.0, 0.0, 1.6360728111949778E9, 0.0, 2021-11-04 19:40:11.194
36.0, 326.46334693208337, -244.94287764793262, -642.3764360891655, 222.07525936886668, -0.06400000303983688, 0.288000013679266, 0.9760000463575125, 0.0, 0.0, 0.0, 0.0, 0.0, 1.6360728111949778E9, 0.0, 2021-11-04 19:40:11.194
37.0, 290.8856786536053, -235.5370292593725, -635.8802298661321, 285.18981102108955, -0.06400000303983688, 0.288000013679266, 0.9760000463575125, 0.0, 0.0, 0.0, 0.0, 0.0, 1.636072811208567E9, 0.0, 2021-11-04 19:40:11.208
37.0, 267.14853363484144, -238.26341632707044, -607.4719498027116, 278.2448168033734, -0.06400000303983688, 0.288000013679266, 0.9760000463575125, 0.0, 0.0, 0.0, 0.0, 0.0, 1.636072811208567E9, 0.0, 2021-11-04 19:40:11.208
38.0, 341.18733305763453, -242.07437438191846, -623.4188832137734, 237.68934168387204, -0.06400000303983688, 0.288000013679266, 0.9760000463575125, 0.0, 0.0, 0.0, 0.0, 0.0, 1.6360728112242053E9, 0.0, 2021-11-04 19:40:11.224
38.0, 270.1628929991275, -231.84948790306225, -604.6184061365202, 251.55689071957022, -0.06400000303983688, 0.288000013679266, 0.9760000463575125, 0.0, 0.0, 0.0, 0.0, 0.0, 1.6360728112242053E9, 0.0, 2021-11-04 19:40:11.224
39.0, 301.9632623223588, -226.29199656890705, -563.169094927609, 251.39607502147555, -0.06400000303983688, 0.288000013679266, 0.9760000463575125, 0.0, 0.0, 0.0, 0.0, 0.0, 1.636072811224942E9, 0.0, 2021-11-04 19:40:11.224
39.0, 301.16666363179684, -225.11392808286473, -503.4279330354184, 263.9322196729481, -0.06400000303983688, 0.288000013679266, 0.9760000463575125, 0.0, 0.0, 0.0, 0.0, 0.0, 1.636072811224942E9, 0.0, 2021-11-04 19:40:11.224
40.0, 353.7272176090628, -227.88893384998664, -488.4271943131462, 255.599722571671, -0.06400000303983688, 0.288000013679266, 0.9760000463575125, 0.0, 0.0, 0.0, 0.0, 0.0, 1.6360728112549403E9, 0.0, 2021-11-04 19:40:11.254
40.0, 387.229241412133, -215.16953410068527, -468.87873724475503, 288.3612461835146, -0.06400000303983688, 0.288000013679266, 0.9760000463575125, 0.0, 0.0, 0.0, 0.0, 0.0, 1.6360728112549403E9, 0.0, 2021-11-04 19:40:11.254
41.0, 402.42445493210107, -168.96307014813647, -425.1555668627843, 365.34708677139133, -0.06400000303983688, 0.288000013679266, 0.9760000463575125, 0.0, 0.0, 0.0, 0.0, 0.0, 1.636072811255636E9, 0.0, 2021-11-04 19:40:11.255
41.0, 508.0579291805625, -97.74789519188926, -419.0109112355858, 527.8868787456304, -0.06400000303983688, 0.288000013679266, 0.9760000463575125, 0.0, 0.0, 0.0, 0.0, 0.0, 1.636072811255636E9, 0.0, 2021-11-04 19:40:11.255
42.0, 628.018960159272, -47.539738286752254, -421.7260786034167, 597.8155281171203, -0.06400000303983688, 0.288000013679266, 0.9760000463575125, 0.0, 0.0, 0.0, 0.0, 0.0, 1.6360728112564037E9, 0.0, 2021-11-04 19:40:11.256
42.0, 651.898221376352, 16.981015748810023, -436.12095353286713, 671.4204991450533, -0.06400000303983688, 0.288000013679266, 0.9760000463575125, 0.0, 0.0, 0.0, 0.0, 0.0, 1.6360728112564037E9, 0.0, 2021-11-04 19:40:11.256
43.0, 629.3989832429215, 86.86104642087594, -435.78810243681073, 753.8965128678828, -0.06400000303983688, 0.288000013679266, 0.9760000463575125, 0.0, 0.0, 0.0, 0.0, 0.0, 1.6360728112685518E9, 0.0, 2021-11-04 19:40:11.268
43.0, 645.0878635570407, 146.9014003095217, -406.4972059838474, 779.9636155590415, -0.06400000303983688, 0.288000013679266, 0.9760000463575125, 0.0, 0.0, 0.0, 0.0, 0.0, 1.6360728112685518E9, 0.0, 2021-11-04 19:40:11.268
44.0, 655.1855934374034, 151.29952265741304, -471.4143894147128, 774.5332808233798, -0.06400000303983688, 0.288000013679266, 0.9760000463575125, 0.0, 0.0, 0.0, 0.0, 0.0, 1.636072811284258E9, 0.0, 2021-11-04 19:40:11.284
44.0, 684.4989292901009, 141.39626757474616, -558.0155127886683, 800.918275010772, -0.06400000303983688, 0.288000013679266, 0.9760000463575125, 0.0, 0.0, 0.0, 0.0, 0.0, 1.636072811284258E9, 0.0, 2021-11-04 19:40:11.284
45.0, 633.445554994978, 115.25436688447371, -611.724216052331, 744.2887098817155, -0.06400000303983688, 0.288000013679266, 0.9760000463575125, 0.0, 0.0, 0.0, 0.0, 0.0, 1.6360728112849731E9, 0.0, 2021-11-04 19:40:11.284
45.0, 620.0006146542728, 139.4589993976988, -599.977190291509, 808.7720649177209, -0.06400000303983688, 0.288000013679266, 0.9760000463575125, 0.0, 0.0, 0.0, 0.0, 0.0, 1.6360728112849731E9, 0.0, 2021-11-04 19:40:11.284
46.0, 705.8986368365586, 121.05121181579307, -557.8696566903964, 810.892588192597, -0.06400000303983688, 0.288000013679266, 0.9760000463575125, 0.0, 0.0, 0.0, 0.0, 0.0, 1.6360728112985032E9, 0.0, 2021-11-04 19:40:11.298
46.0, 665.2758435178548, 92.08568665897474, -554.0848779352382, 795.4542811755091, -0.06400000303983688, 0.288000013679266, 0.9760000463575125, 0.0, 0.0, 0.0, 0.0, 0.0, 1.6360728112985032E9, 0.0, 2021-11-04 19:40:11.298
47.0, 550.6703492756933, 93.59660624107346, -554.1147971348837, 817.2840772168711, -0.06400000303983688, 0.288000013679266, 0.9760000463575125, 0.0, 0.0, 0.0, 0.0, 0.0, 1.6360728113142376E9, 0.0, 2021-11-04 19:40:11.314
47.0, 639.1788216270506, 114.40914949448779, -514.1053474089131, 820.8893407741562, -0.06400000303983688, 0.288000013679266, 0.9760000463575125, 0.0, 0.0, 0.0, 0.0, 0.0, 1.6360728113142376E9, 0.0, 2021-11-04 19:40:11.314
48.0, 666.7680636001751, 134.05858386168256, -445.807294418104, 821.1847928706557, -0.06400000303983688, 0.288000013679266, 0.9760000463575125, 0.0, 0.0, 0.0, 0.0, 0.0, 1.6360728113150048E9, 0.0, 2021-11-04 19:40:11.315
48.0, 697.6858165338635, 164.01144260680303, -421.35956840775907, 839.3158278558403, -0.06400000303983688, 0.288000013679266, 0.9760000463575125, 0.0, 0.0, 0.0, 0.0, 0.0, 1.6360728113150048E9, 0.0, 2021-11-04 19:40:11.315
49.0, 718.7040542848408, 214.48513240879402, -371.63759849686176, 863.0380132747814, -0.06400000303983688, 0.288000013679266, 0.9760000463575125, 0.0, 0.0, 0.0, 0.0, 0.0, 1.6360728113285947E9, 0.0, 2021-11-04 19:40:11.328
49.0, 714.7397603318095, 217.40599427418783, -287.85261978954077, 853.1310182921588, -0.06400000303983688, 0.288000013679266, 0.9760000463575125, 0.0, 0.0, 0.0, 0.0, 0.0, 1.6360728113285947E9, 0.0, 2021-11-04 19:40:11.328
50.0, 701.1340042930096, 234.6469330699183, -188.07582887168974, 810.8439694931731, -0.06400000303983688, 0.288000013679266, 0.9760000463575125, 0.0, 0.0, 0.0, 0.0, 0.0, 1.6360728113441627E9, 0.0, 2021-11-04 19:40:11.344
50.0, 665.9452856099233, 218.43072686204687, -130.1410386580974, 805.2191599598154, -0.06400000303983688, 0.288000013679266, 0.9760000463575125, 0.0, 0.0, 0.0, 0.0, 0.0, 1.6360728113441627E9, 0.0, 2021-11-04 19:40:11.344
51.0, 669.4233925687149, 218.5279642608948, -47.52664863690734, 825.8521880153567, -0.06400000303983688, 0.288000013679266, 0.9760000463575125, 0.0, 0.0, 0.0, 0.0, 0.0, 1.6360728113449361E9, 0.0, 2021-11-04 19:40:11.344
51.0, 596.2185908360407, 202.79794504726306, 23.456652522087097, 793.7526266956702, -0.06400000303983688, 0.288000013679266, 0.9760000463575125, 0.0, 0.0, 0.0, 0.0, 0.0, 1.6360728113449361E9, 0.0, 2021-11-04 19:40:11.344
52.0, 617.3078866861761, 168.6937973513268, 19.862608664669096, 761.3501334795728, -0.04800000227987766, 0.288000013679266, 0.9760000463575125, 0.0, 0.0, 0.0, 0.0, 0.0, 1.6360728113585725E9, 0.0, 2021-11-04 19:40:11.358
52.0, 504.867794518359, 110.48599444096908, 16.95296649914235, 724.2428461192176, -0.04800000227987766, 0.288000013679266, 0.9760000463575125, 0.0, 0.0, 0.0, 0.0, 0.0, 1.6360728113585725E9, 0.0, 2021-11-04 19:40:11.358
53.0, 474.9224155731499, 93.5442476416938, -22.446879534050822, 704.8140658494085, -0.04800000227987766, 0.288000013679266, 0.9760000463575125, 0.0, 0.0, 0.0, 0.0, 0.0, 1.636072811374207E9, 0.0, 2021-11-04 19:40:11.374
53.0, 548.2394143044949, 56.0068717864342, -69.02733348216861, 707.8583444133401, -0.04800000227987766, 0.288000013679266, 0.9760000463575125, 0.0, 0.0, 0.0, 0.0, 0.0, 1.636072811374207E9, 0.0, 2021-11-04 19:40:11.374
54.0, 494.29509734362364, 54.312697106506675, -75.52727960515767, 698.9611224187538, -0.04800000227987766, 0.288000013679266, 0.9760000463575125, 0.0, 0.0, 0.0, 0.0, 0.0, 1.63607281137491E9, 0.0, 2021-11-04 19:40:11.374
54.0, 498.59224239271134, 61.553143420722336, -82.7789456192404, 696.0776595529169, -0.04800000227987766, 0.288000013679266, 0.9760000463575125, 0.0, 0.0, 0.0, 0.0, 0.0, 1.63607281137491E9, 0.0, 2021-11-04 19:40:11.374
55.0, 548.1309572057799, 83.57367435982451, -53.18137736991048, 710.8427845779806, -0.04800000227987766, 0.288000013679266, 0.9760000463575125, 0.0, 0.0, 0.0, 0.0, 0.0, 1.6360728114048452E9, 0.0, 2021-11-04 19:40:11.404
55.0, 569.0407378580421, 89.71832998702303, -91.61258931457996, 730.8811685405672, -0.04800000227987766, 0.288000013679266, 0.9760000463575125, 0.0, 0.0, 0.0, 0.0, 0.0, 1.6360728114048452E9, 0.0, 2021-11-04 19:40:11.404
56.0, 564.3808225132525, 97.9161906898953, -84.80223149526864, 737.2053393656388, -0.04800000227987766, 0.288000013679266, 0.9760000463575125, 0.0, 0.0, 0.0, 0.0, 0.0, 1.6360728114055736E9, 0.0, 2021-11-04 19:40:11.405
56.0, 632.8172518024221, 147.82141569862142, -95.41232766956091, 791.9537348169833, -0.04800000227987766, 0.288000013679266, 0.9760000463575125, 0.0, 0.0, 0.0, 0.0, 0.0, 1.6360728114055736E9, 0.0, 2021-11-04 19:40:11.405
57.0, 708.4754279060289, 176.23717556195334, -88.13074245583266, 820.0815223837271, -0.04800000227987766, 0.288000013679266, 0.9760000463575125, 0.0, 0.0, 0.0, 0.0, 0.0, 1.6360728114063952E9, 0.0, 2021-11-04 19:40:11.406
57.0, 735.9038541810587, 211.1229623486288, -27.181592877954245, 908.4216992370784, -0.04800000227987766, 0.288000013679266, 0.9760000463575125, 0.0, 0.0, 0.0, 0.0, 0.0, 1.6360728114063952E9, 0.0, 2021-11-04 19:40:11.406
58.0, 789.9528883406892, 284.66061517735943, -27.963231968693435, 922.5211220700294, -0.04800000227987766, 0.288000013679266, 0.9760000463575125, 0.0, 0.0, 0.0, 0.0, 0.0, 1.6360728114185817E9, 0.0, 2021-11-04 19:40:11.418
58.0, 794.369710188359, 321.981076835189, -44.25797607563436, 991.4025994539261, -0.04800000227987766, 0.288000013679266, 0.9760000463575125, 0.0, 0.0, 0.0, 0.0, 0.0, 1.6360728114185817E9, 0.0, 2021-11-04 19:40:11.418
59.0, 906.3572744615376, 384.3850474958308, -27.222731777466834, 1086.6354119256139, -0.04800000227987766, 0.288000013679266, 0.9760000463575125, 0.0, 0.0, 0.0, 0.0, 0.0, 1.636072811434246E9, 0.0, 2021-11-04 19:40:11.434
59.0, 981.5666625704616, 418.1825233954005, -24.664640207774937, 1053.4213604191318, -0.04800000227987766, 0.288000013679266, 0.9760000463575125, 0.0, 0.0, 0.0, 0.0, 0.0, 1.636072811434246E9, 0.0, 2021-11-04 19:40:11.434
60.0, 959.0188057376072, 460.316236296203, 9.963093481957912, 1104.9721414083615, -0.04800000227987766, 0.288000013679266, 0.9760000463575125, 0.0, 0.0, 0.0, 0.0, 0.0, 1.6360728114349685E9, 0.0, 2021-11-04 19:40:11.434
60.0, 994.8620069129393, 455.55534365260974, -26.433612886816263, 1077.6446924321353, -0.04800000227987766, 0.288000013679266, 0.9760000463575125, 0.0, 0.0, 0.0, 0.0, 0.0, 1.6360728114349685E9, 0.0, 2021-11-04 19:40:11.434
61.0, 957.7958584520966, 432.2707265284844, -47.317214239388704, 1086.1716643311083, -0.04800000227987766, 0.288000013679266, 0.9760000463575125, 0.0, 0.0, 0.0, 0.0, 0.0, 1.6360728114485943E9, 0.0, 2021-11-04 19:40:11.448
61.0, 976.2260854337364, 440.4947665310465, -70.1455635689199, 1063.3956736009568, -0.04800000227987766, 0.288000013679266, 0.9760000463575125, 0.0, 0.0, 0.0, 0.0, 0.0, 1.6360728114485943E9, 0.0, 2021-11-04 19:40:11.448
62.0, 999.4097252590582, 463.1249011629261, -59.711242692545056, 1114.8604368912056, -0.06400000303983688, 0.288000013679266, 0.9760000463575125, 0.0, 0.0, 0.0, 0.0, 0.0, 1.636072811464281E9, 0.0, 2021-11-04 19:40:11.464
62.0, 1019.5266471207142, 456.00039174733683, -71.02070015855134, 1087.1141191199422, -0.06400000303983688, 0.288000013679266, 0.9760000463575125, 0.0, 0.0, 0.0, 0.0, 0.0, 1.636072811464281E9, 0.0, 2021-11-04 19:40:11.464
63.0, 1087.368432316929, 437.0727580715902, -84.11035000346601, 1120.2982514267787, -0.06400000303983688, 0.288000013679266, 0.9760000463575125, 0.0, 0.0, 0.0, 0.0, 0.0, 1.6360728114649937E9, 0.0, 2021-11-04 19:40:11.464
63.0, 1078.5796674210578, 514.4774674545042, -89.95581363420933, 1120.234673127532, -0.06400000303983688, 0.288000013679266, 0.9760000463575125, 0.0, 0.0, 0.0, 0.0, 0.0, 1.6360728114649937E9, 0.0, 2021-11-04 19:40:11.464
64.0, 1001.4629303347319, 497.330026157666, -101.62804139591753, 1084.3129340531304, -0.06400000303983688, 0.288000013679266, 0.9760000463575125, 0.0, 0.0, 0.0, 0.0, 0.0, 1.636072811494624E9, 0.0, 2021-11-04 19:40:11.494
64.0, 1064.4391056885943, 508.53850632486865, -65.6988225216046, 1127.4003214426339, -0.06400000303983688, 0.288000013679266, 0.9760000463575125, 0.0, 0.0, 0.0, 0.0, 0.0, 1.636072811494624E9, 0.0, 2021-11-04 19:40:11.494
65.0, 1087.779821312055, 547.4147663642652, 6.518645622767508, 1168.1689708596095, -0.06400000303983688, 0.288000013679266, 0.9760000463575125, 0.0, 0.0, 0.0, 0.0, 0.0, 1.6360728114953687E9, 0.0, 2021-11-04 19:40:11.495
65.0, 1166.4411370800808, 588.9762745718472, 39.661639030091465, 1185.1742959581316, -0.06400000303983688, 0.288000013679266, 0.9760000463575125, 0.0, 0.0, 0.0, 0.0, 0.0, 1.6360728114953687E9, 0.0, 2021-11-04 19:40:11.495
66.0, 1045.1262623174116, 621.3338889884762, 121.49065006058663, 1249.3846382973716, -0.06400000303983688, 0.288000013679266, 0.9760000463575125, 0.0, 0.0, 0.0, 0.0, 0.0, 1.6360728115091925E9, 0.0, 2021-11-04 19:40:11.509
66.0, 1203.2866314435378, 643.346940127667, 149.31550573091954, 1262.0965582467616, -0.06400000303983688, 0.288000013679266, 0.9760000463575125, 0.0, 0.0, 0.0, 0.0, 0.0, 1.6360728115091925E9, 0.0, 2021-11-04 19:40:11.509
67.0, 1231.9006060045213, 687.5301182041876, 242.91024202201515, 1297.5283704269677, -0.06400000303983688, 0.288000013679266, 0.9760000463575125, 0.0, 0.0, 0.0, 0.0, 0.0, 1.6360728115098956E9, 0.0, 2021-11-04 19:40:11.509
67.0, 1254.8972508320585, 753.5056933225133, 357.1679255682975, 1415.4586357297376, -0.06400000303983688, 0.288000013679266, 0.9760000463575125, 0.0, 0.0, 0.0, 0.0, 0.0, 1.6360728115098956E9, 0.0, 2021-11-04 19:40:11.509
68.0, 1410.2489550914615, 834.1902949665673, 455.4450166039169, 1429.0756114684045, -0.06400000303983688, 0.288000013679266, 0.9760000463575125, 0.0, 0.0, 0.0, 0.0, 0.0, 1.6360728115242305E9, 0.0, 2021-11-04 19:40:11.524
68.0, 1403.741529168561, 931.3042771159671, 557.8322576908395, 1555.1326793748885, -0.06400000303983688, 0.288000013679266, 0.9760000463575125, 0.0, 0.0, 0.0, 0.0, 0.0, 1.6360728115242305E9, 0.0, 2021-11-04 19:40:11.524
69.0, 1603.1492549059913, 1004.9316875436343, 649.1680944086984, 1639.7853148719296, -0.06400000303983688, 0.288000013679266, 0.9760000463575125, 0.0, 0.0, 0.0, 0.0, 0.0, 1.6360728115249133E9, 0.0, 2021-11-04 19:40:11.524
69.0, 1562.9565500821918, 1049.3018606179394, 703.445262465626, 1692.53286384698, -0.06400000303983688, 0.288000013679266, 0.9760000463575125, 0.0, 0.0, 0.0, 0.0, 0.0, 1.6360728115249133E9, 0.0, 2021-11-04 19:40:11.524
70.0, 1658.2828600527719, 1131.968609238509, 772.5698333466426, 1863.4949105214328, -0.06400000303983688, 0.288000013679266, 0.9760000463575125, 0.0, 0.0, 0.0, 0.0, 0.0, 1.6360728115385382E9, 0.0, 2021-11-04 19:40:11.538
