%OpenBCI Raw EEG Data
%Number of channels = 4
%Sample Rate = 200 Hz
%Board = OpenBCI_GUI$BoardGanglionBLE
Sample Index, EXG Channel 0, EXG Channel 1, EXG Channel 2, EXG Channel 3, Accel Channel 0, Accel Channel 1, Accel Channel 2, Other, Other, Other, Other, Other, Timestamp, Other, Timestamp (Formatted)
0.0, 948.7808296089061, 252.01689841412008, 33.88910344848409, 762.1598218199797, 0.0, 0.0, 0.0, 0.0, 0.0, 0.0, 0.0, 0.0, 1.6360738560424497E9, 0.0, 2021-11-04 19:57:36.042
1.0, 950.2618299913593, 260.7570446105674, 34.92131583625451, 771.7938041058369, 0.0, 0.11200000531971455, 0.0, 0.0, 0.0, 0.0, 0.0, 0.0, 1.6360738560431E9, 0.0, 2021-11-04 19:57:36.043
1.0, 984.601591384504, 262.413820290938, 33.2570603559725, 772.5604835967533, 0.0, 0.11200000531971455, 0.0, 0.0, 0.0, 0.0, 0.0, 0.0, 1.6360738560431E9, 0.0, 2021-11-04 19:57:36.043
2.0, 966.631372097414, 265.9068868495524, 32.39314346620813, 777.0072246440686, -0.04800000227987766, 0.11200000531971455, 0.0, 0.0, 0.0, 0.0, 0.0, 0.0, 1.6360738560705488E9, 0.0, 2021-11-04 19:57:36.070
2.0, 940.9719185014255, 275.4698110362515, 38.997806787956506, 788.9898641020991, -0.04800000227987766, 0.11200000531971455, 0.0, 0.0, 0.0, 0.0, 0.0, 0.0, 1.6360738560705488E9, 0.0, 2021-11-04 19:57:36.070
3.0, 969.21190306684, 271.2736432859674, 35.58327812841162, 782.0710491840728, -0.04800000227987766, 0.11200000531971455, 0.0, 0.0, 0.0, 0.0, 0.0, 0.0, 1.6360738560712318E9, 0.0, 2021-11-04 19:57:36.071
3.0, 992.9527879855596, 270.70891839265823, 38.09275099867955, 794.1621457408182, -0.04800000227987766, 0.11200000531971455, 0.0, 0.0, 0.0, 0.0, 0.0, 0.0, 1.6360738560712318E9, 0.0, 2021-11-04 19:57:36.071
4.0, 945.6954121454619, 260.03150401916355, 25.15643705194816, 786.7870630281977, -0.04800000227987766, 0.11200000531971455, 0.0, 0.0, 0.0, 0.0, 0.0, 0.0, 1.6360738560719588E9, 0.0, 2021-11-04 19:57:36.071
4.0, 967.813180483412, 266.3182758446783, 33.29071945557371, 796.5706413122825, -0.04800000227987766, 0.11200000531971455, 0.0, 0.0, 0.0, 0.0, 0.0, 0.0, 1.6360738560719588E9, 0.0, 2021-11-04 19:57:36.071
5.0, 1019.8389287670143, 265.3833008557558, 45.060184616129845, 803.777428526897, -0.04800000227987766, 0.11200000531971455, 0.0, 0.0, 0.0, 0.0, 0.0, 0.0, 1.636073856072695E9, 0.0, 2021-11-04 19:57:36.072
5.0, 976.4486094811, 261.9463327964768, 29.15065020462498, 792.1575593645684, -0.04800000227987766, 0.11200000531971455, 0.0, 0.0, 0.0, 0.0, 0.0, 0.0, 1.636073856072695E9, 0.0, 2021-11-04 19:57:36.072
6.0, 977.944569463376, 267.9002535259351, 35.64685642765835, 797.4756971015595, -0.04800000227987766, 0.11200000531971455, 0.0, 0.0, 0.0, 0.0, 0.0, 0.0, 1.6360738560844405E9, 0.0, 2021-11-04 19:57:36.084
6.0, 1026.537089587655, 261.77055749855936, 29.842531696427613, 788.9375055027194, -0.04800000227987766, 0.11200000531971455, 0.0, 0.0, 0.0, 0.0, 0.0, 0.0, 1.6360738560844405E9, 0.0, 2021-11-04 19:57:36.084
7.0, 1015.1790134222247, 265.40574025548995, 33.27575985575095, 793.5151430484839, -0.04800000227987766, 0.11200000531971455, 0.0, 0.0, 0.0, 0.0, 0.0, 0.0, 1.6360738560982685E9, 0.0, 2021-11-04 19:57:36.098
7.0, 986.3967433632351, 272.7322042686865, 31.52174677653238, 799.8280941736884, -0.04800000227987766, 0.11200000531971455, 0.0, 0.0, 0.0, 0.0, 0.0, 0.0, 1.6360738560982685E9, 0.0, 2021-11-04 19:57:36.098
8.0, 1026.7577436850406, 269.02970331255347, 34.49496724130586, 800.9014454609714, -0.04800000227987766, 0.11200000531971455, 0.0, 0.0, 0.0, 0.0, 0.0, 0.0, 1.6360738561139264E9, 0.0, 2021-11-04 19:57:36.113
8.0, 1026.9596982826479, 264.70637896377593, 38.08153129881248, 788.7729499046691, -0.04800000227987766, 0.11200000531971455, 0.0, 0.0, 0.0, 0.0, 0.0, 0.0, 1.6360738561139264E9, 0.0, 2021-11-04 19:57:36.113
9.0, 985.9217760688625, 261.7967367982492, 31.19637548038736, 786.4280326324515, -0.04800000227987766, 0.11200000531971455, 0.0, 0.0, 0.0, 0.0, 0.0, 0.0, 1.6360738561146767E9, 0.0, 2021-11-04 19:57:36.114
9.0, 1014.3824147316627, 263.95465907268226, 34.51740664104, 796.52950241277, -0.04800000227987766, 0.11200000531971455, 0.0, 0.0, 0.0, 0.0, 0.0, 0.0, 1.6360738561146767E9, 0.0, 2021-11-04 19:57:36.114
10.0, 1055.1061853491701, 265.0205305600539, 45.056444716174155, 796.914712108206, -0.04800000227987766, 0.11200000531971455, 0.49600002355873585, 0.0, 0.0, 0.0, 0.0, 0.0, 1.6360738561446462E9, 0.0, 2021-11-04 19:57:36.144
10.0, 1006.8801754205488, 253.0117118023336, 32.71477486239746, 772.2201527007855, -0.04800000227987766, 0.11200000531971455, 0.49600002355873585, 0.0, 0.0, 0.0, 0.0, 0.0, 1.6360738561446462E9, 0.0, 2021-11-04 19:57:36.144
11.0, 1015.8559353142045, 262.47365869022906, 48.60934967407957, 781.7718571876176, -0.04800000227987766, 0.17600000835955143, 0.49600002355873585, 0.0, 0.0, 0.0, 0.0, 0.0, 1.6360738561454227E9, 0.0, 2021-11-04 19:57:36.145
11.0, 1068.4127493915148, 264.5418233657256, 33.1074643577449, 788.0511492132209, -0.04800000227987766, 0.17600000835955143, 0.49600002355873585, 0.0, 0.0, 0.0, 0.0, 0.0, 1.6360738561454227E9, 0.0, 2021-11-04 19:57:36.145
12.0, 1050.1470780079253, 261.8677948974073, 43.23511343775317, 780.3207760048099, -0.06400000303983688, 0.17600000835955143, 0.49600002355873585, 0.0, 0.0, 0.0, 0.0, 0.0, 1.636073856146188E9, 0.0, 2021-11-04 19:57:36.146
12.0, 1031.9001061241142, 272.8032623678446, 35.65433622756973, 788.4251392087899, -0.06400000303983688, 0.17600000835955143, 0.49600002355873585, 0.0, 0.0, 0.0, 0.0, 0.0, 1.636073856146188E9, 0.0, 2021-11-04 19:57:36.146
13.0, 1062.1334573659115, 259.3732816269621, 31.17019618069753, 774.8754816693254, -0.06400000303983688, 0.17600000835955143, 0.49600002355873585, 0.0, 0.0, 0.0, 0.0, 0.0, 1.6360738561583145E9, 0.0, 2021-11-04 19:57:36.158
13.0, 1067.6086709010415, 249.1184759484604, 24.673989957664162, 767.3321034586988, -0.06400000303983688, 0.17600000835955143, 0.49600002355873585, 0.0, 0.0, 0.0, 0.0, 0.0, 1.6360738561583145E9, 0.0, 2021-11-04 19:57:36.158
14.0, 1049.1111257201992, 273.62978025805205, 53.31040391838178, 785.2125651468523, -0.06400000303983688, 0.17600000835955143, 0.49600002355873585, 0.0, 0.0, 0.0, 0.0, 0.0, 1.636073856174003E9, 0.0, 2021-11-04 19:57:36.174
14.0, 1061.9988209675066, 261.73315849900246, 43.489426634740084, 781.5362434904091, -0.06400000303983688, 0.17600000835955143, 0.49600002355873585, 0.0, 0.0, 0.0, 0.0, 0.0, 1.636073856174003E9, 0.0, 2021-11-04 19:57:36.174
15.0, 1107.2890094309114, 266.6735663404688, 55.84231618838385, 791.1066474770196, -0.06400000303983688, 0.17600000835955143, 0.49600002355873585, 0.0, 0.0, 0.0, 0.0, 0.0, 1.636073856174718E9, 0.0, 2021-11-04 19:57:36.174
15.0, 1061.6659698714502, 258.9057941325009, 41.903709053527564, 786.2859164341353, -0.06400000303983688, 0.17600000835955143, 0.49600002355873585, 0.0, 0.0, 0.0, 0.0, 0.0, 1.636073856174718E9, 0.0, 2021-11-04 19:57:36.174
16.0, 1054.1113719609566, 265.76851055119187, 72.30535579333082, 794.9587444313802, -0.06400000303983688, 0.17600000835955143, 0.49600002355873585, 0.0, 0.0, 0.0, 0.0, 0.0, 1.6360738561885958E9, 0.0, 2021-11-04 19:57:36.188
16.0, 1078.4618605724536, 266.44543244317174, 34.75302033824846, 782.3478017807938, -0.06400000303983688, 0.17600000835955143, 0.49600002355873585, 0.0, 0.0, 0.0, 0.0, 0.0, 1.6360738561885958E9, 0.0, 2021-11-04 19:57:36.188
17.0, 1033.4035459063016, 242.16226203087717, 26.282146938610822, 770.9635463156737, -0.06400000303983688, 0.17600000835955143, 0.49600002355873585, 0.0, 0.0, 0.0, 0.0, 0.0, 1.6360738562040057E9, 0.0, 2021-11-04 19:57:36.204
17.0, 1011.4540730663575, 256.28786416351795, 40.11977677466348, 793.2159510520287, -0.06400000303983688, 0.17600000835955143, 0.49600002355873585, 0.0, 0.0, 0.0, 0.0, 0.0, 1.6360738562040057E9, 0.0, 2021-11-04 19:57:36.204
18.0, 1036.159852173645, 261.72941859904677, 42.31883794860914, 809.252642062027, -0.06400000303983688, 0.17600000835955143, 0.49600002355873585, 0.0, 0.0, 0.0, 0.0, 0.0, 1.6360738562046835E9, 0.0, 2021-11-04 19:57:36.204
18.0, 1019.8314489671029, 259.7136125229299, 32.157529768999666, 795.8675401206128, -0.06400000303983688, 0.17600000835955143, 0.49600002355873585, 0.0, 0.0, 0.0, 0.0, 0.0, 1.6360738562046835E9, 0.0, 2021-11-04 19:57:36.204
19.0, 989.0558122317307, 274.74427044484764, 49.454567064065486, 809.2825612616725, -0.06400000303983688, 0.17600000835955143, 0.49600002355873585, 0.0, 0.0, 0.0, 0.0, 0.0, 1.6360738562183619E9, 0.0, 2021-11-04 19:57:36.218
19.0, 999.8155044042505, 261.5237241014838, 45.64360900921747, 809.1292253634892, -0.06400000303983688, 0.17600000835955143, 0.49600002355873585, 0.0, 0.0, 0.0, 0.0, 0.0, 1.6360738562183619E9, 0.0, 2021-11-04 19:57:36.218
20.0, 1038.343953747768, 268.32660212088376, 42.41607534745708, 820.6368975271471, -0.06400000303983688, 0.17600000835955143, 0.7360000349581242, 0.0, 0.0, 0.0, 0.0, 0.0, 1.6360738562339656E9, 0.0, 2021-11-04 19:57:36.233
20.0, 998.435481320601, 266.87926083803177, 45.97646010527387, 814.9597293944098, -0.06400000303983688, 0.17600000835955143, 0.7360000349581242, 0.0, 0.0, 0.0, 0.0, 0.0, 1.6360738562339656E9, 0.0, 2021-11-04 19:57:36.233
21.0, 980.9364894279279, 263.6779064759612, 31.461908377241343, 814.825092996005, -0.06400000303983688, 0.20800000987946987, 0.7360000349581242, 0.0, 0.0, 0.0, 0.0, 0.0, 1.636073856234794E9, 0.0, 2021-11-04 19:57:36.234
21.0, 1032.4049926181324, 272.29089607391506, 35.91986912442371, 819.9524958352558, -0.06400000303983688, 0.20800000987946987, 0.7360000349581242, 0.0, 0.0, 0.0, 0.0, 0.0, 1.636073856234794E9, 0.0, 2021-11-04 19:57:36.234
22.0, 1018.0662161880173, 262.29414349235594, 28.78787990892306, 827.3948967470787, -0.06400000303983688, 0.20800000987946987, 0.7360000349581242, 0.0, 0.0, 0.0, 0.0, 0.0, 1.6360738562646787E9, 0.0, 2021-11-04 19:57:36.264
22.0, 981.1683632251807, 258.09797574207187, 37.61404380435124, 822.6714031030424, -0.06400000303983688, 0.20800000987946987, 0.7360000349581242, 0.0, 0.0, 0.0, 0.0, 0.0, 1.6360738562646787E9, 0.0, 2021-11-04 19:57:36.264
23.0, 1011.364315467421, 262.0847090948373, 45.9652404054068, 824.9714415757917, -0.06400000303983688, 0.20800000987946987, 0.7360000349581242, 0.0, 0.0, 0.0, 0.0, 0.0, 1.6360738562655575E9, 0.0, 2021-11-04 19:57:36.265
23.0, 1018.8104562791996, 270.95949168968946, 44.727333520073444, 831.3217917005531, -0.06400000303983688, 0.20800000987946987, 0.7360000349581242, 0.0, 0.0, 0.0, 0.0, 0.0, 1.6360738562655575E9, 0.0, 2021-11-04 19:57:36.265
24.0, 967.0913797919638, 267.3504882324487, 30.549372788053006, 827.4210760467686, -0.06400000303983688, 0.20800000987946987, 0.7360000349581242, 0.0, 0.0, 0.0, 0.0, 0.0, 1.6360738562661233E9, 0.0, 2021-11-04 19:57:36.266
24.0, 970.7153428490274, 268.1583066228777, 39.64480948029086, 823.9878478874452, -0.06400000303983688, 0.20800000987946987, 0.7360000349581242, 0.0, 0.0, 0.0, 0.0, 0.0, 1.6360738562661233E9, 0.0, 2021-11-04 19:57:36.266
25.0, 988.1806756420992, 259.2049861289561, 61.156714025419205, 821.5943119158037, -0.06400000303983688, 0.20800000987946987, 0.7360000349581242, 0.0, 0.0, 0.0, 0.0, 0.0, 1.6360738562783408E9, 0.0, 2021-11-04 19:57:36.278
25.0, 960.3408603719436, 269.3924736082554, 47.80901108356193, 829.8557509179227, -0.06400000303983688, 0.20800000987946987, 0.7360000349581242, 0.0, 0.0, 0.0, 0.0, 0.0, 1.6360738562783408E9, 0.0, 2021-11-04 19:57:36.278
26.0, 960.3146810722537, 272.06650207657367, 51.60874943854287, 833.5320725743659, -0.06400000303983688, 0.20800000987946987, 0.7360000349581242, 0.0, 0.0, 0.0, 0.0, 0.0, 1.6360738562940009E9, 0.0, 2021-11-04 19:57:36.294
26.0, 990.6415298129432, 272.81822196766734, 51.477852940093726, 829.9155893172137, -0.06400000303983688, 0.20800000987946987, 0.7360000349581242, 0.0, 0.0, 0.0, 0.0, 0.0, 1.6360738562940009E9, 0.0, 2021-11-04 19:57:36.294
27.0, 981.5722724203952, 278.8432007962838, 63.02292410330847, 836.3444773410447, -0.06400000303983688, 0.20800000987946987, 0.7360000349581242, 0.0, 0.0, 0.0, 0.0, 0.0, 1.636073856294681E9, 0.0, 2021-11-04 19:57:36.294
27.0, 950.5086633884348, 264.99061136040837, 56.42200068151578, 831.4227689993568, -0.06400000303983688, 0.20800000987946987, 0.7360000349581242, 0.0, 0.0, 0.0, 0.0, 0.0, 1.636073856294681E9, 0.0, 2021-11-04 19:57:36.294
28.0, 1003.3908487618901, 278.6487259985879, 62.07298951456323, 837.679621625226, -0.06400000303983688, 0.20800000987946987, 0.7360000349581242, 0.0, 0.0, 0.0, 0.0, 0.0, 1.6360738563082774E9, 0.0, 2021-11-04 19:57:36.308
28.0, 1022.03798994096, 276.464624424465, 52.8578760237433, 841.1315492843278, -0.06400000303983688, 0.20800000987946987, 0.7360000349581242, 0.0, 0.0, 0.0, 0.0, 0.0, 1.6360738563082774E9, 0.0, 2021-11-04 19:57:36.308
29.0, 992.0813912958838, 263.5694493772462, 60.1955597368069, 833.7639463716187, -0.06400000303983688, 0.20800000987946987, 0.7360000349581242, 0.0, 0.0, 0.0, 0.0, 0.0, 1.6360738563238897E9, 0.0, 2021-11-04 19:57:36.323
29.0, 1015.343569020275, 267.99001112487167, 51.82566363597289, 842.7284865654074, -0.06400000303983688, 0.20800000987946987, 0.7360000349581242, 0.0, 0.0, 0.0, 0.0, 0.0, 1.6360738563238897E9, 0.0, 2021-11-04 19:57:36.323
30.0, 1047.835819835309, 269.0558826122433, 48.340076877269894, 840.091857096646, -0.06400000303983688, 0.20800000987946987, 0.8640000410377979, 0.0, 0.0, 0.0, 0.0, 0.0, 1.6360738563246741E9, 0.0, 2021-11-04 19:57:36.324
30.0, 1023.7508641206659, 268.3415617207065, 59.993605139199644, 847.7960510053672, -0.06400000303983688, 0.20800000987946987, 0.8640000410377979, 0.0, 0.0, 0.0, 0.0, 0.0, 1.6360738563246741E9, 0.0, 2021-11-04 19:57:36.324
31.0, 1019.0834689759649, 268.4649784192443, 46.58232389809564, 852.7027997472323, -0.06400000303983688, 0.2240000106394291, 0.8640000410377979, 0.0, 0.0, 0.0, 0.0, 0.0, 1.636073856338278E9, 0.0, 2021-11-04 19:57:36.338
31.0, 1044.215596678201, 265.1551669584587, 56.51549818040803, 851.0086250673048, -0.06400000303983688, 0.2240000106394291, 0.8640000410377979, 0.0, 0.0, 0.0, 0.0, 0.0, 1.636073856338278E9, 0.0, 2021-11-04 19:57:36.338
32.0, 1021.3049695496447, 266.89422043785453, 60.63686793157831, 851.9024611567147, -0.06400000303983688, 0.2240000106394291, 0.8640000410377979, 0.0, 0.0, 0.0, 0.0, 0.0, 1.636073856370334E9, 0.0, 2021-11-04 19:57:36.370
32.0, 998.603776818607, 282.0632546581328, 74.425879068207, 863.4737116196193, -0.06400000303983688, 0.2240000106394291, 0.8640000410377979, 0.0, 0.0, 0.0, 0.0, 0.0, 1.636073856370334E9, 0.0, 2021-11-04 19:57:36.370
33.0, 1008.3948349026032, 270.63412039354444, 72.63820688938722, 855.5077247139998, -0.06400000303983688, 0.2240000106394291, 0.8640000410377979, 0.0, 0.0, 0.0, 0.0, 0.0, 1.6360738563710496E9, 0.0, 2021-11-04 19:57:36.371
33.0, 1006.599682923872, 270.59672139398754, 57.48787216888741, 856.5212376019917, -0.06400000303983688, 0.2240000106394291, 0.8640000410377979, 0.0, 0.0, 0.0, 0.0, 0.0, 1.6360738563710496E9, 0.0, 2021-11-04 19:57:36.371
34.0, 970.0421608570032, 279.5724812876433, 70.65979981282726, 866.0318031893112, -0.06400000303983688, 0.2240000106394291, 0.8640000410377979, 0.0, 0.0, 0.0, 0.0, 0.0, 1.6360738563718233E9, 0.0, 2021-11-04 19:57:36.371
34.0, 981.9649619157426, 283.3535201428458, 91.13201217027381, 867.6810990697704, -0.06400000303983688, 0.2240000106394291, 0.8640000410377979, 0.0, 0.0, 0.0, 0.0, 0.0, 1.6360738563718233E9, 0.0, 2021-11-04 19:57:36.371
35.0, 1004.4567202492617, 289.8497263658792, 88.59262010036036, 870.6954584340565, -0.06400000303983688, 0.2240000106394291, 0.8640000410377979, 0.0, 0.0, 0.0, 0.0, 0.0, 1.636073856372507E9, 0.0, 2021-11-04 19:57:36.372
35.0, 963.2467626375146, 285.2533893203363, 75.33093485748395, 864.610641206149, -0.06400000303983688, 0.2240000106394291, 0.8640000410377979, 0.0, 0.0, 0.0, 0.0, 0.0, 1.636073856372507E9, 0.0, 2021-11-04 19:57:36.372
36.0, 956.8403140134178, 286.2444628085941, 86.55811452446505, 866.5441694832407, -0.06400000303983688, 0.2240000106394291, 0.8640000410377979, 0.0, 0.0, 0.0, 0.0, 0.0, 1.6360738563833344E9, 0.0, 2021-11-04 19:57:36.383
36.0, 1004.3707025502808, 305.97991487476975, 106.44690248882398, 884.9295176654123, -0.06400000303983688, 0.2240000106394291, 0.8640000410377979, 0.0, 0.0, 0.0, 0.0, 0.0, 1.6360738563833344E9, 0.0, 2021-11-04 19:57:36.383
37.0, 961.4890096583404, 284.4268714301288, 85.23792984010652, 859.894627362024, -0.06400000303983688, 0.2240000106394291, 0.8640000410377979, 0.0, 0.0, 0.0, 0.0, 0.0, 1.636073856398347E9, 0.0, 2021-11-04 19:57:36.398
37.0, 945.6505333459936, 295.0369676044211, 114.15483629750088, 874.2483633919619, -0.06400000303983688, 0.2240000106394291, 0.8640000410377979, 0.0, 0.0, 0.0, 0.0, 0.0, 1.636073856398347E9, 0.0, 2021-11-04 19:57:36.398
38.0, 966.3471397007816, 307.12806416116655, 125.31095786532387, 868.7245311574079, -0.06400000303983688, 0.2240000106394291, 0.8640000410377979, 0.0, 0.0, 0.0, 0.0, 0.0, 1.6360738564146183E9, 0.0, 2021-11-04 19:57:36.414
38.0, 962.9363509411924, 316.9303419450298, 135.84625604050234, 865.1454468998127, -0.06400000303983688, 0.2240000106394291, 0.8640000410377979, 0.0, 0.0, 0.0, 0.0, 0.0, 1.6360738564146183E9, 0.0, 2021-11-04 19:57:36.414
39.0, 923.080237113405, 326.40350853279233, 165.88513248460367, 876.8251544614322, -0.06400000303983688, 0.2240000106394291, 0.8640000410377979, 0.0, 0.0, 0.0, 0.0, 0.0, 1.6360738564155128E9, 0.0, 2021-11-04 19:57:36.415
39.0, 935.2236922695301, 338.1954130930826, 191.95223517576233, 876.7877554618753, -0.06400000303983688, 0.2240000106394291, 0.8640000410377979, 0.0, 0.0, 0.0, 0.0, 0.0, 1.6360738564155128E9, 0.0, 2021-11-04 19:57:36.415
40.0, 946.7687634327449, 326.9308344265446, 190.0336664984934, 860.1564203589223, -0.06400000303983688, 0.2240000106394291, 0.9280000440776348, 0.0, 0.0, 0.0, 0.0, 0.0, 1.6360738564284017E9, 0.0, 2021-11-04 19:57:36.428
40.0, 923.0989366131835, 344.8673946140334, 230.73125781631097, 869.4912106483243, -0.06400000303983688, 0.2240000106394291, 0.9280000440776348, 0.0, 0.0, 0.0, 0.0, 0.0, 1.6360738564284017E9, 0.0, 2021-11-04 19:57:36.428
41.0, 910.1888019661419, 350.58944154623896, 248.97074990021065, 869.9960971423425, -0.06400000303983688, 0.2240000106394291, 0.9280000440776348, 0.0, 0.0, 0.0, 0.0, 0.0, 1.6360738564446757E9, 0.0, 2021-11-04 19:57:36.444
41.0, 946.0133036416955, 367.78924144245684, 235.1293801642023, 871.6079940232448, -0.06400000303983688, 0.2240000106394291, 0.9280000440776348, 0.0, 0.0, 0.0, 0.0, 0.0, 1.6360738564446757E9, 0.0, 2021-11-04 19:57:36.444
42.0, 933.3500023917295, 363.2153437966481, 249.0679872990586, 880.0227689235471, -0.06400000303983688, 0.2240000106394291, 0.9280000440776348, 0.0, 0.0, 0.0, 0.0, 0.0, 1.6360738564453478E9, 0.0, 2021-11-04 19:57:36.445
42.0, 905.2222148249857, 356.4723041765392, 253.48480914672837, 871.3910798258148, -0.06400000303983688, 0.2240000106394291, 0.9280000440776348, 0.0, 0.0, 0.0, 0.0, 0.0, 1.6360738564453478E9, 0.0, 2021-11-04 19:57:36.445
43.0, 949.6896252981387, 352.2349975267425, 253.48480914672837, 874.1062471936457, -0.06400000303983688, 0.2240000106394291, 0.9280000440776348, 0.0, 0.0, 0.0, 0.0, 0.0, 1.6360738564917572E9, 0.0, 2021-11-04 19:57:36.491
43.0, 957.464877306018, 355.6196069866419, 247.29901462001726, 863.3428151211701, -0.06400000303983688, 0.2240000106394291, 0.9280000440776348, 0.0, 0.0, 0.0, 0.0, 0.0, 1.6360738564917572E9, 0.0, 2021-11-04 19:57:36.491
44.0, 938.52976383036, 360.73953002598137, 239.29188881488517, 878.612826640252, -0.06400000303983688, 0.2240000106394291, 0.9280000440776348, 0.0, 0.0, 0.0, 0.0, 0.0, 1.6360738564924471E9, 0.0, 2021-11-04 19:57:36.492
44.0, 946.6939654336311, 345.873427702114, 215.89133479213342, 869.06112215342, -0.06400000303983688, 0.2240000106394291, 0.9280000440776348, 0.0, 0.0, 0.0, 0.0, 0.0, 1.6360738564924471E9, 0.0, 2021-11-04 19:57:36.492
45.0, 992.5713181900792, 345.55553620588034, 186.05441294563934, 872.6626458107494, -0.06400000303983688, 0.2240000106394291, 0.9280000440776348, 0.0, 0.0, 0.0, 0.0, 0.0, 1.636073856493262E9, 0.0, 2021-11-04 19:57:36.493
45.0, 964.7801216193475, 332.3088105628267, 190.1795225967653, 881.1036000107415, -0.06400000303983688, 0.2240000106394291, 0.9280000440776348, 0.0, 0.0, 0.0, 0.0, 0.0, 1.636073856493262E9, 0.0, 2021-11-04 19:57:36.493
46.0, 953.5791212520562, 333.25874515157193, 182.72216208511963, 877.2290636566468, -0.06400000303983688, 0.2240000106394291, 0.9280000440776348, 0.0, 0.0, 0.0, 0.0, 0.0, 1.6360738564939775E9, 0.0, 2021-11-04 19:57:36.493
46.0, 985.143876878079, 321.4930198909715, 180.82603280758485, 877.4272783542983, -0.06400000303983688, 0.2240000106394291, 0.9280000440776348, 0.0, 0.0, 0.0, 0.0, 0.0, 1.6360738564939775E9, 0.0, 2021-11-04 19:57:36.493
47.0, 967.7907410836779, 318.6432161247358, 162.2761290273629, 880.277082120534, -0.06400000303983688, 0.2240000106394291, 0.9280000440776348, 0.0, 0.0, 0.0, 0.0, 0.0, 1.6360738565040092E9, 0.0, 2021-11-04 19:57:36.504
47.0, 929.3557892390527, 313.50085368566215, 141.32894937554374, 892.0278477813117, -0.06400000303983688, 0.2240000106394291, 0.9280000440776348, 0.0, 0.0, 0.0, 0.0, 0.0, 1.6360738565040092E9, 0.0, 2021-11-04 19:57:36.504
48.0, 947.4868242242374, 311.2643935121596, 125.1912810667418, 896.1866165320389, -0.06400000303983688, 0.2240000106394291, 0.9280000440776348, 0.0, 0.0, 0.0, 0.0, 0.0, 1.63607385650471E9, 0.0, 2021-11-04 19:57:36.504
48.0, 954.0615683463402, 306.5147205684334, 116.95602136431262, 903.8833306408487, -0.06400000303983688, 0.2240000106394291, 0.9280000440776348, 0.0, 0.0, 0.0, 0.0, 0.0, 1.63607385650471E9, 0.0, 2021-11-04 19:57:36.504
49.0, 899.0588596980087, 294.7340357080102, 96.1733973105438, 902.9221763522364, -0.06400000303983688, 0.2240000106394291, 0.9280000440776348, 0.0, 0.0, 0.0, 0.0, 0.0, 1.6360738565182729E9, 0.0, 2021-11-04 19:57:36.518
49.0, 916.7710258881561, 303.2086490076035, 94.45678323088214, 919.4899331559427, -0.06400000303983688, 0.2240000106394291, 0.9280000440776348, 0.0, 0.0, 0.0, 0.0, 0.0, 1.6360738565182729E9, 0.0, 2021-11-04 19:57:36.518
50.0, 933.2752043926157, 292.8827852299437, 84.25433615176007, 921.0943502369337, -0.06400000303983688, 0.2240000106394291, 0.9600000455975533, 0.0, 0.0, 0.0, 0.0, 0.0, 1.636073856533913E9, 0.0, 2021-11-04 19:57:36.533
50.0, 890.5543271987699, 273.88783335499465, 78.21813762327656, 917.7695791763254, -0.06400000303983688, 0.2240000106394291, 0.9600000455975533, 0.0, 0.0, 0.0, 0.0, 0.0, 1.636073856533913E9, 0.0, 2021-11-04 19:57:36.533
51.0, 892.3158200778998, 283.2525428440422, 90.26809528050944, 932.6132421004586, -0.06400000303983688, 0.2240000106394291, 0.9600000455975533, 0.0, 0.0, 0.0, 0.0, 0.0, 1.636073856534757E9, 0.0, 2021-11-04 19:57:36.534
51.0, 924.4939192966558, 275.81762173213065, 72.60080788983032, 935.1862932699732, -0.06400000303983688, 0.2240000106394291, 0.9600000455975533, 0.0, 0.0, 0.0, 0.0, 0.0, 1.636073856534757E9, 0.0, 2021-11-04 19:57:36.534
52.0, 909.5455391737632, 277.74741010926664, 51.75834543677047, 934.7449850752018, -0.06400000303983688, 0.2240000106394291, 0.9600000455975533, 0.0, 0.0, 0.0, 0.0, 0.0, 1.6360738565483153E9, 0.0, 2021-11-04 19:57:36.548
52.0, 879.2822687323205, 264.70637896377593, 44.20000762632117, 936.0614298596047, -0.06400000303983688, 0.2240000106394291, 0.9600000455975533, 0.0, 0.0, 0.0, 0.0, 0.0, 1.6360738565483153E9, 0.0, 2021-11-04 19:57:36.548
53.0, 911.6511028488167, 269.0932816118002, 54.06960360938683, 945.9572051423602, -0.06400000303983688, 0.2240000106394291, 0.9600000455975533, 0.0, 0.0, 0.0, 0.0, 0.0, 1.6360738565960503E9, 0.0, 2021-11-04 19:57:36.596
53.0, 923.2298331116326, 265.44687915500253, 51.74338583694771, 947.9430920188315, -0.06400000303983688, 0.2240000106394291, 0.9600000455975533, 0.0, 0.0, 0.0, 0.0, 0.0, 1.6360738565960503E9, 0.0, 2021-11-04 19:57:36.596
54.0, 880.4154584188946, 261.32550940383226, 59.36156204668805, 955.7370435264893, -0.06400000303983688, 0.2240000106394291, 0.9600000455975533, 0.0, 0.0, 0.0, 0.0, 0.0, 1.6360738565969338E9, 0.0, 2021-11-04 19:57:36.596
54.0, 907.8401447939686, 268.3041627211496, 47.5584377865307, 966.208763402421, -0.06400000303983688, 0.2240000106394291, 0.9600000455975533, 0.0, 0.0, 0.0, 0.0, 0.0, 1.6360738565969338E9, 0.0, 2021-11-04 19:57:36.596
55.0, 918.8167511639185, 254.13742168899626, 30.684009186457843, 953.5305025526322, -0.06400000303983688, 0.2240000106394291, 0.9600000455975533, 0.0, 0.0, 0.0, 0.0, 0.0, 1.6360738565975432E9, 0.0, 2021-11-04 19:57:36.597
55.0, 892.7683479725383, 257.02836435474455, 30.560592487920076, 962.4987826463766, -0.06400000303983688, 0.2240000106394291, 0.9600000455975533, 0.0, 0.0, 0.0, 0.0, 0.0, 1.6360738565975432E9, 0.0, 2021-11-04 19:57:36.597
56.0, 898.0640463097952, 268.7492108158767, 35.403762930538505, 971.6652774377726, -0.06400000303983688, 0.2240000106394291, 0.9600000455975533, 0.0, 0.0, 0.0, 0.0, 0.0, 1.6360738565982635E9, 0.0, 2021-11-04 19:57:36.598
56.0, 938.627001229208, 259.36206192709506, 49.37228926504031, 968.9650696697645, -0.06400000303983688, 0.2240000106394291, 0.9600000455975533, 0.0, 0.0, 0.0, 0.0, 0.0, 1.6360738565982635E9, 0.0, 2021-11-04 19:57:36.598
57.0, 927.0894098659046, 255.75679836980999, 45.486533211078495, 973.5838461150415, -0.06400000303983688, 0.2240000106394291, 0.9600000455975533, 0.0, 0.0, 0.0, 0.0, 0.0, 1.6360738566089995E9, 0.0, 2021-11-04 19:57:36.608
57.0, 913.6332498253323, 267.36544783227146, 46.94883409375325, 977.4845617688261, -0.06400000303983688, 0.2240000106394291, 0.9600000455975533, 0.0, 0.0, 0.0, 0.0, 0.0, 1.6360738566089995E9, 0.0, 2021-11-04 19:57:36.608
58.0, 955.306955031585, 256.87502845656127, 26.061492841225117, 968.404084676411, -0.06400000303983688, 0.2240000106394291, 0.9600000455975533, 0.0, 0.0, 0.0, 0.0, 0.0, 1.6360738566096382E9, 0.0, 2021-11-04 19:57:36.609
58.0, 966.1863240026869, 247.79081146419048, 29.59195839939639, 961.2085171616636, -0.06400000303983688, 0.2240000106394291, 0.9600000455975533, 0.0, 0.0, 0.0, 0.0, 0.0, 1.6360738566096382E9, 0.0, 2021-11-04 19:57:36.609
59.0, 944.8352351556532, 257.2976371515542, 39.60367058077827, 969.8177668596618, -0.06400000303983688, 0.2240000106394291, 0.9600000455975533, 0.0, 0.0, 0.0, 0.0, 0.0, 1.6360738566239865E9, 0.0, 2021-11-04 19:57:36.623
59.0, 974.4627226046287, 253.07155020162463, 33.784386249724776, 977.2601677714847, -0.06400000303983688, 0.2240000106394291, 0.9600000455975533, 0.0, 0.0, 0.0, 0.0, 0.0, 1.6360738566239865E9, 0.0, 2021-11-04 19:57:36.623
60.0, 1012.8153966502286, 253.09772950131446, 32.92794915987179, 981.8714644168504, -0.06400000303983688, 0.2240000106394291, 0.9760000463575125, 0.0, 0.0, 0.0, 0.0, 0.0, 1.6360738566246328E9, 0.0, 2021-11-04 19:57:36.624
60.0, 979.0627995501272, 251.8224236164242, 26.207348939497024, 976.388771081809, -0.06400000303983688, 0.2240000106394291, 0.9760000463575125, 0.0, 0.0, 0.0, 0.0, 0.0, 1.6360738566246328E9, 0.0, 2021-11-04 19:57:36.624
61.0, 968.1123724798672, 253.84196959249675, 31.345971478614956, 979.6948426426388, -0.06400000303983688, 0.2400000113993883, 0.9760000463575125, 0.0, 0.0, 0.0, 0.0, 0.0, 1.6360738566382835E9, 0.0, 2021-11-04 19:57:36.638
61.0, 996.1354428478517, 247.6337356660515, 28.39145051361993, 969.8289865595289, -0.06400000303983688, 0.2400000113993883, 0.9760000463575125, 0.0, 0.0, 0.0, 0.0, 0.0, 1.6360738566382835E9, 0.0, 2021-11-04 19:57:36.638
62.0, 983.2327880007215, 247.57015736680478, 19.037960724439472, 971.7251158370636, -0.06400000303983688, 0.2400000113993883, 0.9760000463575125, 0.0, 0.0, 0.0, 0.0, 0.0, 1.6360738566539345E9, 0.0, 2021-11-04 19:57:36.653
62.0, 952.0158430705778, 244.71661370061338, 25.433189648669213, 966.3022609013133, -0.06400000303983688, 0.2400000113993883, 0.9760000463575125, 0.0, 0.0, 0.0, 0.0, 0.0, 1.6360738566539345E9, 0.0, 2021-11-04 19:57:36.653
63.0, 987.1970819537528, 251.58307001926005, 21.5100345951505, 968.4601831757464, -0.06400000303983688, 0.2400000113993883, 0.9760000463575125, 0.0, 0.0, 0.0, 0.0, 0.0, 1.636073856654738E9, 0.0, 2021-11-04 19:57:36.654
63.0, 997.5379053312354, 249.9300342388451, 19.385771420318633, 967.5027687870897, -0.06400000303983688, 0.2400000113993883, 0.9760000463575125, 0.0, 0.0, 0.0, 0.0, 0.0, 1.636073856654738E9, 0.0, 2021-11-04 19:57:36.654
64.0, 945.5196368475445, 242.16226203087717, 6.542954972479492, 956.1596522214822, -0.06400000303983688, 0.2400000113993883, 0.9760000463575125, 0.0, 0.0, 0.0, 0.0, 0.0, 1.6360738566682844E9, 0.0, 2021-11-04 19:57:36.668
64.0, 967.4578899876215, 248.0039857616648, 15.563593665603548, 960.4231381709687, -0.06400000303983688, 0.2400000113993883, 0.9760000463575125, 0.0, 0.0, 0.0, 0.0, 0.0, 1.6360738566682844E9, 0.0, 2021-11-04 19:57:36.668
65.0, 1008.3349965033121, 254.44783338531852, 26.895490531343967, 968.6434382735752, -0.06400000303983688, 0.2400000113993883, 0.9760000463575125, 0.0, 0.0, 0.0, 0.0, 0.0, 1.6360738567003267E9, 0.0, 2021-11-04 19:57:36.700
65.0, 974.3729650056921, 245.43467449210584, 29.390003801789135, 966.8707256945781, -0.06400000303983688, 0.2400000113993883, 0.9760000463575125, 0.0, 0.0, 0.0, 0.0, 0.0, 1.6360738567003267E9, 0.0, 2021-11-04 19:57:36.700
66.0, 979.126377849374, 252.20015351194888, 19.91309731407091, 968.4452235759236, -0.06400000303983688, 0.2400000113993883, 0.9760000463575125, 0.0, 0.0, 0.0, 0.0, 0.0, 1.6360738567010489E9, 0.0, 2021-11-04 19:57:36.701
66.0, 1024.8391750077717, 243.8900958104059, 17.433543643448502, 964.9147580177523, -0.06400000303983688, 0.2400000113993883, 0.9760000463575125, 0.0, 0.0, 0.0, 0.0, 0.0, 1.6360738567010489E9, 0.0, 2021-11-04 19:57:36.701
67.0, 1019.5733958701603, 247.4841396678239, 18.869665226433426, 966.1825841027312, -0.06400000303983688, 0.2400000113993883, 0.9760000463575125, 0.0, 0.0, 0.0, 0.0, 0.0, 1.636073856701785E9, 0.0, 2021-11-04 19:57:36.701
67.0, 997.1713951355778, 244.01725240889937, 16.988495548721403, 966.0329881045036, -0.06400000303983688, 0.2400000113993883, 0.9760000463575125, 0.0, 0.0, 0.0, 0.0, 0.0, 1.636073856701785E9, 0.0, 2021-11-04 19:57:36.701
68.0, 1044.4399906755425, 246.24997268244624, 9.303001139778644, 969.7878476600163, -0.06400000303983688, 0.2400000113993883, 0.9760000463575125, 0.0, 0.0, 0.0, 0.0, 0.0, 1.6360738567025173E9, 0.0, 2021-11-04 19:57:36.702
68.0, 1066.3782438156195, 246.30981108173728, 18.31242013303563, 975.1882631960325, -0.06400000303983688, 0.2400000113993883, 0.9760000463575125, 0.0, 0.0, 0.0, 0.0, 0.0, 1.6360738567025173E9, 0.0, 2021-11-04 19:57:36.702
69.0, 1027.8722338718362, 236.43647519871593, 10.604486324358732, 966.7323493962176, -0.06400000303983688, 0.2400000113993883, 0.9760000463575125, 0.0, 0.0, 0.0, 0.0, 0.0, 1.6360738567132027E9, 0.0, 2021-11-04 19:57:36.713
69.0, 1050.752941800747, 240.94305464532226, 21.450196195859462, 978.7075090543367, -0.06400000303983688, 0.2400000113993883, 0.9760000463575125, 0.0, 0.0, 0.0, 0.0, 0.0, 1.6360738567132027E9, 0.0, 2021-11-04 19:57:36.713
70.0, 1084.5130187007599, 243.5946437139064, 24.445856060367078, 975.8651850880124, -0.06400000303983688, 0.2400000113993883, 0.9760000463575125, 0.0, 0.0, 0.0, 0.0, 0.0, 1.636073856744723E9, 0.0, 2021-11-04 19:57:36.744
70.0, 1041.5602677096613, 237.9660942805931, 14.131211982574314, 967.5700869862922, -0.06400000303983688, 0.2400000113993883, 0.9760000463575125, 0.0, 0.0, 0.0, 0.0, 0.0, 1.636073856744723E9, 0.0, 2021-11-04 19:57:36.744
71.0, 1046.59417305002, 252.12535551283509, 25.53416694747284, 979.1974359485321, -0.06400000303983688, 0.2400000113993883, 0.9760000463575125, 0.0, 0.0, 0.0, 0.0, 0.0, 1.6360738567453015E9, 0.0, 2021-11-04 19:57:36.745
71.0, 1078.6226762705483, 240.91313544567674, 18.095505935605615, 973.1126187206246, -0.06400000303983688, 0.2400000113993883, 0.9760000463575125, 0.0, 0.0, 0.0, 0.0, 0.0, 1.6360738567453015E9, 0.0, 2021-11-04 19:57:36.745
72.0, 1061.0488863787614, 247.01665217336267, 17.246548645664006, 971.3062470420264, -0.06400000303983688, 0.2400000113993883, 0.9760000463575125, 0.0, 0.0, 0.0, 0.0, 0.0, 1.6360738567460697E9, 0.0, 2021-11-04 19:57:36.746
72.0, 1035.7896020780317, 244.72035360056907, 30.72140818601474, 975.2555813952349, -0.06400000303983688, 0.2400000113993883, 0.9760000463575125, 0.0, 0.0, 0.0, 0.0, 0.0, 1.6360738567460697E9, 0.0, 2021-11-04 19:57:36.746
73.0, 1063.008593955543, 239.83604425843805, 12.65769140003249, 977.3686248701997, -0.06400000303983688, 0.2400000113993883, 0.9760000463575125, 0.0, 0.0, 0.0, 0.0, 0.0, 1.636073856774596E9, 0.0, 2021-11-04 19:57:36.774
73.0, 1064.7700868346728, 248.7444859528914, 11.45718351425603, 971.5792597387917, -0.06400000303983688, 0.2400000113993883, 0.9760000463575125, 0.0, 0.0, 0.0, 0.0, 0.0, 1.636073856774596E9, 0.0, 2021-11-04 19:57:36.774
74.0, 1021.8509949431755, 245.8984220866114, 8.199730652850121, 972.1477245320566, -0.06400000303983688, 0.2400000113993883, 0.9760000463575125, 0.0, 0.0, 0.0, 0.0, 0.0, 1.6360738567754488E9, 0.0, 2021-11-04 19:57:36.775
74.0, 1026.2042384915985, 238.68415507208556, 12.837206597905606, 965.9357507056557, -0.06400000303983688, 0.2400000113993883, 0.9760000463575125, 0.0, 0.0, 0.0, 0.0, 0.0, 1.6360738567754488E9, 0.0, 2021-11-04 19:57:36.775
75.0, 1060.9292095801793, 245.5992300901562, 27.9576221187599, 969.8963047587313, -0.06400000303983688, 0.2400000113993883, 0.9760000463575125, 0.0, 0.0, 0.0, 0.0, 0.0, 1.6360738567761447E9, 0.0, 2021-11-04 19:57:36.776
75.0, 1028.4706178647466, 242.08746403176337, 16.158237758558244, 975.1209449968301, -0.06400000303983688, 0.2400000113993883, 0.9760000463575125, 0.0, 0.0, 0.0, 0.0, 0.0, 1.6360738567761447E9, 0.0, 2021-11-04 19:57:36.776
76.0, 1018.9039537780918, 245.29255829378963, 15.537414365913719, 975.2630611951463, -0.06400000303983688, 0.2400000113993883, 0.9760000463575125, 0.0, 0.0, 0.0, 0.0, 0.0, 1.6360738568046339E9, 0.0, 2021-11-04 19:57:36.804
76.0, 1057.7203754181974, 250.8201304282993, 29.012273906264454, 976.7665009773336, -0.06400000303983688, 0.2400000113993883, 0.9760000463575125, 0.0, 0.0, 0.0, 0.0, 0.0, 1.6360738568046339E9, 0.0, 2021-11-04 19:57:36.804
77.0, 1037.5211757575162, 253.0042320024222, 10.503509025555104, 972.757328224834, -0.06400000303983688, 0.2400000113993883, 0.9760000463575125, 0.0, 0.0, 0.0, 0.0, 0.0, 1.636073856805391E9, 0.0, 2021-11-04 19:57:36.805
77.0, 1017.8717413903214, 243.51610581483692, 10.533428225200623, 975.9736421867274, -0.06400000303983688, 0.2400000113993883, 0.9760000463575125, 0.0, 0.0, 0.0, 0.0, 0.0, 1.636073856805391E9, 0.0, 2021-11-04 19:57:36.805
78.0, 1043.228263089899, 237.88381648156792, 18.390958032105118, 973.8493790118955, -0.06400000303983688, 0.2400000113993883, 0.9760000463575125, 0.0, 0.0, 0.0, 0.0, 0.0, 1.636073856806084E9, 0.0, 2021-11-04 19:57:36.806
78.0, 1050.0648002089001, 238.08577107917517, 16.087179659400135, 972.1963432314806, -0.06400000303983688, 0.2400000113993883, 0.9760000463575125, 0.0, 0.0, 0.0, 0.0, 0.0, 1.636073856806084E9, 0.0, 2021-11-04 19:57:36.806
79.0, 1018.2532111858018, 244.36880300473422, 39.386756383348256, 979.2086556483991, -0.06400000303983688, 0.2400000113993883, 0.9760000463575125, 0.0, 0.0, 0.0, 0.0, 0.0, 1.6360738568182893E9, 0.0, 2021-11-04 19:57:36.818
79.0, 1034.5479552927427, 240.9318349454552, 11.689057311508805, 978.2101023602299, -0.06400000303983688, 0.2400000113993883, 0.9760000463575125, 0.0, 0.0, 0.0, 0.0, 0.0, 1.6360738568182893E9, 0.0, 2021-11-04 19:57:36.818
80.0, 1066.9242692091502, 251.08940322510898, 31.308572479058057, 980.8280323292129, -0.06400000303983688, 0.2400000113993883, 0.9920000471174717, 0.0, 0.0, 0.0, 0.0, 0.0, 1.6360738568339388E9, 0.0, 2021-11-04 19:57:36.833
80.0, 1027.0270164818503, 247.31584416981786, 21.345478997100145, 972.9592828224413, -0.06400000303983688, 0.2400000113993883, 0.9920000471174717, 0.0, 0.0, 0.0, 0.0, 0.0, 1.6360738568339388E9, 0.0, 2021-11-04 19:57:36.833
81.0, 1019.6556736691855, 242.9700804213062, 22.018660989124328, 973.1126187206246, -0.06400000303983688, 0.2400000113993883, 0.9920000471174717, 0.0, 0.0, 0.0, 0.0, 0.0, 1.6360738568346272E9, 0.0, 2021-11-04 19:57:36.834
81.0, 1056.5684862318449, 254.4141742857173, 23.305186573881656, 975.3341192943044, -0.06400000303983688, 0.2400000113993883, 0.9920000471174717, 0.0, 0.0, 0.0, 0.0, 0.0, 1.6360738568346272E9, 0.0, 2021-11-04 19:57:36.834
82.0, 1033.9607909996994, 244.8961288984865, 20.070173112209886, 979.0927187497728, -0.0800000037997961, 0.2400000113993883, 0.9920000471174717, 0.0, 0.0, 0.0, 0.0, 0.0, 1.6360738568482995E9, 0.0, 2021-11-04 19:57:36.848
82.0, 1009.4008679906838, 253.4193608975038, 30.684009186457843, 985.8619376695715, -0.0800000037997961, 0.2400000113993883, 0.9920000471174717, 0.0, 0.0, 0.0, 0.0, 0.0, 1.6360738568482995E9, 0.0, 2021-11-04 19:57:36.848
83.0, 1038.4935497459956, 251.897221615538, 35.48978062951937, 986.5762585611083, -0.0800000037997961, 0.2400000113993883, 0.9920000471174717, 0.0, 0.0, 0.0, 0.0, 0.0, 1.6360738568643901E9, 0.0, 2021-11-04 19:57:36.864
83.0, 1042.5139421983622, 249.16709464788437, 27.415336625184864, 980.0314336386509, -0.0800000037997961, 0.2400000113993883, 0.9920000471174717, 0.0, 0.0, 0.0, 0.0, 0.0, 1.6360738568643901E9, 0.0, 2021-11-04 19:57:36.864
84.0, 1006.0686171301641, 255.2294724760577, 22.071019588503987, 985.0989980786107, -0.0800000037997961, 0.2400000113993883, 0.9920000471174717, 0.0, 0.0, 0.0, 0.0, 0.0, 1.6360738568954232E9, 0.0, 2021-11-04 19:57:36.895
84.0, 1013.7503716391511, 247.36820276919752, 29.876190796028823, 982.0659392145462, -0.0800000037997961, 0.2400000113993883, 0.9920000471174717, 0.0, 0.0, 0.0, 0.0, 0.0, 1.6360738568954232E9, 0.0, 2021-11-04 19:57:36.895
85.0, 1041.2648156131618, 248.17228125967085, 33.34307805495337, 983.0270935031585, -0.0800000037997961, 0.2400000113993883, 0.9920000471174717, 0.0, 0.0, 0.0, 0.0, 0.0, 1.63607385689606E9, 0.0, 2021-11-04 19:57:36.896
85.0, 1005.5936498357914, 258.80481683369726, 21.012627901043743, 985.5477860732935, -0.0800000037997961, 0.2400000113993883, 0.9920000471174717, 0.0, 0.0, 0.0, 0.0, 0.0, 1.63607385689606E9, 0.0, 2021-11-04 19:57:36.896
86.0, 999.2021608115174, 257.3387760510668, 32.52777986461297, 991.5802447018214, -0.0800000037997961, 0.2400000113993883, 0.9920000471174717, 0.0, 0.0, 0.0, 0.0, 0.0, 1.6360738568968196E9, 0.0, 2021-11-04 19:57:36.896
86.0, 1023.7097252211533, 245.67402808927, 10.825140421744436, 977.9969280627556, -0.0800000037997961, 0.2400000113993883, 0.9920000471174717, 0.0, 0.0, 0.0, 0.0, 0.0, 1.6360738568968196E9, 0.0, 2021-11-04 19:57:36.896
87.0, 1012.5760430530645, 259.2648245282471, 20.414243908133358, 989.2428072295152, -0.0800000037997961, 0.2400000113993883, 0.9920000471174717, 0.0, 0.0, 0.0, 0.0, 0.0, 1.636073856897548E9, 0.0, 2021-11-04 19:57:36.897
87.0, 979.8219992411323, 256.36266216263175, 35.94978832406923, 990.7686864114366, -0.0800000037997961, 0.2400000113993883, 0.9920000471174717, 0.0, 0.0, 0.0, 0.0, 0.0, 1.636073856897548E9, 0.0, 2021-11-04 19:57:36.897
88.0, 1001.064630989451, 254.98637897893786, 27.16850322810933, 987.4139961511828, -0.0800000037997961, 0.2400000113993883, 0.9920000471174717, 0.0, 0.0, 0.0, 0.0, 0.0, 1.6360738569246223E9, 0.0, 2021-11-04 19:57:36.924
88.0, 1002.4857929726131, 257.36121545080096, 23.002254677470773, 982.249194312375, -0.0800000037997961, 0.2400000113993883, 0.9920000471174717, 0.0, 0.0, 0.0, 0.0, 0.0, 1.6360738569246223E9, 0.0, 2021-11-04 19:57:36.924
89.0, 955.8716799248941, 255.81289686914533, 33.761946849990636, 980.6260777316056, -0.0800000037997961, 0.2400000113993883, 0.9920000471174717, 0.0, 0.0, 0.0, 0.0, 0.0, 1.6360738569254353E9, 0.0, 2021-11-04 19:57:36.925
89.0, 967.4541500876658, 264.92703306116164, 52.21835313132033, 987.2382208532654, -0.0800000037997961, 0.2400000113993883, 0.9920000471174717, 0.0, 0.0, 0.0, 0.0, 0.0, 1.6360738569254353E9, 0.0, 2021-11-04 19:57:36.925
90.0, 987.3616375518031, 254.64604808297008, 37.91323580080643, 978.4344963575713, -0.0800000037997961, 0.2400000113993883, 0.9920000471174717, 0.0, 0.0, 0.0, 0.0, 0.0, 1.6360738569260695E9, 0.0, 2021-11-04 19:57:36.926
90.0, 945.9272859427147, 254.9751592790708, 35.20928813284263, 971.8747118352912, -0.0800000037997961, 0.2400000113993883, 0.9920000471174717, 0.0, 0.0, 0.0, 0.0, 0.0, 1.6360738569260695E9, 0.0, 2021-11-04 19:57:36.926
91.0, 946.3162355381064, 271.0567290885374, 41.062231563497335, 984.2089018891566, -0.0800000037997961, 0.2400000113993883, 0.9920000471174717, 0.0, 0.0, 0.0, 0.0, 0.0, 1.636073856938262E9, 0.0, 2021-11-04 19:57:36.938
91.0, 985.2859930763952, 270.18533239886165, 48.51959207514301, 979.982814939227, -0.0800000037997961, 0.2400000113993883, 0.9920000471174717, 0.0, 0.0, 0.0, 0.0, 0.0, 1.636073856938262E9, 0.0, 2021-11-04 19:57:36.938
92.0, 959.2749888845719, 261.0824159067124, 43.515605934429914, 969.4213374643587, -0.0800000037997961, 0.2400000113993883, 0.9920000471174717, 0.0, 0.0, 0.0, 0.0, 0.0, 1.6360738569538915E9, 0.0, 2021-11-04 19:57:36.953
92.0, 929.8382363333367, 270.6004612939432, 64.14115419005975, 974.2196291075088, -0.0800000037997961, 0.2400000113993883, 0.9920000471174717, 0.0, 0.0, 0.0, 0.0, 0.0, 1.6360738569538915E9, 0.0, 2021-11-04 19:57:36.953
93.0, 961.8330804542638, 274.0486490530893, 56.98298567486927, 972.2300023310818, -0.0800000037997961, 0.2400000113993883, 0.9920000471174717, 0.0, 0.0, 0.0, 0.0, 0.0, 1.6360738569546714E9, 0.0, 2021-11-04 19:57:36.954
93.0, 962.5436614458449, 267.4701650310308, 40.12725657457486, 961.5525879575871, -0.0800000037997961, 0.2400000113993883, 0.9920000471174717, 0.0, 0.0, 0.0, 0.0, 0.0, 1.6360738569546714E9, 0.0, 2021-11-04 19:57:36.954
94.0, 920.4548273445107, 271.30356248561293, 48.14186217961833, 965.6028996095993, -0.0800000037997961, 0.2400000113993883, 0.9920000471174717, 0.0, 0.0, 0.0, 0.0, 0.0, 1.6360738569682312E9, 0.0, 2021-11-04 19:57:36.968
94.0, 930.0364510309882, 283.4245782420039, 44.308464725036174, 967.4765894873999, -0.0800000037997961, 0.2400000113993883, 0.9920000471174717, 0.0, 0.0, 0.0, 0.0, 0.0, 1.6360738569682312E9, 0.0, 2021-11-04 19:57:36.968
95.0, 953.6651389510371, 268.47245821915567, 41.14450936252251, 959.9219915769063, -0.0800000037997961, 0.2400000113993883, 0.9920000471174717, 0.0, 0.0, 0.0, 0.0, 0.0, 1.6360738569839249E9, 0.0, 2021-11-04 19:57:36.983
95.0, 914.3101717173122, 273.6559595577419, 48.04462478077039, 957.5434152050875, -0.0800000037997961, 0.2400000113993883, 0.9920000471174717, 0.0, 0.0, 0.0, 0.0, 0.0, 1.6360738569839249E9, 0.0, 2021-11-04 19:57:36.983
96.0, 915.035712308716, 285.5451015168801, 51.167441243771464, 965.6365587092005, -0.0800000037997961, 0.2400000113993883, 0.9920000471174717, 0.0, 0.0, 0.0, 0.0, 0.0, 1.6360738569846444E9, 0.0, 2021-11-04 19:57:36.984
96.0, 960.1276860744692, 285.7694955142215, 76.29208914609626, 958.4335113945417, -0.0800000037997961, 0.2400000113993883, 0.9920000471174717, 0.0, 0.0, 0.0, 0.0, 0.0, 1.6360738569846444E9, 0.0, 2021-11-04 19:57:36.984
97.0, 940.7924033035524, 276.2028314275667, 55.25141199538484, 955.1685787332244, -0.0800000037997961, 0.2400000113993883, 0.9920000471174717, 0.0, 0.0, 0.0, 0.0, 0.0, 1.636073856998248E9, 0.0, 2021-11-04 19:57:36.998
97.0, 918.2071474711411, 276.9732508184388, 41.21182756172493, 951.1668857806362, -0.0800000037997961, 0.2400000113993883, 0.9920000471174717, 0.0, 0.0, 0.0, 0.0, 0.0, 1.636073856998248E9, 0.0, 2021-11-04 19:57:36.998
98.0, 956.3017684197985, 278.44677140098065, 54.2678183070384, 946.0619223411195, -0.0800000037997961, 0.2400000113993883, 0.9920000471174717, 0.0, 0.0, 0.0, 0.0, 0.0, 1.63607385703162E9, 0.0, 2021-11-04 19:57:37.031
98.0, 976.7066625780426, 274.26182335056365, 64.23091178899631, 944.6519800578244, -0.0800000037997961, 0.2400000113993883, 0.9920000471174717, 0.0, 0.0, 0.0, 0.0, 0.0, 1.63607385703162E9, 0.0, 2021-11-04 19:57:37.031
99.0, 942.1312874876894, 272.74342396855354, 42.99575984058902, 938.6008219295181, -0.0800000037997961, 0.2400000113993883, 0.9920000471174717, 0.0, 0.0, 0.0, 0.0, 0.0, 1.636073857032394E9, 0.0, 2021-11-04 19:57:37.032
99.0, 985.2822531764396, 281.5770676638931, 66.47859166236594, 948.5377361117862, -0.0800000037997961, 0.2400000113993883, 0.9920000471174717, 0.0, 0.0, 0.0, 0.0, 0.0, 1.636073857032394E9, 0.0, 2021-11-04 19:57:37.032
100.0, 1011.4204139667563, 276.85357401985675, 53.35902261780575, 935.2835306688212, -0.0800000037997961, 0.2400000113993883, 0.9920000471174717, 0.0, 0.0, 0.0, 0.0, 0.0, 1.6360738570331268E9, 0.0, 2021-11-04 19:57:37.033
100.0, 982.4137499104254, 277.0854478171095, 50.6363754500635, 940.0631228121929, -0.0800000037997961, 0.2400000113993883, 0.9920000471174717, 0.0, 0.0, 0.0, 0.0, 0.0, 1.6360738570331268E9, 0.0, 2021-11-04 19:57:37.033
0.0, 976.6430842787959, 266.7090953900479, 55.55995374172926, 929.726039334666, -0.0800000037997961, 0.2400000113993883, 0.9920000471174717, 0.0, 0.0, 0.0, 0.0, 0.0, 1.6360738570338728E9, 0.0, 2021-11-04 19:57:37.033
1.0, 1018.4850849830545, 270.5275332448073, 61.18102337513119, 922.7324264175259, -0.0800000037997961, 0.2400000113993883, 0.9920000471174717, 0.0, 0.0, 0.0, 0.0, 0.0, 1.6360738570432036E9, 0.0, 2021-11-04 19:57:37.043
1.0, 1006.7604986219667, 267.01576718641445, 53.716183063574135, 922.8782825157978, -0.0800000037997961, 0.2400000113993883, 0.9920000471174717, 0.0, 0.0, 0.0, 0.0, 0.0, 1.6360738570432036E9, 0.0, 2021-11-04 19:57:37.043
2.0, 972.203823031392, 272.91358941653743, 57.396244619973004, 927.953326755669, -0.0800000037997961, 0.2400000113993883, 0.9920000471174717, 0.0, 0.0, 0.0, 0.0, 0.0, 1.6360738570589018E9, 0.0, 2021-11-04 19:57:37.058
2.0, 1006.4463470256887, 280.83095762273297, 47.21249704062939, 922.5342117198743, -0.0800000037997961, 0.2400000113993883, 0.9920000471174717, 0.0, 0.0, 0.0, 0.0, 0.0, 1.6360738570589018E9, 0.0, 2021-11-04 19:57:37.058
3.0, 1023.0702023287304, 276.1186836785637, 49.89026540890336, 931.6184287122451, -0.0800000037997961, 0.2400000113993883, 0.9920000471174717, 0.0, 0.0, 0.0, 0.0, 0.0, 1.636073857059602E9, 0.0, 2021-11-04 19:57:37.059
3.0, 971.2838076422922, 263.01033433387056, 19.32780297100544, 921.5618377313949, -0.0800000037997961, 0.2400000113993883, 0.9920000471174717, 0.0, 0.0, 0.0, 0.0, 0.0, 1.636073857059602E9, 0.0, 2021-11-04 19:57:37.059
4.0, 989.691595224198, 267.05690608592704, 62.79292025603354, 921.4459008327685, -0.0800000037997961, 0.2400000113993883, 0.9920000471174717, 0.0, 0.0, 0.0, 0.0, 0.0, 1.6360738570732265E9, 0.0, 2021-11-04 19:57:37.073
4.0, 1014.101922234986, 270.01142705092207, 68.85903798416257, 914.9048158102669, -0.0800000037997961, 0.2400000113993883, 0.9920000471174717, 0.0, 0.0, 0.0, 0.0, 0.0, 1.6360738570732265E9, 0.0, 2021-11-04 19:57:37.073
5.0, 969.0361277689226, 262.4717887402512, 54.980269248597324, 911.2023148541339, -0.0800000037997961, 0.2400000113993883, 0.9920000471174717, 0.0, 0.0, 0.0, 0.0, 0.0, 1.636073857089382E9, 0.0, 2021-11-04 19:57:37.089
5.0, 961.9864163524471, 263.79571332456544, 54.920430849306285, 916.9692405858077, -0.0800000037997961, 0.2400000113993883, 0.9920000471174717, 0.0, 0.0, 0.0, 0.0, 0.0, 1.636073857089382E9, 0.0, 2021-11-04 19:57:37.089
6.0, 996.3598368451931, 261.6190915503539, 60.79955357965082, 909.5978977731429, -0.0800000037997961, 0.2400000113993883, 0.9920000471174717, 0.0, 0.0, 0.0, 0.0, 0.0, 1.636073857103933E9, 0.0, 2021-11-04 19:57:37.103
6.0, 968.3666856768541, 257.12373180361465, 48.28958822786808, 899.1860162965022, -0.0800000037997961, 0.2400000113993883, 0.9920000471174717, 0.0, 0.0, 0.0, 0.0, 0.0, 1.636073857103933E9, 0.0, 2021-11-04 19:57:37.103
7.0, 942.6960123809986, 260.0221542692743, 57.6580376168713, 910.3271782645024, -0.0800000037997961, 0.2400000113993883, 0.9920000471174717, 0.0, 0.0, 0.0, 0.0, 0.0, 1.6360738571046667E9, 0.0, 2021-11-04 19:57:37.104
7.0, 977.0656929737888, 254.3262866367586, 41.84948050417006, 911.9615145451389, -0.0800000037997961, 0.2400000113993883, 0.9920000471174717, 0.0, 0.0, 0.0, 0.0, 0.0, 1.6360738571046667E9, 0.0, 2021-11-04 19:57:37.104
8.0, 988.4499484389089, 260.7289953608997, 55.294420844875276, 912.1148504433222, -0.0800000037997961, 0.2400000113993883, 0.9920000471174717, 0.0, 0.0, 0.0, 0.0, 0.0, 1.636073857118966E9, 0.0, 2021-11-04 19:57:37.118
8.0, 942.595035082195, 263.7433547251858, 43.210804088041186, 912.9039693339728, -0.0800000037997961, 0.2400000113993883, 0.9920000471174717, 0.0, 0.0, 0.0, 0.0, 0.0, 1.636073857118966E9, 0.0, 2021-11-04 19:57:37.118
9.0, 971.5717799388804, 263.8779911235906, 50.922477796673775, 926.7864779694937, -0.0800000037997961, 0.2400000113993883, 0.9920000471174717, 0.0, 0.0, 0.0, 0.0, 0.0, 1.636073857119697E9, 0.0, 2021-11-04 19:57:37.119
9.0, 998.4654005202465, 259.651904173661, 46.516875648871064, 921.632895830553, -0.0800000037997961, 0.2400000113993883, 0.9920000471174717, 0.0, 0.0, 0.0, 0.0, 0.0, 1.636073857119697E9, 0.0, 2021-11-04 19:57:37.119
10.0, 959.8995521771722, 259.90621737064794, 53.19259706977755, 921.3785826335661, -0.0800000037997961, 0.2400000113993883, 0.9920000471174717, 0.0, 0.0, 0.0, 0.0, 0.0, 1.6360738571332612E9, 0.0, 2021-11-04 19:57:37.133
10.0, 965.9731497052126, 263.26838743081316, 42.27208919916302, 930.9639462199993, -0.0800000037997961, 0.2400000113993883, 0.9920000471174717, 0.0, 0.0, 0.0, 0.0, 0.0, 1.6360738571332612E9, 0.0, 2021-11-04 19:57:37.133
11.0, 1008.6603677994572, 266.4398225932382, 48.31202762760222, 929.0790366423316, -0.0800000037997961, 0.2400000113993883, 0.9920000471174717, 0.0, 0.0, 0.0, 0.0, 0.0, 1.6360738571488914E9, 0.0, 2021-11-04 19:57:37.148
11.0, 993.0051465849392, 265.15703690843657, 40.91076561529189, 928.4544733497314, -0.0800000037997961, 0.2400000113993883, 0.9920000471174717, 0.0, 0.0, 0.0, 0.0, 0.0, 1.6360738571488914E9, 0.0, 2021-11-04 19:57:37.148
12.0, 960.4904563701712, 267.80114617710933, 39.601800630800426, 929.9354737321846, -0.0800000037997961, 0.2400000113993883, 0.9920000471174717, 0.0, 0.0, 0.0, 0.0, 0.0, 1.6360738571496592E9, 0.0, 2021-11-04 19:57:37.149
12.0, 989.220367829781, 258.56733318651095, 41.77468250505626, 922.8483633161522, -0.0800000037997961, 0.2400000113993883, 0.9920000471174717, 0.0, 0.0, 0.0, 0.0, 0.0, 1.6360738571496592E9, 0.0, 2021-11-04 19:57:37.149
13.0, 996.9320415384136, 254.07945323968306, 32.368834116496146, 916.6962278890423, -0.0800000037997961, 0.2400000113993883, 0.9920000471174717, 0.0, 0.0, 0.0, 0.0, 0.0, 1.6360738571632571E9, 0.0, 2021-11-04 19:57:37.163
13.0, 956.8328342135064, 264.5511731156148, 48.540161524899304, 917.0814375844784, -0.0800000037997961, 0.2400000113993883, 0.9920000471174717, 0.0, 0.0, 0.0, 0.0, 0.0, 1.6360738571632571E9, 0.0, 2021-11-04 19:57:37.163
14.0, 965.6851774086244, 257.68097689701244, 52.568033777177334, 913.0386057323776, -0.0800000037997961, 0.2400000113993883, 0.9920000471174717, 0.0, 0.0, 0.0, 0.0, 0.0, 1.6360738571960592E9, 0.0, 2021-11-04 19:57:37.196
14.0, 989.7776129231788, 256.0391608164646, 36.55004226695746, 909.4782209745608, -0.0800000037997961, 0.2400000113993883, 0.9920000471174717, 0.0, 0.0, 0.0, 0.0, 0.0, 1.6360738571960592E9, 0.0, 2021-11-04 19:57:37.196
15.0, 958.153018897865, 259.3564520771615, 39.94961132667959, 908.3001524885185, -0.0800000037997961, 0.2400000113993883, 0.9920000471174717, 0.0, 0.0, 0.0, 0.0, 0.0, 1.6360738571967528E9, 0.0, 2021-11-04 19:57:37.196
15.0, 944.5884017585777, 265.64322390267625, 42.96023079100996, 913.5659316261299, -0.0800000037997961, 0.2400000113993883, 0.9920000471174717, 0.0, 0.0, 0.0, 0.0, 0.0, 1.6360738571967528E9, 0.0, 2021-11-04 19:57:37.196
16.0, 993.7007679766975, 282.9253015979193, 65.15279712807387, 922.6202294188552, -0.0800000037997961, 0.2400000113993883, 0.9920000471174717, 0.0, 0.0, 0.0, 0.0, 0.0, 1.636073857197498E9, 0.0, 2021-11-04 19:57:37.197
16.0, 959.1515721860342, 268.8221388650127, 42.537622096017, 906.9874476040713, -0.0800000037997961, 0.2400000113993883, 0.9920000471174717, 0.0, 0.0, 0.0, 0.0, 0.0, 1.636073857197498E9, 0.0, 2021-11-04 19:57:37.197
17.0, 929.9279939322732, 269.57385875610635, 47.60518653597683, 907.4175360989757, -0.0800000037997961, 0.2400000113993883, 0.9920000471174717, 0.0, 0.0, 0.0, 0.0, 0.0, 1.6360738571982749E9, 0.0, 2021-11-04 19:57:37.198
17.0, 967.3980515883304, 264.12108462071046, 49.95384370815009, 912.081191343721, -0.0800000037997961, 0.2400000113993883, 0.9920000471174717, 0.0, 0.0, 0.0, 0.0, 0.0, 1.6360738571982749E9, 0.0, 2021-11-04 19:57:37.198
18.0, 969.7766279601492, 265.598345103208, 41.8345209043473, 903.2662471481599, -0.0800000037997961, 0.2400000113993883, 0.9920000471174717, 0.0, 0.0, 0.0, 0.0, 0.0, 1.6360738572239497E9, 0.0, 2021-11-04 19:57:37.223
18.0, 928.1066626538523, 271.182015737053, 44.441231173463166, 899.9676553872414, -0.0800000037997961, 0.2400000113993883, 0.9920000471174717, 0.0, 0.0, 0.0, 0.0, 0.0, 1.6360738572239497E9, 0.0, 2021-11-04 19:57:37.223
19.0, 953.485623753164, 276.39543627528474, 47.45185063779354, 902.7127419547178, -0.0800000037997961, 0.2400000113993883, 0.9920000471174717, 0.0, 0.0, 0.0, 0.0, 0.0, 1.6360738572246153E9, 0.0, 2021-11-04 19:57:37.224
19.0, 994.7703793640248, 278.2691261530854, 56.79412072710693, 901.0597061743028, -0.0800000037997961, 0.2400000113993883, 0.9920000471174717, 0.0, 0.0, 0.0, 0.0, 0.0, 1.6360738572246153E9, 0.0, 2021-11-04 19:57:37.224
20.0, 958.5718876929022, 267.8123658769764, 54.146271558478475, 892.929163670633, -0.0800000037997961, 0.2400000113993883, 0.9920000471174717, 0.0, 0.0, 0.0, 0.0, 0.0, 1.6360738572393277E9, 0.0, 2021-11-04 19:57:37.239
20.0, 947.4980439241044, 273.5830315086059, 57.93479021359235, 890.8049004958011, -0.0800000037997961, 0.2400000113993883, 0.9920000471174717, 0.0, 0.0, 0.0, 0.0, 0.0, 1.6360738572393277E9, 0.0, 2021-11-04 19:57:37.239
21.0, 995.6866548531689, 284.7765520759858, 69.625717475079, 899.900337188039, -0.0800000037997961, 0.2400000113993883, 0.9920000471174717, 0.0, 0.0, 0.0, 0.0, 0.0, 1.6360738572539413E9, 0.0, 2021-11-04 19:57:37.253
21.0, 973.8643386117183, 275.1837086896412, 57.313966820947826, 886.8443464427255, -0.0800000037997961, 0.2400000113993883, 0.9920000471174717, 0.0, 0.0, 0.0, 0.0, 0.0, 1.6360738572539413E9, 0.0, 2021-11-04 19:57:37.253
22.0, 947.5691020232625, 283.145955695305, 54.74091565143317, 892.5701332748868, -0.0800000037997961, 0.2400000113993883, 0.9920000471174717, 0.0, 0.0, 0.0, 0.0, 0.0, 1.636073857254682E9, 0.0, 2021-11-04 19:57:37.254
22.0, 979.8332189409994, 275.0341126914136, 68.04373979382217, 884.2189366738312, -0.0800000037997961, 0.2400000113993883, 0.9920000471174717, 0.0, 0.0, 0.0, 0.0, 0.0, 1.636073857254682E9, 0.0, 2021-11-04 19:57:37.254
23.0, 989.2054082299583, 276.0738048790954, 57.287787521258, 880.2509028208442, -0.0800000037997961, 0.2400000113993883, 0.9920000471174717, 0.0, 0.0, 0.0, 0.0, 0.0, 1.6360738572689612E9, 0.0, 2021-11-04 19:57:37.268
23.0, 957.5097561054863, 270.7818464417942, 51.82379368599504, 874.9215453839861, -0.0800000037997961, 0.2400000113993883, 0.9920000471174717, 0.0, 0.0, 0.0, 0.0, 0.0, 1.6360738572689612E9, 0.0, 2021-11-04 19:57:37.268
24.0, 979.8930573402904, 273.6952285072766, 70.94964205939323, 877.0832075583749, -0.0800000037997961, 0.2400000113993883, 0.9920000471174717, 0.0, 0.0, 0.0, 0.0, 0.0, 1.6360738572697139E9, 0.0, 2021-11-04 19:57:37.269
24.0, 1020.216658662539, 282.5924505018629, 88.51221225131303, 881.2793753086589, -0.0800000037997961, 0.2400000113993883, 0.9920000471174717, 0.0, 0.0, 0.0, 0.0, 0.0, 1.6360738572697139E9, 0.0, 2021-11-04 19:57:37.269
25.0, 984.1341038900428, 280.79729852313176, 63.806433144025505, 883.3811990837567, -0.0800000037997961, 0.2400000113993883, 0.9920000471174717, 0.0, 0.0, 0.0, 0.0, 0.0, 1.6360738572996151E9, 0.0, 2021-11-04 19:57:37.299
25.0, 987.664569448214, 294.459153061267, 87.2256866665557, 888.5160817229189, -0.0800000037997961, 0.2400000113993883, 0.9920000471174717, 0.0, 0.0, 0.0, 0.0, 0.0, 1.6360738572996151E9, 0.0, 2021-11-04 19:57:37.299
26.0, 1024.4240461126901, 281.156328918878, 62.69194295722991, 878.504369541537, -0.0800000037997961, 0.2400000113993883, 0.9920000471174717, 0.0, 0.0, 0.0, 0.0, 0.0, 1.6360738573003922E9, 0.0, 2021-11-04 19:57:37.300
26.0, 1002.1080630770884, 271.6682027312927, 61.44281637202948, 866.166439587716, -0.0800000037997961, 0.2400000113993883, 0.9920000471174717, 0.0, 0.0, 0.0, 0.0, 0.0, 1.6360738573003922E9, 0.0, 2021-11-04 19:57:37.300
27.0, 968.6060392740183, 276.86666366970167, 49.269442016258836, 870.1606527403928, -0.0800000037997961, 0.2400000113993883, 0.9920000471174717, 0.0, 0.0, 0.0, 0.0, 0.0, 1.6360738573011475E9, 0.0, 2021-11-04 19:57:37.301
27.0, 1015.3136498206295, 278.3289645523764, 65.01816072966903, 873.8182748970576, -0.0800000037997961, 0.2400000113993883, 0.9920000471174717, 0.0, 0.0, 0.0, 0.0, 0.0, 1.6360738573011475E9, 0.0, 2021-11-04 19:57:37.301
28.0, 1025.1907256036066, 284.1145897838287, 72.42316264193505, 880.1873245215975, -0.0800000037997961, 0.2400000113993883, 0.9920000471174717, 0.0, 0.0, 0.0, 0.0, 0.0, 1.6360738573132553E9, 0.0, 2021-11-04 19:57:37.313
28.0, 968.512541775126, 275.8531507817097, 67.52763359993696, 870.8525342321955, -0.0800000037997961, 0.2400000113993883, 0.9920000471174717, 0.0, 0.0, 0.0, 0.0, 0.0, 1.6360738573132553E9, 0.0, 2021-11-04 19:57:37.313
29.0, 976.0970588852651, 276.31315847625956, 66.04289331752807, 873.0067166066729, -0.0800000037997961, 0.2400000113993883, 0.9920000471174717, 0.0, 0.0, 0.0, 0.0, 0.0, 1.6360738573290212E9, 0.0, 2021-11-04 19:57:37.329
29.0, 1006.9661931195296, 274.6376832961105, 76.79136579018086, 880.5538347172551, -0.0800000037997961, 0.2400000113993883, 0.9920000471174717, 0.0, 0.0, 0.0, 0.0, 0.0, 1.6360738573290212E9, 0.0, 2021-11-04 19:57:37.329
30.0, 968.1609911792912, 279.3050784408115, 68.45512878894806, 882.2517492971383, -0.0800000037997961, 0.2400000113993883, 0.9920000471174717, 0.0, 0.0, 0.0, 0.0, 0.0, 1.6360738573296163E9, 0.0, 2021-11-04 19:57:37.329
30.0, 948.7621301091276, 274.64516309602186, 71.01696025859565, 879.3383672316559, -0.0800000037997961, 0.2400000113993883, 0.9920000471174717, 0.0, 0.0, 0.0, 0.0, 0.0, 1.6360738573296163E9, 0.0, 2021-11-04 19:57:37.329
31.0, 992.8592904866673, 282.25211960589513, 65.11165822856128, 890.0494407047518, -0.0800000037997961, 0.2400000113993883, 0.9920000471174717, 0.0, 0.0, 0.0, 0.0, 0.0, 1.6360738573759832E9, 0.0, 2021-11-04 19:57:37.375
31.0, 968.9912489694543, 272.8051323178224, 68.12975749280304, 881.6533653042279, -0.0800000037997961, 0.2400000113993883, 0.9920000471174717, 0.0, 0.0, 0.0, 0.0, 0.0, 1.6360738573759832E9, 0.0, 2021-11-04 19:57:37.375
32.0, 932.6880400995724, 286.0742973606102, 77.84601757768542, 879.7609759266488, -0.06400000303983688, 0.2400000113993883, 0.9920000471174717, 0.0, 0.0, 0.0, 0.0, 0.0, 1.636073857376686E9, 0.0, 2021-11-04 19:57:37.376
32.0, 960.3221608721651, 287.1588683477603, 91.45925341639668, 878.7437231387012, -0.06400000303983688, 0.2400000113993883, 0.9920000471174717, 0.0, 0.0, 0.0, 0.0, 0.0, 1.636073857376686E9, 0.0, 2021-11-04 19:57:37.376
33.0, 965.0045156166889, 295.88779484434053, 99.4925585212186, 878.6838847394101, -0.06400000303983688, 0.2400000113993883, 0.9920000471174717, 0.0, 0.0, 0.0, 0.0, 0.0, 1.6360738573774433E9, 0.0, 2021-11-04 19:57:37.377
33.0, 923.9441540031694, 299.3846013029106, 94.13328188471496, 879.6936577274464, -0.06400000303983688, 0.2400000113993883, 0.9920000471174717, 0.0, 0.0, 0.0, 0.0, 0.0, 1.6360738573774433E9, 0.0, 2021-11-04 19:57:37.377
34.0, 928.1777207530104, 303.3862942554988, 102.94074628036469, 873.7958354973234, -0.06400000303983688, 0.2400000113993883, 0.9920000471174717, 0.0, 0.0, 0.0, 0.0, 0.0, 1.6360738573782165E9, 0.0, 2021-11-04 19:57:37.378
34.0, 955.2246772325598, 297.32765632728115, 92.89163509942591, 868.1111875646748, -0.06400000303983688, 0.2400000113993883, 0.9920000471174717, 0.0, 0.0, 0.0, 0.0, 0.0, 1.6360738573782165E9, 0.0, 2021-11-04 19:57:37.378
35.0, 920.234173247125, 302.5261172656901, 99.96752581559122, 874.5475553884171, -0.06400000303983688, 0.2400000113993883, 0.9920000471174717, 0.0, 0.0, 0.0, 0.0, 0.0, 1.636073857388874E9, 0.0, 2021-11-04 19:57:37.388
35.0, 910.8320647585206, 305.85462822625414, 111.2769832815975, 876.9336115601473, -0.06400000303983688, 0.2400000113993883, 0.9920000471174717, 0.0, 0.0, 0.0, 0.0, 0.0, 1.636073857388874E9, 0.0, 2021-11-04 19:57:37.388
36.0, 950.6096406872384, 291.3101572985761, 89.06197754479945, 870.1494330405258, -0.06400000303983688, 0.2400000113993883, 0.9920000471174717, 0.0, 0.0, 0.0, 0.0, 0.0, 1.6360738573896024E9, 0.0, 2021-11-04 19:57:37.389
36.0, 938.6644002287649, 292.61538238311186, 86.34307027701288, 868.9788443543948, -0.06400000303983688, 0.2400000113993883, 0.9920000471174717, 0.0, 0.0, 0.0, 0.0, 0.0, 1.6360738573896024E9, 0.0, 2021-11-04 19:57:37.389
37.0, 912.0774514437653, 293.8532892684452, 82.43113492336124, 867.4080863730051, -0.06400000303983688, 0.2400000113993883, 0.9920000471174717, 0.0, 0.0, 0.0, 0.0, 0.0, 1.636073857403216E9, 0.0, 2021-11-04 19:57:37.403
37.0, 947.8308950201608, 288.8156440281309, 86.58990367408842, 871.3873399258591, -0.06400000303983688, 0.2400000113993883, 0.9920000471174717, 0.0, 0.0, 0.0, 0.0, 0.0, 1.636073857403216E9, 0.0, 2021-11-04 19:57:37.403
38.0, 966.9455236936919, 294.84810265665874, 94.00238538626581, 876.7690559620969, -0.06400000303983688, 0.2400000113993883, 0.9920000471174717, 0.0, 0.0, 0.0, 0.0, 0.0, 1.6360738574189315E9, 0.0, 2021-11-04 19:57:37.418
38.0, 921.415981633123, 289.95631351461634, 77.98065397609025, 872.2774361153133, -0.06400000303983688, 0.2400000113993883, 0.9920000471174717, 0.0, 0.0, 0.0, 0.0, 0.0, 1.6360738574189315E9, 0.0, 2021-11-04 19:57:37.418
39.0, 944.3415683615021, 293.6700341706164, 84.69003449659795, 879.312187931966, -0.06400000303983688, 0.2400000113993883, 0.9920000471174717, 0.0, 0.0, 0.0, 0.0, 0.0, 1.6360738574196112E9, 0.0, 2021-11-04 19:57:37.419
39.0, 962.9513105410151, 281.02169252047315, 80.5574450455606, 868.0438693654723, -0.06400000303983688, 0.2400000113993883, 0.9920000471174717, 0.0, 0.0, 0.0, 0.0, 0.0, 1.6360738574196112E9, 0.0, 2021-11-04 19:57:37.419
40.0, 937.5835691415705, 290.06851051328704, 73.15244313329458, 882.4200447951443, -0.06400000303983688, 0.2400000113993883, 0.9920000471174717, 0.0, 0.0, 0.0, 0.0, 0.0, 1.63607385743321E9, 0.0, 2021-11-04 19:57:37.433
40.0, 923.7122802059166, 286.7848783521913, 79.50653315801173, 874.3082017912529, -0.06400000303983688, 0.2400000113993883, 0.9920000471174717, 0.0, 0.0, 0.0, 0.0, 0.0, 1.63607385743321E9, 0.0, 2021-11-04 19:57:37.433
41.0, 963.0934267393313, 290.8613693038933, 84.45816069934517, 881.1933576096781, -0.06400000303983688, 0.2400000113993883, 0.9920000471174717, 0.0, 0.0, 0.0, 0.0, 0.0, 1.6360738574488592E9, 0.0, 2021-11-04 19:57:37.448
41.0, 942.8194290795363, 290.442500508856, 71.61908415146172, 873.0515954061411, -0.06400000303983688, 0.2400000113993883, 0.9920000471174717, 0.0, 0.0, 0.0, 0.0, 0.0, 1.6360738574488592E9, 0.0, 2021-11-04 19:57:37.448
42.0, 905.8841771171428, 290.1994070117362, 70.90850315988064, 870.2840694389306, -0.06400000303983688, 0.2400000113993883, 0.9920000471174717, 0.0, 0.0, 0.0, 0.0, 0.0, 1.636073857449596E9, 0.0, 2021-11-04 19:57:37.449
42.0, 935.889394461643, 280.1989145302214, 79.50653315801173, 865.8186288918369, -0.06400000303983688, 0.2400000113993883, 0.9920000471174717, 0.0, 0.0, 0.0, 0.0, 0.0, 1.636073857449596E9, 0.0, 2021-11-04 19:57:37.449
43.0, 947.7224379214458, 297.1668406291865, 75.91248930059373, 872.7598832095973, -0.06400000303983688, 0.2400000113993883, 0.9920000471174717, 0.0, 0.0, 0.0, 0.0, 0.0, 1.6360738574793732E9, 0.0, 2021-11-04 19:57:37.479
43.0, 897.4731421167962, 289.47386642033234, 83.38106951210648, 870.5757816354744, -0.06400000303983688, 0.2400000113993883, 0.9920000471174717, 0.0, 0.0, 0.0, 0.0, 0.0, 1.6360738574793732E9, 0.0, 2021-11-04 19:57:37.479
44.0, 921.5319185317494, 301.6397609761916, 93.68823378998786, 885.8233537548222, -0.06400000303983688, 0.2400000113993883, 0.9920000471174717, 0.0, 0.0, 0.0, 0.0, 0.0, 1.636073857480085E9, 0.0, 2021-11-04 19:57:37.480
44.0, 950.3553274902515, 292.70140008209273, 87.55479786265641, 879.3458470315672, -0.06400000303983688, 0.2400000113993883, 0.9920000471174717, 0.0, 0.0, 0.0, 0.0, 0.0, 1.636073857480085E9, 0.0, 2021-11-04 19:57:37.480
45.0, 920.4959662440233, 299.40330080268905, 83.20529421418905, 883.7327496795915, -0.06400000303983688, 0.2400000113993883, 0.9920000471174717, 0.0, 0.0, 0.0, 0.0, 0.0, 1.636073857494089E9, 0.0, 2021-11-04 19:57:37.494
45.0, 908.210394889582, 306.17625962244347, 91.13388212025166, 884.607886269223, -0.06400000303983688, 0.2400000113993883, 0.9920000471174717, 0.0, 0.0, 0.0, 0.0, 0.0, 1.636073857494089E9, 0.0, 2021-11-04 19:57:37.494
46.0, 940.9345195018686, 302.1147282705642, 90.31858392991126, 882.1507719983347, -0.06400000303983688, 0.2400000113993883, 0.9920000471174717, 0.0, 0.0, 0.0, 0.0, 0.0, 1.636073857494589E9, 0.0, 2021-11-04 19:57:37.494
46.0, 931.7455853107385, 301.5687028770335, 95.95835306309164, 882.9623302887194, -0.06400000303983688, 0.2400000113993883, 0.9920000471174717, 0.0, 0.0, 0.0, 0.0, 0.0, 1.636073857494589E9, 0.0, 2021-11-04 19:57:37.494
47.0, 903.385923946742, 302.3578217676841, 98.22099253628403, 884.2264164737426, -0.06400000303983688, 0.2400000113993883, 0.9920000471174717, 0.0, 0.0, 0.0, 0.0, 0.0, 1.6360738575089457E9, 0.0, 2021-11-04 19:57:37.508
47.0, 931.0686634187587, 299.24996490450576, 88.38879555277526, 882.5472013936378, -0.06400000303983688, 0.2400000113993883, 0.9920000471174717, 0.0, 0.0, 0.0, 0.0, 0.0, 1.6360738575089457E9, 0.0, 2021-11-04 19:57:37.508
48.0, 926.8612759686075, 289.7468791170977, 77.27381288446486, 864.7377978046425, -0.06400000303983688, 0.2400000113993883, 0.9920000471174717, 0.0, 0.0, 0.0, 0.0, 0.0, 1.6360738575096738E9, 0.0, 2021-11-04 19:57:37.509
48.0, 889.4248774121515, 293.1240087770857, 83.5942438095808, 867.505323771853, -0.06400000303983688, 0.2400000113993883, 0.9920000471174717, 0.0, 0.0, 0.0, 0.0, 0.0, 1.6360738575096738E9, 0.0, 2021-11-04 19:57:37.509
49.0, 905.700922019314, 295.158514352981, 99.0849094260484, 874.4690174893476, -0.06400000303983688, 0.2400000113993883, 0.9920000471174717, 0.0, 0.0, 0.0, 0.0, 0.0, 1.6360738575231628E9, 0.0, 2021-11-04 19:57:37.523
49.0, 940.9719185014255, 309.74412418017164, 100.17696021310985, 881.6720648040064, -0.06400000303983688, 0.2400000113993883, 0.9920000471174717, 0.0, 0.0, 0.0, 0.0, 0.0, 1.6360738575231628E9, 0.0, 2021-11-04 19:57:37.523
50.0, 899.2720339954831, 298.4982450134121, 93.3778220936656, 873.8070551971905, -0.06400000303983688, 0.2400000113993883, 0.9920000471174717, 0.0, 0.0, 0.0, 0.0, 0.0, 1.6360738575389726E9, 0.0, 2021-11-04 19:57:37.538
50.0, 877.7227304507978, 292.66400108253583, 77.76373977866024, 866.106601188425, -0.06400000303983688, 0.2400000113993883, 0.9920000471174717, 0.0, 0.0, 0.0, 0.0, 0.0, 1.6360738575389726E9, 0.0, 2021-11-04 19:57:37.538
51.0, 921.1280093365349, 299.63143469998613, 88.2990379538387, 875.9612375716679, -0.06400000303983688, 0.2400000113993883, 0.9920000471174717, 0.0, 0.0, 0.0, 0.0, 0.0, 1.6360738575396323E9, 0.0, 2021-11-04 19:57:37.539
51.0, 907.7204679953866, 296.4226005380042, 84.69003449659795, 868.4477785606869, -0.06400000303983688, 0.2400000113993883, 0.9920000471174717, 0.0, 0.0, 0.0, 0.0, 0.0, 1.6360738575396323E9, 0.0, 2021-11-04 19:57:37.539
52.0, 872.9992368067615, 295.51380484877154, 85.35573668871075, 867.6960586695932, -0.06400000303983688, 0.2400000113993883, 0.9920000471174717, 0.0, 0.0, 0.0, 0.0, 0.0, 1.636073857553196E9, 0.0, 2021-11-04 19:57:37.553
52.0, 896.209055931773, 302.5709960651584, 85.19492099061608, 870.8450544322841, -0.06400000303983688, 0.2400000113993883, 0.9920000471174717, 0.0, 0.0, 0.0, 0.0, 0.0, 1.636073857553196E9, 0.0, 2021-11-04 19:57:37.553
53.0, 894.2418685550801, 301.0151976835914, 96.99056545086205, 861.8805142384954, -0.06400000303983688, 0.2400000113993883, 0.9920000471174717, 0.0, 0.0, 0.0, 0.0, 0.0, 1.6360738575853488E9, 0.0, 2021-11-04 19:57:37.585
53.0, 859.0606296719052, 310.48462437139824, 99.47759892139584, 869.7941425447352, -0.06400000303983688, 0.2400000113993883, 0.9920000471174717, 0.0, 0.0, 0.0, 0.0, 0.0, 1.6360738575853488E9, 0.0, 2021-11-04 19:57:37.585
54.0, 879.517882429529, 311.34106146125123, 106.18323954194784, 869.3416146500967, -0.06400000303983688, 0.2400000113993883, 0.9920000471174717, 0.0, 0.0, 0.0, 0.0, 0.0, 1.636073857585983E9, 0.0, 2021-11-04 19:57:37.585
54.0, 895.2254622434266, 304.2053323457949, 84.0392919043079, 855.8293561101891, -0.06400000303983688, 0.2400000113993883, 0.9920000471174717, 0.0, 0.0, 0.0, 0.0, 0.0, 1.636073857585983E9, 0.0, 2021-11-04 19:57:37.585
55.0, 865.152926699724, 311.7636701562442, 94.10336268506944, 860.9417993496172, -0.06400000303983688, 0.2400000113993883, 0.9920000471174717, 0.0, 0.0, 0.0, 0.0, 0.0, 1.6360738575868187E9, 0.0, 2021-11-04 19:57:37.586
55.0, 861.4167666439898, 317.69889138592407, 96.11168896127492, 867.6997985695489, -0.06400000303983688, 0.2400000113993883, 0.9920000471174717, 0.0, 0.0, 0.0, 0.0, 0.0, 1.6360738575868187E9, 0.0, 2021-11-04 19:57:37.586
56.0, 902.1367973615415, 315.8775601075031, 86.040138380602, 861.2148120463826, -0.06400000303983688, 0.2400000113993883, 0.9920000471174717, 0.0, 0.0, 0.0, 0.0, 0.0, 1.6360738575875604E9, 0.0, 2021-11-04 19:57:37.587
56.0, 883.0371282878332, 313.0875947405584, 91.50787211582065, 852.5158047494479, -0.06400000303983688, 0.2400000113993883, 0.9920000471174717, 0.0, 0.0, 0.0, 0.0, 0.0, 1.6360738575875604E9, 0.0, 2021-11-04 19:57:37.587
57.0, 856.6783134001307, 311.07552856439725, 112.75424376409501, 851.5209913612343, -0.06400000303983688, 0.2400000113993883, 0.9920000471174717, 0.0, 0.0, 0.0, 0.0, 0.0, 1.6360738575981953E9, 0.0, 2021-11-04 19:57:37.598
57.0, 884.4956892705522, 307.2047321102582, 103.00058467965573, 845.3464165343903, -0.06400000303983688, 0.2400000113993883, 0.9920000471174717, 0.0, 0.0, 0.0, 0.0, 0.0, 1.6360738575981953E9, 0.0, 2021-11-04 19:57:37.598
58.0, 893.3779516653158, 307.33188870875165, 102.85098868142813, 846.8947351160459, -0.06400000303983688, 0.2400000113993883, 0.9920000471174717, 0.0, 0.0, 0.0, 0.0, 0.0, 1.636073857613169E9, 0.0, 2021-11-04 19:57:37.613
58.0, 851.1096023661084, 310.0246166768484, 91.51535191573203, 837.0961972321384, -0.06400000303983688, 0.2400000113993883, 0.9920000471174717, 0.0, 0.0, 0.0, 0.0, 0.0, 1.636073857613169E9, 0.0, 2021-11-04 19:57:37.613
59.0, 873.2759894034825, 300.84316228562966, 102.1217081900686, 840.7014607894234, -0.06400000303983688, 0.2400000113993883, 0.9920000471174717, 0.0, 0.0, 0.0, 0.0, 0.0, 1.6360738576288664E9, 0.0, 2021-11-04 19:57:37.628
59.0, 916.3110181936063, 305.7125120279379, 110.5364830903709, 837.619783225935, -0.06400000303983688, 0.2400000113993883, 0.9920000471174717, 0.0, 0.0, 0.0, 0.0, 0.0, 1.6360738576288664E9, 0.0, 2021-11-04 19:57:37.628
60.0, 877.6815915512852, 304.65786024043337, 104.48532496206462, 827.6828690436669, -0.06400000303983688, 0.2400000113993883, 0.9920000471174717, 0.0, 0.0, 0.0, 0.0, 0.0, 1.6360738576296592E9, 0.0, 2021-11-04 19:57:37.629
60.0, 880.1723649217747, 309.9535585776903, 102.54057698510587, 830.8842234057374, -0.06400000303983688, 0.2400000113993883, 0.9920000471174717, 0.0, 0.0, 0.0, 0.0, 0.0, 1.6360738576296592E9, 0.0, 2021-11-04 19:57:37.629
61.0, 920.1668550479226, 304.5980218411423, 102.97066548001021, 819.3578517423011, -0.06400000303983688, 0.2400000113993883, 0.9920000471174717, 0.0, 0.0, 0.0, 0.0, 0.0, 1.6360738576595652E9, 0.0, 2021-11-04 19:57:37.659
61.0, 917.014119385276, 306.7260249159299, 96.4520198572427, 815.4010375891812, -0.06400000303983688, 0.2400000113993883, 0.9920000471174717, 0.0, 0.0, 0.0, 0.0, 0.0, 1.6360738576595652E9, 0.0, 2021-11-04 19:57:37.659
62.0, 892.4841155759059, 301.92399337282404, 96.47819915693253, 814.6941964975558, -0.06400000303983688, 0.2400000113993883, 0.9920000471174717, 0.0, 0.0, 0.0, 0.0, 0.0, 1.6360738576603682E9, 0.0, 2021-11-04 19:57:37.660
62.0, 919.4787134560756, 306.3782142200507, 97.80212374124676, 802.3861857433803, -0.06400000303983688, 0.2400000113993883, 0.9920000471174717, 0.0, 0.0, 0.0, 0.0, 0.0, 1.6360738576603682E9, 0.0, 2021-11-04 19:57:37.660
63.0, 944.2368511627428, 308.0499495002441, 112.11098097171634, 807.9287174777128, -0.06400000303983688, 0.2400000113993883, 0.9920000471174717, 0.0, 0.0, 0.0, 0.0, 0.0, 1.6360738576611507E9, 0.0, 2021-11-04 19:57:37.661
63.0, 889.9709028056823, 300.1886797933839, 111.54999597836286, 793.5076632485725, -0.06400000303983688, 0.2400000113993883, 0.9920000471174717, 0.0, 0.0, 0.0, 0.0, 0.0, 1.6360738576611507E9, 0.0, 2021-11-04 19:57:37.661
64.0, 909.294965876732, 310.2864096737467, 107.31642922852188, 801.7541426508687, -0.06400000303983688, 0.2400000113993883, 0.9920000471174717, 0.0, 0.0, 0.0, 0.0, 0.0, 1.6360738576731727E9, 0.0, 2021-11-04 19:57:37.673
64.0, 928.7237461465411, 297.7614847221412, 103.04546347912401, 790.2726497869007, -0.06400000303983688, 0.2400000113993883, 0.9920000471174717, 0.0, 0.0, 0.0, 0.0, 0.0, 1.6360738576731727E9, 0.0, 2021-11-04 19:57:37.673
65.0, 901.3439385709353, 309.0185835887678, 111.15356658305973, 799.8505335734226, -0.06400000303983688, 0.2400000113993883, 0.9920000471174717, 0.0, 0.0, 0.0, 0.0, 0.0, 1.6360738577052228E9, 0.0, 2021-11-04 19:57:37.705
65.0, 885.8233537548222, 306.29967632098123, 109.81842229887843, 800.1385058700107, -0.06400000303983688, 0.2400000113993883, 0.9920000471174717, 0.0, 0.0, 0.0, 0.0, 0.0, 1.6360738577052228E9, 0.0, 2021-11-04 19:57:37.705
66.0, 935.8669550619088, 314.77802952053025, 120.13680627662688, 808.9646697654389, -0.06400000303983688, 0.2400000113993883, 0.9920000471174717, 0.0, 0.0, 0.0, 0.0, 0.0, 1.636073857705962E9, 0.0, 2021-11-04 19:57:37.705
66.0, 911.3369512525387, 303.0123042599298, 114.55687554273754, 801.0061626597308, -0.06400000303983688, 0.2400000113993883, 0.9920000471174717, 0.0, 0.0, 0.0, 0.0, 0.0, 1.636073857705962E9, 0.0, 2021-11-04 19:57:37.705
67.0, 879.4169051307254, 310.30136927356943, 92.95895329862833, 798.0740810944699, -0.06400000303983688, 0.2400000113993883, 0.9920000471174717, 0.0, 0.0, 0.0, 0.0, 0.0, 1.63607385770673E9, 0.0, 2021-11-04 19:57:37.706
67.0, 920.8549966397695, 316.21789100347087, 111.00023068487644, 806.7095100921579, -0.06400000303983688, 0.2400000113993883, 0.9920000471174717, 0.0, 0.0, 0.0, 0.0, 0.0, 1.63607385770673E9, 0.0, 2021-11-04 19:57:37.706
68.0, 933.970825784374, 318.8433007723652, 101.97959199175239, 799.8206143737771, -0.06400000303983688, 0.2400000113993883, 0.9920000471174717, 0.0, 0.0, 0.0, 0.0, 0.0, 1.6360738577074685E9, 0.0, 2021-11-04 19:57:37.707
68.0, 897.2188289198093, 311.3859402607195, 107.1630933303386, 803.6128729288466, -0.06400000303983688, 0.2400000113993883, 0.9920000471174717, 0.0, 0.0, 0.0, 0.0, 0.0, 1.6360738577074685E9, 0.0, 2021-11-04 19:57:37.707
69.0, 909.3398446762003, 307.3094493090175, 115.33477473352104, 800.1422457699664, -0.06400000303983688, 0.2400000113993883, 0.9920000471174717, 0.0, 0.0, 0.0, 0.0, 0.0, 1.6360738577181828E9, 0.0, 2021-11-04 19:57:37.718
69.0, 949.1585595044307, 321.1620387448929, 128.19255078118294, 802.8461934379302, -0.06400000303983688, 0.2400000113993883, 0.9920000471174717, 0.0, 0.0, 0.0, 0.0, 0.0, 1.6360738577181828E9, 0.0, 2021-11-04 19:57:37.718
70.0, 916.2399600944482, 312.9753977418877, 118.73060389328748, 799.652318875771, -0.06400000303983688, 0.2400000113993883, 0.9920000471174717, 0.0, 0.0, 0.0, 0.0, 0.0, 1.6360738577333417E9, 0.0, 2021-11-04 19:57:37.733
70.0, 903.0156738511287, 306.9092800137587, 110.79827608726919, 797.4495178018697, -0.06400000303983688, 0.2400000113993883, 0.9920000471174717, 0.0, 0.0, 0.0, 0.0, 0.0, 1.6360738577333417E9, 0.0, 2021-11-04 19:57:37.733
71.0, 947.2250312273391, 308.62963399337605, 107.80261622276157, 798.9828767837025, -0.06400000303983688, 0.2400000113993883, 0.9920000471174717, 0.0, 0.0, 0.0, 0.0, 0.0, 1.6360738577488785E9, 0.0, 2021-11-04 19:57:37.748
71.0, 928.5180516489781, 311.2139048627578, 113.34140805713832, 803.3323804321699, -0.06400000303983688, 0.2400000113993883, 0.9920000471174717, 0.0, 0.0, 0.0, 0.0, 0.0, 1.6360738577488785E9, 0.0, 2021-11-04 19:57:37.748
72.0, 895.8163664364256, 318.00556318229064, 122.23489015176892, 809.5518340584822, -0.06400000303983688, 0.2400000113993883, 0.9920000471174717, 0.0, 0.0, 0.0, 0.0, 0.0, 1.6360738577495775E9, 0.0, 2021-11-04 19:57:37.749
72.0, 915.6303564016707, 312.21619805088267, 109.88948039803654, 804.8096409146674, -0.06400000303983688, 0.2400000113993883, 0.9920000471174717, 0.0, 0.0, 0.0, 0.0, 0.0, 1.6360738577495775E9, 0.0, 2021-11-04 19:57:37.749
73.0, 927.8934883563779, 305.675113028381, 109.15272010676563, 800.2955816681497, -0.06400000303983688, 0.2400000113993883, 0.9920000471174717, 0.0, 0.0, 0.0, 0.0, 0.0, 1.636073857763239E9, 0.0, 2021-11-04 19:57:37.763
73.0, 891.9867088817991, 309.21679828641936, 117.73579050507396, 804.3458933201618, -0.06400000303983688, 0.2400000113993883, 0.9920000471174717, 0.0, 0.0, 0.0, 0.0, 0.0, 1.636073857763239E9, 0.0, 2021-11-04 19:57:37.763
74.0, 905.4952275217511, 311.8646474550478, 111.7182914763689, 812.6933500212617, -0.06400000303983688, 0.2400000113993883, 0.9920000471174717, 0.0, 0.0, 0.0, 0.0, 0.0, 1.6360738577788653E9, 0.0, 2021-11-04 19:57:37.778
74.0, 942.5164971831255, 316.48342390032485, 121.18397826422006, 813.1196986162104, -0.06400000303983688, 0.2400000113993883, 0.9920000471174717, 0.0, 0.0, 0.0, 0.0, 0.0, 1.6360738577788653E9, 0.0, 2021-11-04 19:57:37.778
75.0, 903.4569820459001, 307.013997212518, 104.384347663261, 806.8628459903412, -0.06400000303983688, 0.2400000113993883, 0.9920000471174717, 0.0, 0.0, 0.0, 0.0, 0.0, 1.6360738577795963E9, 0.0, 2021-11-04 19:57:37.779
75.0, 895.2853006427176, 309.5272099827416, 112.93749886192381, 805.9016917017289, -0.06400000303983688, 0.2400000113993883, 0.9920000471174717, 0.0, 0.0, 0.0, 0.0, 0.0, 1.6360738577795963E9, 0.0, 2021-11-04 19:57:37.779
76.0, 945.3289019498043, 317.18278519203886, 119.61696018278599, 814.3276863018982, -0.06400000303983688, 0.2400000113993883, 0.9920000471174717, 0.0, 0.0, 0.0, 0.0, 0.0, 1.6360738578259883E9, 0.0, 2021-11-04 19:57:37.825
76.0, 927.4073013621382, 302.5223773657344, 99.06620992626995, 809.5069552590139, -0.06400000303983688, 0.2400000113993883, 0.9920000471174717, 0.0, 0.0, 0.0, 0.0, 0.0, 1.6360738578259883E9, 0.0, 2021-11-04 19:57:37.825
77.0, 904.2685403362848, 310.8773138667457, 110.59632148966193, 819.129717845004, -0.06400000303983688, 0.2400000113993883, 0.9920000471174717, 0.0, 0.0, 0.0, 0.0, 0.0, 1.6360738578265517E9, 0.0, 2021-11-04 19:57:37.826
77.0, 943.1261008759029, 312.45181174809113, 112.18951887078583, 821.5456932163797, -0.06400000303983688, 0.2400000113993883, 0.9920000471174717, 0.0, 0.0, 0.0, 0.0, 0.0, 1.6360738578265517E9, 0.0, 2021-11-04 19:57:37.826
78.0, 949.5549888997339, 306.92423961358145, 106.86016143392771, 815.9994215820916, -0.06400000303983688, 0.2400000113993883, 0.9920000471174717, 0.0, 0.0, 0.0, 0.0, 0.0, 1.6360738578274205E9, 0.0, 2021-11-04 19:57:37.827
78.0, 904.7883864301257, 309.052242688369, 113.8313349513337, 810.1352584515698, -0.06400000303983688, 0.2400000113993883, 0.9920000471174717, 0.0, 0.0, 0.0, 0.0, 0.0, 1.6360738578274205E9, 0.0, 2021-11-04 19:57:37.827
79.0, 915.5368589027785, 313.55134233506396, 101.65796059556305, 812.0613069287501, -0.06400000303983688, 0.2400000113993883, 0.9920000471174717, 0.0, 0.0, 0.0, 0.0, 0.0, 1.6360738578281596E9, 0.0, 2021-11-04 19:57:37.828
79.0, 938.9336730255745, 310.70901836873963, 115.8695804271847, 808.5345812705345, -0.06400000303983688, 0.2400000113993883, 0.9920000471174717, 0.0, 0.0, 0.0, 0.0, 0.0, 1.6360738578281596E9, 0.0, 2021-11-04 19:57:37.828
80.0, 894.2904872545041, 312.2423773505725, 110.63372048921883, 809.8734654546715, -0.06400000303983688, 0.2400000113993883, 0.9920000471174717, 0.0, 0.0, 0.0, 0.0, 0.0, 1.6360738578388827E9, 0.0, 2021-11-04 19:57:37.838
80.0, 874.4353583897464, 313.82061513187364, 103.62888787221164, 807.0348813883029, -0.06400000303983688, 0.2400000113993883, 0.9920000471174717, 0.0, 0.0, 0.0, 0.0, 0.0, 1.6360738578388827E9, 0.0, 2021-11-04 19:57:37.838
81.0, 920.8774360395037, 317.33612109022215, 107.24163122940809, 815.5768128870986, -0.06400000303983688, 0.2400000113993883, 0.9920000471174717, 0.0, 0.0, 0.0, 0.0, 0.0, 1.6360738578396256E9, 0.0, 2021-11-04 19:57:37.839
81.0, 900.1396907852031, 311.62529385788366, 112.98985746130347, 803.6166128288023, -0.06400000303983688, 0.2400000113993883, 0.9920000471174717, 0.0, 0.0, 0.0, 0.0, 0.0, 1.6360738578396256E9, 0.0, 2021-11-04 19:57:37.839
82.0, 877.0869474583305, 321.6108267395757, 120.55941497161984, 809.0020687649958, -0.06400000303983688, 0.2400000113993883, 0.9920000471174717, 0.0, 0.0, 0.0, 0.0, 0.0, 1.6360738578531785E9, 0.0, 2021-11-04 19:57:37.853
82.0, 916.0866241962649, 310.9895108654164, 109.76980359945446, 804.802161114756, -0.06400000303983688, 0.2400000113993883, 0.9920000471174717, 0.0, 0.0, 0.0, 0.0, 0.0, 1.6360738578531785E9, 0.0, 2021-11-04 19:57:37.853
83.0, 933.5781362890266, 309.0111037888564, 105.67087324801832, 798.2087174928747, -0.06400000303983688, 0.2400000113993883, 0.9920000471174717, 0.0, 0.0, 0.0, 0.0, 0.0, 1.6360738578693008E9, 0.0, 2021-11-04 19:57:37.869
83.0, 892.8917646710761, 307.545063006226, 104.29459006432444, 791.4357586731203, -0.06400000303983688, 0.2400000113993883, 0.9920000471174717, 0.0, 0.0, 0.0, 0.0, 0.0, 1.6360738578693008E9, 0.0, 2021-11-04 19:57:37.869
84.0, 921.2963048345409, 310.36868747277185, 101.37746809888631, 793.9564512432553, -0.06400000303983688, 0.2400000113993883, 0.9920000471174717, 0.0, 0.0, 0.0, 0.0, 0.0, 1.6360738578839176E9, 0.0, 2021-11-04 19:57:37.883
84.0, 966.8520261947997, 310.4547051717527, 104.20109256543219, 788.4326190087013, -0.06400000303983688, 0.2400000113993883, 0.9920000471174717, 0.0, 0.0, 0.0, 0.0, 0.0, 1.6360738578839176E9, 0.0, 2021-11-04 19:57:37.883
85.0, 942.0228303889744, 310.017136876937, 103.07538267876953, 789.195558599662, -0.06400000303983688, 0.2400000113993883, 0.9920000471174717, 0.0, 0.0, 0.0, 0.0, 0.0, 1.6360738578846498E9, 0.0, 2021-11-04 19:57:37.884
85.0, 949.5400292999111, 320.18218495650217, 118.18083859980106, 801.9336578487419, -0.06400000303983688, 0.2400000113993883, 0.9920000471174717, 0.0, 0.0, 0.0, 0.0, 0.0, 1.6360738578846498E9, 0.0, 2021-11-04 19:57:37.884
86.0, 985.5515259732492, 307.821815602947, 120.76884936913848, 786.4355124323629, -0.06400000303983688, 0.2400000113993883, 0.9920000471174717, 0.0, 0.0, 0.0, 0.0, 0.0, 1.6360738579149978E9, 0.0, 2021-11-04 19:57:37.914
86.0, 965.3859854121692, 309.1382603873499, 96.68015375453979, 781.091195395682, -0.06400000303983688, 0.2400000113993883, 0.9920000471174717, 0.0, 0.0, 0.0, 0.0, 0.0, 1.6360738579149978E9, 0.0, 2021-11-04 19:57:37.914
87.0, 929.5465241367929, 306.33333542058244, 94.05474398564547, 784.0756355603226, -0.06400000303983688, 0.2400000113993883, 0.9920000471174717, 0.0, 0.0, 0.0, 0.0, 0.0, 1.6360738579303584E9, 0.0, 2021-11-04 19:57:37.930
87.0, 952.4047926659696, 304.33622884424403, 98.8231164291501, 780.223538605962, -0.06400000303983688, 0.2400000113993883, 0.9920000471174717, 0.0, 0.0, 0.0, 0.0, 0.0, 1.6360738579303584E9, 0.0, 2021-11-04 19:57:37.930
88.0, 962.3940654476173, 308.4949975949712, 89.28637154214084, 779.2399449176155, -0.06400000303983688, 0.2400000113993883, 0.9920000471174717, 0.0, 0.0, 0.0, 0.0, 0.0, 1.6360738579310212E9, 0.0, 2021-11-04 19:57:37.931
88.0, 912.7768127354793, 310.0844550761394, 101.9758520917967, 776.1133885546587, -0.06400000303983688, 0.2400000113993883, 0.9920000471174717, 0.0, 0.0, 0.0, 0.0, 0.0, 1.6360738579310212E9, 0.0, 2021-11-04 19:57:37.931
89.0, 921.0943502369337, 310.7576370681636, 106.44877243880183, 784.6328806537203, -0.06400000303983688, 0.2400000113993883, 0.9920000471174717, 0.0, 0.0, 0.0, 0.0, 0.0, 1.6360738579317749E9, 0.0, 2021-11-04 19:57:37.931
89.0, 958.755142790731, 303.39751395536587, 93.39652159344405, 776.5135578499176, -0.06400000303983688, 0.2400000113993883, 0.9920000471174717, 0.0, 0.0, 0.0, 0.0, 0.0, 1.6360738579317749E9, 0.0, 2021-11-04 19:57:37.931
90.0, 925.5710104838945, 312.00676365336403, 95.21411297190934, 780.0552431079559, -0.06400000303983688, 0.2400000113993883, 0.9920000471174717, 0.0, 0.0, 0.0, 0.0, 0.0, 1.636073857932489E9, 0.0, 2021-11-04 19:57:37.932
90.0, 922.9456007150002, 309.4187528840266, 102.11796829011291, 783.4248929680325, -0.06400000303983688, 0.2400000113993883, 0.9920000471174717, 0.0, 0.0, 0.0, 0.0, 0.0, 1.636073857932489E9, 0.0, 2021-11-04 19:57:37.932
91.0, 963.1083863391541, 307.21969171008095, 110.70477858837694, 782.4562588795088, -0.06400000303983688, 0.2400000113993883, 0.9920000471174717, 0.0, 0.0, 0.0, 0.0, 0.0, 1.6360738579432049E9, 0.0, 2021-11-04 19:57:37.943
91.0, 958.8075013901107, 309.6506266812794, 105.72697174735367, 783.9709183615632, -0.06400000303983688, 0.2400000113993883, 0.9920000471174717, 0.0, 0.0, 0.0, 0.0, 0.0, 1.6360738579432049E9, 0.0, 2021-11-04 19:57:37.943
92.0, 946.4396522366442, 305.81722922669724, 100.2330587124452, 790.2801295868121, -0.06400000303983688, 0.2400000113993883, 0.9920000471174717, 0.0, 0.0, 0.0, 0.0, 0.0, 1.636073857958897E9, 0.0, 2021-11-04 19:57:37.958
92.0, 977.9109103637747, 304.59428194118664, 96.8260098528117, 785.8520880392753, -0.06400000303983688, 0.2400000113993883, 0.9920000471174717, 0.0, 0.0, 0.0, 0.0, 0.0, 1.636073857958897E9, 0.0, 2021-11-04 19:57:37.958
93.0, 990.1665625185706, 298.3411692152731, 97.09528264962137, 782.9237463739701, -0.06400000303983688, 0.2400000113993883, 0.9920000471174717, 0.0, 0.0, 0.0, 0.0, 0.0, 1.6360738579596915E9, 0.0, 2021-11-04 19:57:37.959
93.0, 948.9940039063804, 293.7074331701733, 84.30856470111758, 780.5713493018411, -0.06400000303983688, 0.2400000113993883, 0.9920000471174717, 0.0, 0.0, 0.0, 0.0, 0.0, 1.6360738579596915E9, 0.0, 2021-11-04 19:57:37.959
94.0, 975.1246848967858, 306.40439351974055, 94.36141578201205, 798.6126266880892, -0.06400000303983688, 0.2400000113993883, 0.9920000471174717, 0.0, 0.0, 0.0, 0.0, 0.0, 1.6360738579732175E9, 0.0, 2021-11-04 19:57:37.973
94.0, 994.4225686681457, 295.7905574454926, 98.00407833885401, 781.5512030902319, -0.06400000303983688, 0.2400000113993883, 0.9920000471174717, 0.0, 0.0, 0.0, 0.0, 0.0, 1.6360738579732175E9, 0.0, 2021-11-04 19:57:37.973
95.0, 955.8081016256474, 299.36216190317646, 100.24053851235658, 778.0431769317947, -0.06400000303983688, 0.2400000113993883, 0.9920000471174717, 0.0, 0.0, 0.0, 0.0, 0.0, 1.6360738579889507E9, 0.0, 2021-11-04 19:57:37.988
95.0, 935.6799600641243, 306.6512269168161, 97.29723724722862, 779.4680788149126, -0.06400000303983688, 0.2400000113993883, 0.9920000471174717, 0.0, 0.0, 0.0, 0.0, 0.0, 1.6360738579889507E9, 0.0, 2021-11-04 19:57:37.988
96.0, 967.1773974909447, 304.3025697446428, 107.02471703197807, 777.9272400331683, -0.06400000303983688, 0.2400000113993883, 0.9920000471174717, 0.0, 0.0, 0.0, 0.0, 0.0, 1.6360738579896348E9, 0.0, 2021-11-04 19:57:37.989
96.0, 947.6177207226865, 291.1156825008802, 86.17851467896253, 773.9143273807131, -0.06400000303983688, 0.2400000113993883, 0.9920000471174717, 0.0, 0.0, 0.0, 0.0, 0.0, 1.6360738579896348E9, 0.0, 2021-11-04 19:57:37.989
97.0, 919.4338346566074, 305.7274716277607, 101.65048079565167, 781.9364127856679, -0.06400000303983688, 0.2400000113993883, 0.9920000471174717, 0.0, 0.0, 0.0, 0.0, 0.0, 1.6360738580032392E9, 0.0, 2021-11-04 19:57:38.003
97.0, 957.4274783064611, 312.3844935488887, 103.7897035703063, 791.7873092689551, -0.06400000303983688, 0.2400000113993883, 0.9920000471174717, 0.0, 0.0, 0.0, 0.0, 0.0, 1.6360738580032392E9, 0.0, 2021-11-04 19:57:38.003
98.0, 957.7341501028277, 298.51694451319054, 93.59099639113992, 774.071403178852, -0.06400000303983688, 0.2400000113993883, 0.9920000471174717, 0.0, 0.0, 0.0, 0.0, 0.0, 1.636073858033617E9, 0.0, 2021-11-04 19:57:38.033
98.0, 921.6067165308632, 299.7585912984796, 93.98742578644305, 776.6107952487655, -0.06400000303983688, 0.2400000113993883, 0.9920000471174717, 0.0, 0.0, 0.0, 0.0, 0.0, 1.636073858033617E9, 0.0, 2021-11-04 19:57:38.033
99.0, 947.0193367297761, 308.7156516923569, 111.0151902846992, 782.9200064740144, -0.06400000303983688, 0.2400000113993883, 0.9920000471174717, 0.0, 0.0, 0.0, 0.0, 0.0, 1.63607385806663E9, 0.0, 2021-11-04 19:57:38.066
99.0, 981.6246310197748, 305.59283522935584, 97.48797214496881, 779.0454701199196, -0.06400000303983688, 0.2400000113993883, 0.9920000471174717, 0.0, 0.0, 0.0, 0.0, 0.0, 1.63607385806663E9, 0.0, 2021-11-04 19:57:38.066
100.0, 951.181845380459, 304.40354704344645, 98.21351273637265, 779.7672708113678, -0.06400000303983688, 0.2400000113993883, 0.9920000471174717, 0.0, 0.0, 0.0, 0.0, 0.0, 1.6360738580673788E9, 0.0, 2021-11-04 19:57:38.067
100.0, 948.3395214141347, 306.6549668167718, 106.16827994212508, 779.9056471097283, -0.06400000303983688, 0.2400000113993883, 0.9920000471174717, 0.0, 0.0, 0.0, 0.0, 0.0, 1.6360738580673788E9, 0.0, 2021-11-04 19:57:38.067
0.0, 993.0275859846734, 305.9817848247476, 112.11285092169419, 779.0136809702963, -0.06400000303983688, 0.2400000113993883, 0.9920000471174717, 0.0, 0.0, 0.0, 0.0, 0.0, 1.6360738580681407E9, 0.0, 2021-11-04 19:57:38.068
1.0, 975.8876244877465, 297.80636352160946, 107.31081937858835, 772.4426767481491, -0.06400000303983688, 0.2400000113993883, 0.9920000471174717, 0.0, 0.0, 0.0, 0.0, 0.0, 1.6360738580688963E9, 0.0, 2021-11-04 19:57:38.068
1.0, 951.0397291821428, 298.22149241669104, 98.81376667926088, 778.6883096741512, -0.06400000303983688, 0.2400000113993883, 0.9920000471174717, 0.0, 0.0, 0.0, 0.0, 0.0, 1.6360738580688963E9, 0.0, 2021-11-04 19:57:38.068
2.0, 972.2113028313033, 298.65906071150675, 96.37161200819537, 775.1615840159357, -0.06400000303983688, 0.2400000113993883, 0.9920000471174717, 0.0, 0.0, 0.0, 0.0, 0.0, 1.6360738580793228E9, 0.0, 2021-11-04 19:57:38.079
2.0, 994.575904566329, 304.77753703901544, 91.08339347084984, 782.3085328312591, -0.06400000303983688, 0.2400000113993883, 0.9920000471174717, 0.0, 0.0, 0.0, 0.0, 0.0, 1.6360738580793228E9, 0.0, 2021-11-04 19:57:38.079
3.0, 946.7949427324347, 302.9113269611262, 87.21259701671079, 775.0157279176638, -0.06400000303983688, 0.2400000113993883, 0.9920000471174717, 0.0, 0.0, 0.0, 0.0, 0.0, 1.6360738580800912E9, 0.0, 2021-11-04 19:57:38.080
3.0, 968.1722108791582, 306.7671638154425, 112.63643691549078, 782.6862627267838, -0.06400000303983688, 0.2400000113993883, 0.9920000471174717, 0.0, 0.0, 0.0, 0.0, 0.0, 1.6360738580800912E9, 0.0, 2021-11-04 19:57:38.080
4.0, 992.4217221918516, 302.3578217676841, 102.26943423831835, 772.5810530465096, -0.06400000303983688, 0.2400000113993883, 0.9920000471174717, 0.0, 0.0, 0.0, 0.0, 0.0, 1.636073858094337E9, 0.0, 2021-11-04 19:57:38.094
4.0, 958.3923724950291, 310.2677101739682, 94.74849542742595, 774.8997910190374, -0.06400000303983688, 0.2400000113993883, 0.9920000471174717, 0.0, 0.0, 0.0, 0.0, 0.0, 1.636073858094337E9, 0.0, 2021-11-04 19:57:38.094
5.0, 955.5575283286162, 310.3612076728605, 105.3660714016296, 774.361245425418, -0.06400000303983688, 0.2400000113993883, 0.9920000471174717, 0.0, 0.0, 0.0, 0.0, 0.0, 1.6360738581102588E9, 0.0, 2021-11-04 19:57:38.110
5.0, 999.2806987105869, 306.9840780128725, 112.85709101287648, 773.5160280354321, -0.06400000303983688, 0.2400000113993883, 0.9920000471174717, 0.0, 0.0, 0.0, 0.0, 0.0, 1.6360738581102588E9, 0.0, 2021-11-04 19:57:38.110
6.0, 980.5475398325361, 308.15092679904774, 98.64173128129914, 769.7798679796979, -0.06400000303983688, 0.2400000113993883, 0.9920000471174717, 0.0, 0.0, 0.0, 0.0, 0.0, 1.6360738581110103E9, 0.0, 2021-11-04 19:57:38.111
6.0, 955.2919954317622, 310.6117809698917, 108.53376666409895, 775.8422458078712, -0.06400000303983688, 0.2400000113993883, 0.9920000471174717, 0.0, 0.0, 0.0, 0.0, 0.0, 1.6360738581110103E9, 0.0, 2021-11-04 19:57:38.111
7.0, 979.6836229427718, 297.8549822210334, 109.775413449388, 766.5598141178489, -0.06400000303983688, 0.2400000113993883, 0.9920000471174717, 0.0, 0.0, 0.0, 0.0, 0.0, 1.6360738581117587E9, 0.0, 2021-11-04 19:57:38.111
7.0, 996.8609834392555, 300.8618617854081, 95.61241231719032, 767.0572208119556, -0.06400000303983688, 0.2400000113993883, 0.9920000471174717, 0.0, 0.0, 0.0, 0.0, 0.0, 1.6360738581117587E9, 0.0, 2021-11-04 19:57:38.111
8.0, 957.2367434087209, 300.11014189431444, 103.20066932728514, 767.0235617123544, -0.06400000303983688, 0.2400000113993883, 0.9920000471174717, 0.0, 0.0, 0.0, 0.0, 0.0, 1.6360738581125183E9, 0.0, 2021-11-04 19:57:38.112
8.0, 961.5077091581188, 298.96199260791764, 102.35919183725491, 764.8506798380986, -0.06400000303983688, 0.2400000113993883, 0.9920000471174717, 0.0, 0.0, 0.0, 0.0, 0.0, 1.6360738581125183E9, 0.0, 2021-11-04 19:57:38.112
9.0, 988.8239384344779, 295.4651861493476, 97.37016529636458, 757.9318649200723, -0.06400000303983688, 0.2400000113993883, 0.9920000471174717, 0.0, 0.0, 0.0, 0.0, 0.0, 1.6360738581552365E9, 0.0, 2021-11-04 19:57:38.155
9.0, 963.9349042293616, 302.43261976679787, 93.951896736864, 766.8515263143927, -0.06400000303983688, 0.2400000113993883, 0.9920000471174717, 0.0, 0.0, 0.0, 0.0, 0.0, 1.6360738581552365E9, 0.0, 2021-11-04 19:57:38.155
10.0, 940.7325649042614, 303.0571830593981, 82.45170437311754, 767.2292562099174, -0.06400000303983688, 0.2400000113993883, 0.9920000471174717, 0.0, 0.0, 0.0, 0.0, 0.0, 1.6360738581560504E9, 0.0, 2021-11-04 19:57:38.156
10.0, 977.5369203682058, 304.02955704787746, 100.79965355573222, 762.7301565632224, -0.06400000303983688, 0.2400000113993883, 0.9920000471174717, 0.0, 0.0, 0.0, 0.0, 0.0, 1.6360738581560504E9, 0.0, 2021-11-04 19:57:38.156
11.0, 957.8949658009224, 300.4205535906367, 98.67539038090035, 761.600706776604, -0.06400000303983688, 0.2400000113993883, 0.9920000471174717, 0.0, 0.0, 0.0, 0.0, 0.0, 1.6360738581567776E9, 0.0, 2021-11-04 19:57:38.156
11.0, 917.3619300811552, 303.30027655651793, 95.67225071648136, 762.939590960741, -0.06400000303983688, 0.2400000113993883, 0.9920000471174717, 0.0, 0.0, 0.0, 0.0, 0.0, 1.6360738581567776E9, 0.0, 2021-11-04 19:57:38.156
12.0, 953.9269319479354, 304.44842584291473, 105.09679860481992, 769.1253854874521, -0.0800000037997961, 0.2400000113993883, 0.9920000471174717, 0.0, 0.0, 0.0, 0.0, 0.0, 1.6360738581575444E9, 0.0, 2021-11-04 19:57:38.157
12.0, 966.788447895553, 305.9107267255895, 107.13878398062661, 769.5741734821349, -0.0800000037997961, 0.2400000113993883, 0.9920000471174717, 0.0, 0.0, 0.0, 0.0, 0.0, 1.6360738581575444E9, 0.0, 2021-11-04 19:57:38.157
13.0, 922.8782825157978, 302.2082257694565, 96.24445540970191, 760.8452469855547, -0.0800000037997961, 0.2400000113993883, 0.9920000471174717, 0.0, 0.0, 0.0, 0.0, 0.0, 1.6360738581682413E9, 0.0, 2021-11-04 19:57:38.168
13.0, 940.6951659047045, 305.4918579305522, 94.56898022955284, 773.3664320372045, -0.0800000037997961, 0.2400000113993883, 0.9920000471174717, 0.0, 0.0, 0.0, 0.0, 0.0, 1.6360738581682413E9, 0.0, 2021-11-04 19:57:38.168
14.0, 984.8708641813137, 309.85632117884234, 95.399238019716, 771.1037925640121, -0.0800000037997961, 0.2400000113993883, 0.9920000471174717, 0.0, 0.0, 0.0, 0.0, 0.0, 1.6360738581839008E9, 0.0, 2021-11-04 19:57:38.183
14.0, 945.0596291529946, 309.78152317972854, 99.69264316884801, 767.2367360098287, -0.0800000037997961, 0.2400000113993883, 0.9920000471174717, 0.0, 0.0, 0.0, 0.0, 0.0, 1.6360738581839008E9, 0.0, 2021-11-04 19:57:38.183
15.0, 938.4175668316893, 310.0844550761394, 97.62821839330718, 771.1112723639235, -0.0800000037997961, 0.2400000113993883, 0.9920000471174717, 0.0, 0.0, 0.0, 0.0, 0.0, 1.6360738581846335E9, 0.0, 2021-11-04 19:57:38.184
15.0, 992.331964592915, 317.9793838826008, 113.46669470565394, 781.7251084381714, -0.0800000037997961, 0.2400000113993883, 0.9920000471174717, 0.0, 0.0, 0.0, 0.0, 0.0, 1.6360738581846335E9, 0.0, 2021-11-04 19:57:38.184
16.0, 972.2861008304171, 300.1550206937827, 92.5082953539677, 758.3507337151095, -0.0800000037997961, 0.2400000113993883, 0.9920000471174717, 0.0, 0.0, 0.0, 0.0, 0.0, 1.6360738582309391E9, 0.0, 2021-11-04 19:57:38.230
16.0, 941.3795675965957, 304.8336355383508, 84.8751595444046, 759.0575748067349, -0.0800000037997961, 0.2400000113993883, 0.9920000471174717, 0.0, 0.0, 0.0, 0.0, 0.0, 1.6360738582309391E9, 0.0, 2021-11-04 19:57:38.230
17.0, 987.1858622538857, 306.7671638154425, 113.48913410538808, 769.1927036866546, -0.0800000037997961, 0.2400000113993883, 0.9920000471174717, 0.0, 0.0, 0.0, 0.0, 0.0, 1.6360738582316597E9, 0.0, 2021-11-04 19:57:38.231
17.0, 998.5177591196261, 308.3603611965664, 111.46958812931553, 759.7419764986262, -0.0800000037997961, 0.2400000113993883, 0.9920000471174717, 0.0, 0.0, 0.0, 0.0, 0.0, 1.6360738582316597E9, 0.0, 2021-11-04 19:57:38.231
18.0, 945.5383363473229, 305.95934542501345, 79.85247390391305, 754.0610684659332, -0.0800000037997961, 0.2400000113993883, 0.9920000471174717, 0.0, 0.0, 0.0, 0.0, 0.0, 1.6360738582324085E9, 0.0, 2021-11-04 19:57:38.232
18.0, 958.8748195893131, 307.67221960471943, 87.53048851294443, 760.0187290953472, -0.0800000037997961, 0.2400000113993883, 0.9920000471174717, 0.0, 0.0, 0.0, 0.0, 0.0, 1.6360738582324085E9, 0.0, 2021-11-04 19:57:38.232
19.0, 990.5218530143611, 313.65979943377897, 109.38272395404056, 763.567894153297, -0.0800000037997961, 0.2400000113993883, 0.9920000471174717, 0.0, 0.0, 0.0, 0.0, 0.0, 1.6360738582331617E9, 0.0, 2021-11-04 19:57:38.233
19.0, 945.3812605491839, 306.87936081411317, 89.0975065943785, 756.1628922410309, -0.0800000037997961, 0.2400000113993883, 0.9920000471174717, 0.0, 0.0, 0.0, 0.0, 0.0, 1.6360738582331617E9, 0.0, 2021-11-04 19:57:38.233
20.0, 932.5870628007688, 321.6931045386009, 104.11694481642917, 761.697944175452, -0.0800000037997961, 0.2400000113993883, 0.9920000471174717, 0.0, 0.0, 0.0, 0.0, 0.0, 1.636073858260364E9, 0.0, 2021-11-04 19:57:38.260
20.0, 972.2599215307273, 310.52576327091083, 109.83899174863473, 751.8657471919432, -0.0800000037997961, 0.2400000113993883, 0.9920000471174717, 0.0, 0.0, 0.0, 0.0, 0.0, 1.636073858260364E9, 0.0, 2021-11-04 19:57:38.260
21.0, 944.5809219586663, 304.7176986397244, 107.15000368049368, 745.6612531654537, -0.0800000037997961, 0.2400000113993883, 0.9920000471174717, 0.0, 0.0, 0.0, 0.0, 0.0, 1.636073858261096E9, 0.0, 2021-11-04 19:57:38.261
21.0, 917.0028996854089, 319.1013538693078, 106.14771049236879, 758.7322035105899, -0.0800000037997961, 0.2400000113993883, 0.9920000471174717, 0.0, 0.0, 0.0, 0.0, 0.0, 1.636073858261096E9, 0.0, 2021-11-04 19:57:38.261
22.0, 945.6729727457277, 310.2490106741898, 104.83500560792163, 754.1470861649141, -0.06400000303983688, 0.2400000113993883, 0.9920000471174717, 0.0, 0.0, 0.0, 0.0, 0.0, 1.6360738582617671E9, 0.0, 2021-11-04 19:57:38.261
22.0, 953.2013913565315, 313.3793069371022, 102.84911873145029, 753.4776440728456, -0.06400000303983688, 0.2400000113993883, 0.9920000471174717, 0.0, 0.0, 0.0, 0.0, 0.0, 1.6360738582617671E9, 0.0, 2021-11-04 19:57:38.261
23.0, 914.4822071152739, 307.28700990928337, 98.41733728395775, 751.3272015983239, -0.06400000303983688, 0.2400000113993883, 0.9920000471174717, 0.0, 0.0, 0.0, 0.0, 0.0, 1.636073858262562E9, 0.0, 2021-11-04 19:57:38.262
23.0, 924.6996137942187, 311.8721272549592, 104.41239691292867, 752.1611992884427, -0.06400000303983688, 0.2400000113993883, 0.9920000471174717, 0.0, 0.0, 0.0, 0.0, 0.0, 1.636073858262562E9, 0.0, 2021-11-04 19:57:38.262
24.0, 959.1852312856354, 308.81288909120485, 94.6923969280906, 748.7504105288535, -0.06400000303983688, 0.2400000113993883, 0.9920000471174717, 0.0, 0.0, 0.0, 0.0, 0.0, 1.6360738582732491E9, 0.0, 2021-11-04 19:57:38.273
24.0, 922.5678708194755, 311.247563962359, 102.44520953623578, 755.0222227545455, -0.06400000303983688, 0.2400000113993883, 0.9920000471174717, 0.0, 0.0, 0.0, 0.0, 0.0, 1.6360738582732491E9, 0.0, 2021-11-04 19:57:38.273
25.0, 908.1991751897149, 313.95899143023416, 107.28464007889852, 755.6991446465254, -0.06400000303983688, 0.2400000113993883, 0.9920000471174717, 0.0, 0.0, 0.0, 0.0, 0.0, 1.6360738582884324E9, 0.0, 2021-11-04 19:57:38.288
25.0, 959.8845925773494, 316.0682950052433, 118.35848384769633, 760.890125785023, -0.06400000303983688, 0.2400000113993883, 0.9920000471174717, 0.0, 0.0, 0.0, 0.0, 0.0, 1.6360738582884324E9, 0.0, 2021-11-04 19:57:38.288
26.0, 938.2230920339935, 309.81518227932975, 109.60337805142626, 758.3170746155083, -0.06400000303983688, 0.2400000113993883, 0.9920000471174717, 0.0, 0.0, 0.0, 0.0, 0.0, 1.636073858336441E9, 0.0, 2021-11-04 19:57:38.336
26.0, 903.9805680396967, 316.21789100347087, 118.08547115093097, 765.7033770279959, -0.06400000303983688, 0.2400000113993883, 0.9920000471174717, 0.0, 0.0, 0.0, 0.0, 0.0, 1.636073858336441E9, 0.0, 2021-11-04 19:57:38.336
27.0, 939.820029315073, 326.9514038763009, 125.2623391658999, 768.5344812944531, -0.06400000303983688, 0.2400000113993883, 0.9920000471174717, 0.0, 0.0, 0.0, 0.0, 0.0, 1.6360738583371572E9, 0.0, 2021-11-04 19:57:38.337
27.0, 949.8130419966765, 311.7599302562885, 106.15145039232448, 763.9792831484228, -0.06400000303983688, 0.2400000113993883, 0.9920000471174717, 0.0, 0.0, 0.0, 0.0, 0.0, 1.6360738583371572E9, 0.0, 2021-11-04 19:57:38.337
28.0, 903.6925957431085, 315.9037394071929, 95.6198921171017, 762.5356817655265, -0.06400000303983688, 0.2400000113993883, 0.9920000471174717, 0.0, 0.0, 0.0, 0.0, 0.0, 1.6360738583379035E9, 0.0, 2021-11-04 19:57:38.337
28.0, 911.7819993472658, 312.99409724166617, 106.4768216884695, 761.4211915787309, -0.06400000303983688, 0.2400000113993883, 0.9920000471174717, 0.0, 0.0, 0.0, 0.0, 0.0, 1.6360738583379035E9, 0.0, 2021-11-04 19:57:38.337
29.0, 945.0259700533934, 311.9843242536299, 97.27292789751664, 758.3320342153311, -0.06400000303983688, 0.2400000113993883, 0.9920000471174717, 0.0, 0.0, 0.0, 0.0, 0.0, 1.6360738583386548E9, 0.0, 2021-11-04 19:57:38.338
29.0, 923.1550351125188, 316.7938355966471, 122.89872239390388, 764.1774978460744, -0.06400000303983688, 0.2400000113993883, 0.9920000471174717, 0.0, 0.0, 0.0, 0.0, 0.0, 1.6360738583386548E9, 0.0, 2021-11-04 19:57:38.338
30.0, 915.0618916084059, 325.67235809145495, 108.27197366720065, 773.9909953298047, -0.06400000303983688, 0.2400000113993883, 0.9920000471174717, 0.0, 0.0, 0.0, 0.0, 0.0, 1.636073858365224E9, 0.0, 2021-11-04 19:57:38.365
30.0, 961.5750273573212, 316.74521689722314, 108.79181976104155, 770.6400449695066, -0.06400000303983688, 0.2400000113993883, 0.9920000471174717, 0.0, 0.0, 0.0, 0.0, 0.0, 1.636073858365224E9, 0.0, 2021-11-04 19:57:38.365
31.0, 953.3135883552022, 308.6445935931988, 106.22624839143828, 764.7721419390291, -0.06400000303983688, 0.2400000113993883, 0.9920000471174717, 0.0, 0.0, 0.0, 0.0, 0.0, 1.6360738583659613E9, 0.0, 2021-11-04 19:57:38.365
31.0, 929.3782286387868, 308.36410109652206, 93.56294714147225, 761.4361511785537, -0.06400000303983688, 0.2400000113993883, 0.9920000471174717, 0.0, 0.0, 0.0, 0.0, 0.0, 1.6360738583659613E9, 0.0, 2021-11-04 19:57:38.365
32.0, 976.6430842787959, 314.92762551875785, 93.15155814634636, 769.1814839867875, -0.06400000303983688, 0.2400000113993883, 0.9920000471174717, 0.0, 0.0, 0.0, 0.0, 0.0, 1.636073858366702E9, 0.0, 2021-11-04 19:57:38.366
32.0, 995.0957506601699, 312.694905245211, 95.73956891568378, 766.5037156185135, -0.06400000303983688, 0.2400000113993883, 0.9920000471174717, 0.0, 0.0, 0.0, 0.0, 0.0, 1.636073858366702E9, 0.0, 2021-11-04 19:57:38.366
33.0, 959.0131958876736, 314.6770522217266, 117.05325876316056, 768.8673323905095, -0.06400000303983688, 0.2400000113993883, 0.9920000471174717, 0.0, 0.0, 0.0, 0.0, 0.0, 1.6360738583674257E9, 0.0, 2021-11-04 19:57:38.367
33.0, 970.4498099521734, 308.3416616967879, 104.5507732112892, 770.1052392758429, -0.06400000303983688, 0.2400000113993883, 0.9920000471174717, 0.0, 0.0, 0.0, 0.0, 0.0, 1.6360738583674257E9, 0.0, 2021-11-04 19:57:38.367
34.0, 1005.2084401403554, 305.7910499270074, 80.05068860156462, 773.4599295360968, -0.06400000303983688, 0.2400000113993883, 0.9920000471174717, 0.0, 0.0, 0.0, 0.0, 0.0, 1.6360738583782172E9, 0.0, 2021-11-04 19:57:38.378
34.0, 968.1834305790253, 297.29025732772425, 82.97155046695843, 765.882892225869, -0.06400000303983688, 0.2400000113993883, 0.9920000471174717, 0.0, 0.0, 0.0, 0.0, 0.0, 1.6360738583782172E9, 0.0, 2021-11-04 19:57:38.378
35.0, 964.7651620195247, 305.0580295356922, 94.72605602769181, 779.885077659972, -0.06400000303983688, 0.2400000113993883, 0.9920000471174717, 0.0, 0.0, 0.0, 0.0, 0.0, 1.636073858393849E9, 0.0, 2021-11-04 19:57:38.393
35.0, 994.1383362715133, 300.17746009351686, 95.60119261732325, 778.2170822797343, -0.06400000303983688, 0.2400000113993883, 0.9920000471174717, 0.0, 0.0, 0.0, 0.0, 0.0, 1.636073858393849E9, 0.0, 2021-11-04 19:57:38.393
36.0, 978.9730419511907, 300.7870637862943, 90.5785069768317, 776.941776394844, -0.06400000303983688, 0.2400000113993883, 0.9920000471174717, 0.0, 0.0, 0.0, 0.0, 0.0, 1.6360738583945708E9, 0.0, 2021-11-04 19:57:38.394
36.0, 943.3243155735545, 307.25335080968216, 95.6946901162155, 783.2659472199157, -0.06400000303983688, 0.2400000113993883, 0.9920000471174717, 0.0, 0.0, 0.0, 0.0, 0.0, 1.6360738583945708E9, 0.0, 2021-11-04 19:57:38.394
37.0, 968.2133497786708, 305.3422619323246, 95.04394752392545, 776.979175394401, -0.06400000303983688, 0.2400000113993883, 0.9920000471174717, 0.0, 0.0, 0.0, 0.0, 0.0, 1.6360738584082177E9, 0.0, 2021-11-04 19:57:38.408
37.0, 971.9607295342721, 300.7534046866931, 95.83306641457602, 778.1946428800002, -0.06400000303983688, 0.2400000113993883, 0.9920000471174717, 0.0, 0.0, 0.0, 0.0, 0.0, 1.6360738584082177E9, 0.0, 2021-11-04 19:57:38.408
38.0, 932.2542117047124, 295.54746394837275, 99.52434767084196, 777.4840618884191, -0.06400000303983688, 0.2400000113993883, 0.9920000471174717, 0.0, 0.0, 0.0, 0.0, 0.0, 1.6360738584238844E9, 0.0, 2021-11-04 19:57:38.423
38.0, 944.3527880613692, 304.1604535463266, 105.2912734025158, 787.7650468666106, -0.06400000303983688, 0.2400000113993883, 0.9920000471174717, 0.0, 0.0, 0.0, 0.0, 0.0, 1.6360738584238844E9, 0.0, 2021-11-04 19:57:38.423
39.0, 975.0648464974947, 303.58824885310605, 105.65778359817341, 781.3511184426025, -0.06400000303983688, 0.2400000113993883, 0.9920000471174717, 0.0, 0.0, 0.0, 0.0, 0.0, 1.636073858424579E9, 0.0, 2021-11-04 19:57:38.424
39.0, 945.6916722455062, 308.786709791515, 115.20574818504974, 787.8174054659903, -0.06400000303983688, 0.2400000113993883, 0.9920000471174717, 0.0, 0.0, 0.0, 0.0, 0.0, 1.636073858424579E9, 0.0, 2021-11-04 19:57:38.424
40.0, 932.6992597994395, 302.33164246799424, 115.1496496857144, 788.9692946523428, -0.06400000303983688, 0.2400000113993883, 0.9920000471174717, 0.0, 0.0, 0.0, 0.0, 0.0, 1.6360738584382555E9, 0.0, 2021-11-04 19:57:38.438
40.0, 964.6043463214301, 308.1621464989148, 108.61978436307982, 786.3925035828725, -0.06400000303983688, 0.2400000113993883, 0.9920000471174717, 0.0, 0.0, 0.0, 0.0, 0.0, 1.6360738584382555E9, 0.0, 2021-11-04 19:57:38.438
41.0, 952.2589365676977, 305.7536509274505, 99.71508256858215, 787.555612469092, -0.06400000303983688, 0.2400000113993883, 0.9920000471174717, 0.0, 0.0, 0.0, 0.0, 0.0, 1.6360738584722748E9, 0.0, 2021-11-04 19:57:38.472
41.0, 930.111249030102, 313.1997917392291, 92.14178515831009, 797.2419533543289, -0.06400000303983688, 0.2400000113993883, 0.9920000471174717, 0.0, 0.0, 0.0, 0.0, 0.0, 1.6360738584722748E9, 0.0, 2021-11-04 19:57:38.472
42.0, 964.376212424133, 311.4719579597004, 115.0000536874868, 792.4661011109129, -0.06400000303983688, 0.2400000113993883, 0.9920000471174717, 0.0, 0.0, 0.0, 0.0, 0.0, 1.6360738584730513E9, 0.0, 2021-11-04 19:57:38.473
42.0, 967.0128418928944, 306.9466790133156, 91.30404756823555, 785.0797986984253, -0.06400000303983688, 0.2400000113993883, 0.9920000471174717, 0.0, 0.0, 0.0, 0.0, 0.0, 1.6360738584730513E9, 0.0, 2021-11-04 19:57:38.473
43.0, 924.1648081005551, 301.84545547375455, 83.45399756124243, 777.5364204877988, -0.06400000303983688, 0.2400000113993883, 0.9920000471174717, 0.0, 0.0, 0.0, 0.0, 0.0, 1.636073858473793E9, 0.0, 2021-11-04 19:57:38.473
43.0, 933.1817068937235, 304.3773677437566, 103.70555582130328, 785.4650083938614, -0.06400000303983688, 0.2400000113993883, 0.9920000471174717, 0.0, 0.0, 0.0, 0.0, 0.0, 1.636073858473793E9, 0.0, 2021-11-04 19:57:38.473
44.0, 960.5502947694622, 305.80600952683017, 105.41843000100926, 778.5499333757907, -0.06400000303983688, 0.2400000113993883, 0.9920000471174717, 0.0, 0.0, 0.0, 0.0, 0.0, 1.636073858474483E9, 0.0, 2021-11-04 19:57:38.474
44.0, 926.7266395702027, 302.7617309628986, 100.10029226401821, 770.6699641691521, -0.06400000303983688, 0.2400000113993883, 0.9920000471174717, 0.0, 0.0, 0.0, 0.0, 0.0, 1.636073858474483E9, 0.0, 2021-11-04 19:57:38.474
45.0, 909.5791982733645, 304.06321614747867, 78.81652161618695, 774.6192985223606, -0.06400000303983688, 0.2400000113993883, 0.9920000471174717, 0.0, 0.0, 0.0, 0.0, 0.0, 1.6360738584989977E9, 0.0, 2021-11-04 19:57:38.498
45.0, 957.0497484109364, 313.6410999340005, 108.83669856050983, 777.8692715838552, -0.06400000303983688, 0.2400000113993883, 0.9920000471174717, 0.0, 0.0, 0.0, 0.0, 0.0, 1.6360738584989977E9, 0.0, 2021-11-04 19:57:38.498
46.0, 951.7577899736352, 317.2127043916844, 103.48490172391757, 782.61146472767, -0.06400000303983688, 0.2400000113993883, 0.9920000471174717, 0.0, 0.0, 0.0, 0.0, 0.0, 1.6360738584995584E9, 0.0, 2021-11-04 19:57:38.499
46.0, 914.661722313147, 303.40499375527725, 86.25892252800986, 772.0649468526244, -0.06400000303983688, 0.2400000113993883, 0.9920000471174717, 0.0, 0.0, 0.0, 0.0, 0.0, 1.6360738584995584E9, 0.0, 2021-11-04 19:57:38.499
47.0, 948.5863548112102, 317.59791408712044, 96.61096560535952, 779.3465320663527, -0.06400000303983688, 0.2400000113993883, 0.9920000471174717, 0.0, 0.0, 0.0, 0.0, 0.0, 1.6360738585139096E9, 0.0, 2021-11-04 19:57:38.513
47.0, 965.0119954166003, 305.58909532940015, 102.25821453845128, 773.1495178397745, -0.06400000303983688, 0.2400000113993883, 0.9920000471174717, 0.0, 0.0, 0.0, 0.0, 0.0, 1.6360738585139096E9, 0.0, 2021-11-04 19:57:38.513
48.0, 929.4231074382551, 311.51683675916865, 106.31974589033052, 772.7979672439396, -0.06400000303983688, 0.2400000113993883, 0.9920000471174717, 0.0, 0.0, 0.0, 0.0, 0.0, 1.6360738585146089E9, 0.0, 2021-11-04 19:57:38.514
48.0, 948.5115568120964, 314.59477442270145, 111.73138112621382, 780.2291484558955, -0.06400000303983688, 0.2400000113993883, 0.9920000471174717, 0.0, 0.0, 0.0, 0.0, 0.0, 1.6360738585146089E9, 0.0, 2021-11-04 19:57:38.514
49.0, 976.9273166754283, 302.10724847065285, 81.50550968432799, 775.5879326108843, -0.06400000303983688, 0.2400000113993883, 0.9920000471174717, 0.0, 0.0, 0.0, 0.0, 0.0, 1.6360738585284278E9, 0.0, 2021-11-04 19:57:38.528
49.0, 955.7632228261791, 319.4940433646552, 93.08423994714394, 784.6048314040527, -0.06400000303983688, 0.2400000113993883, 0.9920000471174717, 0.0, 0.0, 0.0, 0.0, 0.0, 1.6360738585284278E9, 0.0, 2021-11-04 19:57:38.528
50.0, 944.162053163629, 308.81662899116054, 87.52674861298874, 783.2322881203145, -0.06400000303983688, 0.2400000113993883, 0.9920000471174717, 0.0, 0.0, 0.0, 0.0, 0.0, 1.6360738585436852E9, 0.0, 2021-11-04 19:57:38.543
50.0, 982.4474090100266, 313.99639042979106, 100.40696406038478, 786.5159202814102, -0.06400000303983688, 0.2400000113993883, 0.9920000471174717, 0.0, 0.0, 0.0, 0.0, 0.0, 1.6360738585436852E9, 0.0, 2021-11-04 19:57:38.543
51.0, 964.3500331244431, 305.6863327282481, 96.1733973105438, 784.986301199533, -0.06400000303983688, 0.2400000113993883, 0.9920000471174717, 0.0, 0.0, 0.0, 0.0, 0.0, 1.636073858558859E9, 0.0, 2021-11-04 19:57:38.558
51.0, 932.4225072027184, 306.4904112187214, 105.3997305012308, 781.549333140254, -0.06400000303983688, 0.2400000113993883, 0.9920000471174717, 0.0, 0.0, 0.0, 0.0, 0.0, 1.636073858558859E9, 0.0, 2021-11-04 19:57:38.558
52.0, 960.5390750695951, 311.0456093647517, 109.00499405851588, 792.6044774092734, -0.06400000303983688, 0.2400000113993883, 0.9920000471174717, 0.0, 0.0, 0.0, 0.0, 0.0, 1.6360738585596285E9, 0.0, 2021-11-04 19:57:38.559
52.0, 963.6731112324633, 306.9092800137587, 104.56947271106765, 791.1309568267316, -0.06400000303983688, 0.2400000113993883, 0.9920000471174717, 0.0, 0.0, 0.0, 0.0, 0.0, 1.6360738585596285E9, 0.0, 2021-11-04 19:57:38.559
53.0, 925.7505256817676, 318.9106189715676, 99.08303947607055, 794.6502026850358, -0.06400000303983688, 0.2400000113993883, 0.9920000471174717, 0.0, 0.0, 0.0, 0.0, 0.0, 1.6360738585903325E9, 0.0, 2021-11-04 19:57:38.590
53.0, 933.0994290946983, 308.70817189244553, 93.59660624107346, 792.970987604931, -0.06400000303983688, 0.2400000113993883, 0.9920000471174717, 0.0, 0.0, 0.0, 0.0, 0.0, 1.6360738585903325E9, 0.0, 2021-11-04 19:57:38.590
54.0, 979.4442693456076, 318.96297757094726, 102.81171973189339, 796.3443773649633, -0.06400000303983688, 0.2400000113993883, 0.9920000471174717, 0.0, 0.0, 0.0, 0.0, 0.0, 1.6360738585910635E9, 0.0, 2021-11-04 19:57:38.591
54.0, 948.4666780126281, 310.5407228707336, 94.2473488333635, 787.4321957705542, -0.06400000303983688, 0.2400000113993883, 0.9920000471174717, 0.0, 0.0, 0.0, 0.0, 0.0, 1.6360738585910635E9, 0.0, 2021-11-04 19:57:38.591
55.0, 946.4097330369987, 309.7291645803489, 94.8419929263182, 790.667209232226, -0.06400000303983688, 0.2400000113993883, 0.9920000471174717, 0.0, 0.0, 0.0, 0.0, 0.0, 1.6360738585918062E9, 0.0, 2021-11-04 19:57:38.591
55.0, 1000.1633151001297, 323.1067867218517, 112.05675242235884, 798.0497717447579, -0.06400000303983688, 0.2400000113993883, 0.9920000471174717, 0.0, 0.0, 0.0, 0.0, 0.0, 1.6360738585918062E9, 0.0, 2021-11-04 19:57:38.591
56.0, 989.8972897217609, 302.3129429682158, 87.27617531595752, 793.1654624026269, -0.06400000303983688, 0.2400000113993883, 0.9920000471174717, 0.0, 0.0, 0.0, 0.0, 0.0, 1.6360738585925133E9, 0.0, 2021-11-04 19:57:38.592
56.0, 968.0637537804432, 310.62674056971446, 97.96106948936358, 800.3460703175515, -0.06400000303983688, 0.2400000113993883, 0.9920000471174717, 0.0, 0.0, 0.0, 0.0, 0.0, 1.6360738585925133E9, 0.0, 2021-11-04 19:57:38.592
57.0, 998.1736883237027, 303.7976832506247, 88.14757200563326, 799.8673631232232, -0.06400000303983688, 0.2400000113993883, 0.9920000471174717, 0.0, 0.0, 0.0, 0.0, 0.0, 1.636073858603253E9, 0.0, 2021-11-04 19:57:38.603
57.0, 1013.9672858365811, 302.92254666099325, 93.92571743717417, 802.148702096194, -0.06400000303983688, 0.2400000113993883, 0.9920000471174717, 0.0, 0.0, 0.0, 0.0, 0.0, 1.636073858603253E9, 0.0, 2021-11-04 19:57:38.603
58.0, 966.9866625932045, 300.5776293887757, 106.22998829139397, 806.7712184414268, -0.06400000303983688, 0.2400000113993883, 0.9920000471174717, 0.0, 0.0, 0.0, 0.0, 0.0, 1.6360738586182053E9, 0.0, 2021-11-04 19:57:38.618
58.0, 987.6795290480368, 309.71046508057043, 114.76443999027833, 822.519937154837, -0.06400000303983688, 0.2400000113993883, 0.9920000471174717, 0.0, 0.0, 0.0, 0.0, 0.0, 1.6360738586182053E9, 0.0, 2021-11-04 19:57:38.618
59.0, 1013.185646745842, 306.66618651663885, 102.52000753534958, 819.20264589414, -0.06400000303983688, 0.2400000113993883, 0.9920000471174717, 0.0, 0.0, 0.0, 0.0, 0.0, 1.6360738586344535E9, 0.0, 2021-11-04 19:57:38.634
59.0, 986.3219453641213, 301.40414727898315, 87.14901871746406, 823.1594600472599, -0.06400000303983688, 0.2400000113993883, 0.9920000471174717, 0.0, 0.0, 0.0, 0.0, 0.0, 1.6360738586344535E9, 0.0, 2021-11-04 19:57:38.634
60.0, 972.166424031835, 300.1325812940486, 106.04673319356516, 825.5380364190787, -0.06400000303983688, 0.2400000113993883, 0.9920000471174717, 0.0, 0.0, 0.0, 0.0, 0.0, 1.636073858649362E9, 0.0, 2021-11-04 19:57:38.649
60.0, 1008.5593905006535, 308.2070252983831, 115.05989208677784, 823.0210837488994, -0.06400000303983688, 0.2400000113993883, 0.9920000471174717, 0.0, 0.0, 0.0, 0.0, 0.0, 1.636073858649362E9, 0.0, 2021-11-04 19:57:38.649
61.0, 991.9617144973017, 303.59198875306174, 99.98435536539182, 829.2480171751231, -0.06400000303983688, 0.2400000113993883, 0.9920000471174717, 0.0, 0.0, 0.0, 0.0, 0.0, 1.6360738586650574E9, 0.0, 2021-11-04 19:57:38.665
61.0, 956.4700639178045, 312.67246584547684, 101.41299714846537, 829.334034874104, -0.06400000303983688, 0.2400000113993883, 0.9920000471174717, 0.0, 0.0, 0.0, 0.0, 0.0, 1.6360738586650574E9, 0.0, 2021-11-04 19:57:38.665
62.0, 986.4528418625705, 298.88345470884815, 95.36557892011479, 834.4539579134434, -0.06400000303983688, 0.2400000113993883, 0.9920000471174717, 0.0, 0.0, 0.0, 0.0, 0.0, 1.6360738586657593E9, 0.0, 2021-11-04 19:57:38.665
62.0, 999.2657391107641, 294.5339510603808, 89.62109258817509, 833.9453315194696, -0.06400000303983688, 0.2400000113993883, 0.9920000471174717, 0.0, 0.0, 0.0, 0.0, 0.0, 1.6360738586657593E9, 0.0, 2021-11-04 19:57:38.665
63.0, 970.6555044497363, 307.40294680790976, 91.68177746376023, 844.4768897946924, -0.06400000303983688, 0.2400000113993883, 0.9920000471174717, 0.0, 0.0, 0.0, 0.0, 0.0, 1.6360738587111328E9, 0.0, 2021-11-04 19:57:38.711
63.0, 973.1612374200486, 305.2338048336096, 94.74101562751457, 846.8442464666441, -0.06400000303983688, 0.2400000113993883, 0.9920000471174717, 0.0, 0.0, 0.0, 0.0, 0.0, 1.6360738587111328E9, 0.0, 2021-11-04 19:57:38.711
64.0, 1004.452980349306, 306.10520152328536, 98.04334728838876, 846.1561048747972, -0.06400000303983688, 0.2400000113993883, 0.9920000471174717, 0.0, 0.0, 0.0, 0.0, 0.0, 1.6360738587116015E9, 0.0, 2021-11-04 19:57:38.711
64.0, 975.8352658883668, 306.1351207229309, 86.47957662539557, 850.0456008287147, -0.06400000303983688, 0.2400000113993883, 0.9920000471174717, 0.0, 0.0, 0.0, 0.0, 0.0, 1.6360738587116015E9, 0.0, 2021-11-04 19:57:38.711
65.0, 950.2206910918467, 305.0430699358694, 97.31780669698492, 848.0559740522876, -0.06400000303983688, 0.2400000113993883, 0.9920000471174717, 0.0, 0.0, 0.0, 0.0, 0.0, 1.636073858712395E9, 0.0, 2021-11-04 19:57:38.712
65.0, 984.4071165868081, 296.99106533126906, 97.05975360004231, 852.3605989012867, -0.06400000303983688, 0.2400000113993883, 0.9920000471174717, 0.0, 0.0, 0.0, 0.0, 0.0, 1.636073858712395E9, 0.0, 2021-11-04 19:57:38.712
66.0, 971.4296637405641, 303.3040164564736, 107.46789517672732, 855.9883018583059, -0.06400000303983688, 0.2400000113993883, 0.9920000471174717, 0.0, 0.0, 0.0, 0.0, 0.0, 1.6360738587131836E9, 0.0, 2021-11-04 19:57:38.713
66.0, 939.6779131167568, 299.32850280357525, 96.12851851107553, 862.9482556758448, -0.06400000303983688, 0.2400000113993883, 0.9920000471174717, 0.0, 0.0, 0.0, 0.0, 0.0, 1.6360738587131836E9, 0.0, 2021-11-04 19:57:38.713
67.0, 963.9910027286969, 298.0457171187736, 104.00474781775847, 865.1847158493474, -0.06400000303983688, 0.2400000113993883, 0.9920000471174717, 0.0, 0.0, 0.0, 0.0, 0.0, 1.6360738587245567E9, 0.0, 2021-11-04 19:57:38.724
67.0, 968.0338345807977, 298.44588641403243, 98.16302408697084, 863.4905411694199, -0.06400000303983688, 0.2400000113993883, 0.9920000471174717, 0.0, 0.0, 0.0, 0.0, 0.0, 1.6360738587245567E9, 0.0, 2021-11-04 19:57:38.724
68.0, 931.0836230185814, 292.18155398825184, 95.33565972046927, 865.2482941485941, -0.06400000303983688, 0.2400000113993883, 0.9920000471174717, 0.0, 0.0, 0.0, 0.0, 0.0, 1.6360738587253404E9, 0.0, 2021-11-04 19:57:38.725
68.0, 939.9434460136108, 296.7965905335732, 110.68794903857633, 871.1909951781854, -0.06400000303983688, 0.2400000113993883, 0.9920000471174717, 0.0, 0.0, 0.0, 0.0, 0.0, 1.6360738587253404E9, 0.0, 2021-11-04 19:57:38.725
69.0, 970.6218453501351, 299.91940699657425, 104.6218313104473, 876.9167820103467, -0.06400000303983688, 0.2400000113993883, 0.9920000471174717, 0.0, 0.0, 0.0, 0.0, 0.0, 1.6360738587260437E9, 0.0, 2021-11-04 19:57:38.726
69.0, 935.9941116604023, 294.58630965976045, 92.88602524949238, 872.5336192622781, -0.06400000303983688, 0.2400000113993883, 0.9920000471174717, 0.0, 0.0, 0.0, 0.0, 0.0, 1.6360738587260437E9, 0.0, 2021-11-04 19:57:38.726
70.0, 939.2403448219411, 306.8045628149994, 118.49686014605686, 890.8591290451586, -0.06400000303983688, 0.2400000113993883, 0.9920000471174717, 0.0, 0.0, 0.0, 0.0, 0.0, 1.6360738587381942E9, 0.0, 2021-11-04 19:57:38.738
