%OpenBCI Raw EEG Data
%Number of channels = 4
%Sample Rate = 200 Hz
%Board = OpenBCI_GUI$BoardGanglionBLE
Sample Index, EXG Channel 0, EXG Channel 1, EXG Channel 2, EXG Channel 3, Accel Channel 0, Accel Channel 1, Accel Channel 2, Other, Other, Other, Other, Other, Timestamp, Other, Timestamp (Formatted)
0.0, 2003.045537468046, 1639.5253918250091, 1070.8679937124252, 2290.8140095085837, 0.0, 0.0, 0.0, 0.0, 0.0, 0.0, 0.0, 0.0, 1.6360727681620078E9, 0.0, 2021-11-04 19:39:28.162
1.0, 2046.7500083502382, 1688.8733717403375, 1111.322491533123, 2367.0256908056326, 0.0, 0.144000006839633, 0.0, 0.0, 0.0, 0.0, 0.0, 0.0, 1.636072768162694E9, 0.0, 2021-11-04 19:39:28.162
1.0, 2058.7438675081357, 1719.3124174796976, 1172.817666504532, 2404.6827434594743, 0.0, 0.144000006839633, 0.0, 0.0, 0.0, 0.0, 0.0, 0.0, 1.636072768162694E9, 0.0, 2021-11-04 19:39:28.162
2.0, 2118.574786999263, 1802.3007974964567, 1239.3130877166986, 2506.9203885481693, -0.06400000303983688, 0.144000006839633, 0.0, 0.0, 0.0, 0.0, 0.0, 0.0, 1.6360727681644528E9, 0.0, 2021-11-04 19:39:28.164
2.0, 2226.9683074150234, 1893.2589043187909, 1322.260328833945, 2598.465659663547, -0.06400000303983688, 0.144000006839633, 0.0, 0.0, 0.0, 0.0, 0.0, 0.0, 1.6360727681644528E9, 0.0, 2021-11-04 19:39:28.164
3.0, 2304.305698598735, 1956.2687387722544, 1370.7892706589773, 2665.8249977654777, -0.06400000303983688, 0.144000006839633, 0.0, 0.0, 0.0, 0.0, 0.0, 0.0, 1.63607276817356E9, 0.0, 2021-11-04 19:39:28.173
3.0, 2251.2589576272294, 1945.359450601507, 1375.086415708065, 2660.574178227689, -0.06400000303983688, 0.144000006839633, 0.0, 0.0, 0.0, 0.0, 0.0, 0.0, 1.63607276817356E9, 0.0, 2021-11-04 19:39:28.173
4.0, 2240.7273993520066, 1898.3489081584848, 1309.0734415901825, 2627.7154172169976, -0.06400000303983688, 0.144000006839633, 0.0, 0.0, 0.0, 0.0, 0.0, 0.0, 1.6360727681895435E9, 0.0, 2021-11-04 19:39:28.189
4.0, 2262.0971876988187, 1855.2203818694688, 1271.3677702369168, 2609.947152527515, -0.06400000303983688, 0.144000006839633, 0.0, 0.0, 0.0, 0.0, 0.0, 0.0, 1.6360727681895435E9, 0.0, 2021-11-04 19:39:28.189
5.0, 2131.634517644532, 1751.7710091951303, 1175.9517026674002, 2536.9031664929353, -0.06400000303983688, 0.144000006839633, 0.0, 0.0, 0.0, 0.0, 0.0, 0.0, 1.6360727682037423E9, 0.0, 2021-11-04 19:39:28.203
5.0, 1990.0344255222008, 1612.2540413481183, 1022.2081553889439, 2400.0340478145517, -0.06400000303983688, 0.144000006839633, 0.0, 0.0, 0.0, 0.0, 0.0, 0.0, 1.6360727682037423E9, 0.0, 2021-11-04 19:39:28.203
6.0, 1906.4850605120882, 1454.86783151282, 856.8783980477601, 2269.0964104658924, -0.06400000303983688, 0.144000006839633, 0.0, 0.0, 0.0, 0.0, 0.0, 0.0, 1.6360727682190719E9, 0.0, 2021-11-04 19:39:28.219
6.0, 1803.899604727514, 1331.5034915744327, 747.8378749396652, 2148.0545483999886, -0.06400000303983688, 0.144000006839633, 0.0, 0.0, 0.0, 0.0, 0.0, 0.0, 1.6360727682190719E9, 0.0, 2021-11-04 19:39:28.219
7.0, 1719.2918480299413, 1233.4732339358889, 635.1771286744624, 2036.0969033264555, -0.06400000303983688, 0.144000006839633, 0.0, 0.0, 0.0, 0.0, 0.0, 0.0, 1.6360727682197125E9, 0.0, 2021-11-04 19:39:28.219
7.0, 1620.9324791952968, 1183.407193229068, 599.1656320011243, 1991.9062454500236, -0.06400000303983688, 0.144000006839633, 0.0, 0.0, 0.0, 0.0, 0.0, 0.0, 1.6360727682197125E9, 0.0, 2021-11-04 19:39:28.219
8.0, 1640.4472771640867, 1140.5255003371276, 554.1260168347508, 1978.4388657095842, -0.06400000303983688, 0.144000006839633, 0.0, 0.0, 0.0, 0.0, 0.0, 0.0, 1.6360727682340312E9, 0.0, 2021-11-04 19:39:28.234
8.0, 1590.5532718552276, 1085.0515642943792, 516.3268479825929, 1896.0264302860014, -0.06400000303983688, 0.144000006839633, 0.0, 0.0, 0.0, 0.0, 0.0, 0.0, 1.6360727682340312E9, 0.0, 2021-11-04 19:39:28.234
9.0, 1532.682059940882, 1019.0872088759206, 459.4392297565937, 1843.5257147080265, -0.06400000303983688, 0.144000006839633, 0.0, 0.0, 0.0, 0.0, 0.0, 0.0, 1.6360727682347493E9, 0.0, 2021-11-04 19:39:28.234
9.0, 1537.5401899833232, 961.9714567526244, 401.83729063905776, 1789.2448067511432, -0.06400000303983688, 0.144000006839633, 0.0, 0.0, 0.0, 0.0, 0.0, 0.0, 1.6360727682347493E9, 0.0, 2021-11-04 19:39:28.234
10.0, 1482.4701631357893, 904.6462702318095, 339.36974167916924, 1745.0840680743568, -0.06400000303983688, 0.144000006839633, 0.4800000227987766, 0.0, 0.0, 0.0, 0.0, 0.0, 1.6360727682482996E9, 0.0, 2021-11-04 19:39:28.248
10.0, 1465.6406133351848, 865.6316338940524, 313.7327274829149, 1695.9118634569459, -0.06400000303983688, 0.144000006839633, 0.4800000227987766, 0.0, 0.0, 0.0, 0.0, 0.0, 1.6360727682482996E9, 0.0, 2021-11-04 19:39:28.248
11.0, 1466.4372120257467, 829.2760664247908, 249.4176679449156, 1673.1620520264842, -0.06400000303983688, 0.20800000987946987, 0.4800000227987766, 0.0, 0.0, 0.0, 0.0, 0.0, 1.6360727682651317E9, 0.0, 2021-11-04 19:39:28.265
11.0, 1402.9561501778662, 839.7403065008111, 279.71459748595953, 1671.860566841904, -0.06400000303983688, 0.20800000987946987, 0.4800000227987766, 0.0, 0.0, 0.0, 0.0, 0.0, 1.6360727682651317E9, 0.0, 2021-11-04 19:39:28.265
12.0, 1315.80900141038, 700.5187907502986, 146.05057306960225, 1529.4601361290552, -0.06400000303983688, 0.20800000987946987, 0.4800000227987766, 0.0, 0.0, 0.0, 0.0, 0.0, 1.6360727682789888E9, 0.0, 2021-11-04 19:39:28.278
12.0, 1225.2922027828172, 545.9599452815019, -16.56027700379491, 1401.3012444474734, -0.06400000303983688, 0.20800000987946987, 0.4800000227987766, 0.0, 0.0, 0.0, 0.0, 0.0, 1.6360727682789888E9, 0.0, 2021-11-04 19:39:28.278
13.0, 1074.9370048642159, 436.05176538368687, -119.99469007831067, 1276.5905405250378, -0.06400000303983688, 0.20800000987946987, 0.4800000227987766, 0.0, 0.0, 0.0, 0.0, 0.0, 1.6360727682796988E9, 0.0, 2021-11-04 19:39:28.279
13.0, 982.0865086643025, 331.07651352742687, -258.03439744282514, 1151.277712709736, -0.06400000303983688, 0.20800000987946987, 0.4800000227987766, 0.0, 0.0, 0.0, 0.0, 0.0, 1.6360727682796988E9, 0.0, 2021-11-04 19:39:28.279
14.0, 911.2154045039788, 267.49821428069845, -281.85382026061416, 1082.231679727789, -0.06400000303983688, 0.20800000987946987, 0.4800000227987766, 0.0, 0.0, 0.0, 0.0, 0.0, 1.6360727682940087E9, 0.0, 2021-11-04 19:39:28.294
14.0, 916.6457392396405, 275.789572482463, -244.7427930003032, 1098.7508178320713, -0.06400000303983688, 0.20800000987946987, 0.4800000227987766, 0.0, 0.0, 0.0, 0.0, 0.0, 1.6360727682940087E9, 0.0, 2021-11-04 19:39:28.294
15.0, 870.001706992276, 264.26694071898237, -275.3987529370934, 1072.2798059456982, -0.06400000303983688, 0.20800000987946987, 0.4800000227987766, 0.0, 0.0, 0.0, 0.0, 0.0, 1.6360727682947216E9, 0.0, 2021-11-04 19:39:28.294
15.0, 980.440952683799, 321.3602534425445, -254.93028047960252, 1108.6391133149154, -0.06400000303983688, 0.20800000987946987, 0.4800000227987766, 0.0, 0.0, 0.0, 0.0, 0.0, 1.6360727682947216E9, 0.0, 2021-11-04 19:39:28.294
16.0, 1087.3123338175938, 384.2691105972044, -194.77398969233036, 1142.7208216111176, -0.06400000303983688, 0.20800000987946987, 0.4800000227987766, 0.0, 0.0, 0.0, 0.0, 0.0, 1.63607276834084E9, 0.0, 2021-11-04 19:39:28.340
16.0, 1106.557858989574, 446.5234852596186, -135.11136569920927, 1194.7540496946312, -0.06400000303983688, 0.20800000987946987, 0.4800000227987766, 0.0, 0.0, 0.0, 0.0, 0.0, 1.63607276834084E9, 0.0, 2021-11-04 19:39:28.340
17.0, 1188.6112640174106, 527.0098722060211, -78.19008837360889, 1294.9422296076082, -0.06400000303983688, 0.20800000987946987, 0.4800000227987766, 0.0, 0.0, 0.0, 0.0, 0.0, 1.6360727683415165E9, 0.0, 2021-11-04 19:39:28.341
17.0, 1285.5083319693804, 623.0804222677834, 34.18268559500575, 1372.5862925876863, -0.06400000303983688, 0.20800000987946987, 0.4800000227987766, 0.0, 0.0, 0.0, 0.0, 0.0, 1.6360727683415165E9, 0.0, 2021-11-04 19:39:28.341
18.0, 1361.301144471392, 717.2398834521882, 111.67341267690063, 1460.9638684405945, -0.06400000303983688, 0.20800000987946987, 0.4800000227987766, 0.0, 0.0, 0.0, 0.0, 0.0, 1.636072768342236E9, 0.0, 2021-11-04 19:39:28.342
18.0, 1404.4109712606296, 794.5585751361214, 146.24504786729813, 1533.7946801776998, -0.06400000303983688, 0.20800000987946987, 0.4800000227987766, 0.0, 0.0, 0.0, 0.0, 0.0, 1.636072768342236E9, 0.0, 2021-11-04 19:39:28.342
19.0, 1398.4944495307282, 838.9624073100276, 175.7154595181346, 1577.5814288589172, -0.06400000303983688, 0.20800000987946987, 0.4800000227987766, 0.0, 0.0, 0.0, 0.0, 0.0, 1.6360727683429525E9, 0.0, 2021-11-04 19:39:28.342
19.0, 1482.9039915306494, 825.824138765689, 219.55830669868737, 1568.6692472645082, -0.06400000303983688, 0.20800000987946987, 0.4800000227987766, 0.0, 0.0, 0.0, 0.0, 0.0, 1.6360727683429525E9, 0.0, 2021-11-04 19:39:28.342
20.0, 1514.4313481571153, 859.5243772664107, 211.19589039776474, 1579.7730102329515, -0.06400000303983688, 0.20800000987946987, 0.7360000349581242, 0.0, 0.0, 0.0, 0.0, 0.0, 1.6360727683539536E9, 0.0, 2021-11-04 19:39:28.353
20.0, 1545.9699244834483, 934.8721416736953, 283.60035353992134, 1590.7458767029457, -0.06400000303983688, 0.20800000987946987, 0.7360000349581242, 0.0, 0.0, 0.0, 0.0, 0.0, 1.6360727683539536E9, 0.0, 2021-11-04 19:39:28.353
21.0, 1509.5657383147627, 935.0965356710367, 255.61094227153808, 1536.7978198421188, -0.06400000303983688, 0.25600001215934753, 0.7360000349581242, 0.0, 0.0, 0.0, 0.0, 0.0, 1.6360727683546531E9, 0.0, 2021-11-04 19:39:28.354
21.0, 1435.8149111885577, 914.0259393206798, 251.9383605150506, 1460.2645071488805, -0.06400000303983688, 0.25600001215934753, 0.7360000349581242, 0.0, 0.0, 0.0, 0.0, 0.0, 1.6360727683546531E9, 0.0, 2021-11-04 19:39:28.354
22.0, 1265.974834500812, 906.7593137067743, 203.77592888567597, 1429.275696116034, -0.06400000303983688, 0.25600001215934753, 0.7360000349581242, 0.0, 0.0, 0.0, 0.0, 0.0, 1.6360727683846624E9, 0.0, 2021-11-04 19:39:28.384
22.0, 1317.5854538893327, 886.4366973475553, 189.63162725325674, 1424.9710712670349, -0.06400000303983688, 0.25600001215934753, 0.7360000349581242, 0.0, 0.0, 0.0, 0.0, 0.0, 1.6360727683846624E9, 0.0, 2021-11-04 19:39:28.384
23.0, 1292.1429144907743, 912.5711182379164, 211.96256988868117, 1417.2593975584023, -0.06400000303983688, 0.25600001215934753, 0.7360000349581242, 0.0, 0.0, 0.0, 0.0, 0.0, 1.6360727683854148E9, 0.0, 2021-11-04 19:39:28.385
23.0, 1390.1208135299385, 942.823168979492, 257.54447054862976, 1411.316696528811, -0.06400000303983688, 0.25600001215934753, 0.7360000349581242, 0.0, 0.0, 0.0, 0.0, 0.0, 1.6360727683854148E9, 0.0, 2021-11-04 19:39:28.385
24.0, 1342.2239147974178, 885.9766896530055, 219.20675610285252, 1377.3210059315898, -0.06400000303983688, 0.25600001215934753, 0.7360000349581242, 0.0, 0.0, 0.0, 0.0, 0.0, 1.6360727683861663E9, 0.0, 2021-11-04 19:39:28.386
24.0, 1480.8077776054852, 1069.712364626117, 393.85447418363765, 1543.621267311275, -0.06400000303983688, 0.25600001215934753, 0.7360000349581242, 0.0, 0.0, 0.0, 0.0, 0.0, 1.6360727683861663E9, 0.0, 2021-11-04 19:39:28.386
25.0, 1241.6075163395144, 854.0248543815687, 161.66278543462977, 1784.3230984094553, -0.06400000303983688, 0.25600001215934753, 0.7360000349581242, 0.0, 0.0, 0.0, 0.0, 0.0, 1.6360727683983424E9, 0.0, 2021-11-04 19:39:28.398
25.0, 1141.46047532605, 726.3110107947141, 47.79031158378348, 1655.180613039527, -0.06400000303983688, 0.25600001215934753, 0.7360000349581242, 0.0, 0.0, 0.0, 0.0, 0.0, 1.6360727683983424E9, 0.0, 2021-11-04 19:39:28.398
26.0, 1051.1830302956514, 628.5687254527584, -74.74377056444064, 1559.7047070707195, -0.06400000303983688, 0.25600001215934753, 0.7360000349581242, 0.0, 0.0, 0.0, 0.0, 0.0, 1.6360727684139972E9, 0.0, 2021-11-04 19:39:28.413
26.0, 897.054273321759, 547.6298106117174, -130.25136570679024, 1468.3202516534366, -0.06400000303983688, 0.25600001215934753, 0.7360000349581242, 0.0, 0.0, 0.0, 0.0, 0.0, 1.6360727684139972E9, 0.0, 2021-11-04 19:39:28.413
27.0, 850.8777285688557, 486.47122663632035, -205.42335481615737, 1388.7613598960452, -0.06400000303983688, 0.25600001215934753, 0.7360000349581242, 0.0, 0.0, 0.0, 0.0, 0.0, 1.6360727684146693E9, 0.0, 2021-11-04 19:39:28.414
27.0, 797.1877248049714, 453.56384692620486, -203.30657144123688, 1377.859551525209, -0.06400000303983688, 0.25600001215934753, 0.7360000349581242, 0.0, 0.0, 0.0, 0.0, 0.0, 1.6360727684146693E9, 0.0, 2021-11-04 19:39:28.414
28.0, 803.0818071351387, 463.7812536051497, -207.25590579444543, 1392.9575276463293, -0.06400000303983688, 0.25600001215934753, 0.7360000349581242, 0.0, 0.0, 0.0, 0.0, 0.0, 1.6360727684282515E9, 0.0, 2021-11-04 19:39:28.428
28.0, 871.1629459285177, 440.64249257929623, -190.0374063984491, 1369.4485165248625, -0.06400000303983688, 0.25600001215934753, 0.7360000349581242, 0.0, 0.0, 0.0, 0.0, 0.0, 1.6360727684282515E9, 0.0, 2021-11-04 19:39:28.428
29.0, 844.0935500492342, 422.22722519747913, -214.92644060356542, 1360.6073930296116, -0.06400000303983688, 0.25600001215934753, 0.7360000349581242, 0.0, 0.0, 0.0, 0.0, 0.0, 1.6360727684440432E9, 0.0, 2021-11-04 19:39:28.444
29.0, 807.5547274821438, 428.11008782777935, -164.2433164040558, 1357.3835992678069, -0.06400000303983688, 0.25600001215934753, 0.7360000349581242, 0.0, 0.0, 0.0, 0.0, 0.0, 1.6360727684440432E9, 0.0, 2021-11-04 19:39:28.444
30.0, 775.8553354577161, 438.51822940446436, -127.05749114463106, 1380.0997515986674, -0.06400000303983688, 0.25600001215934753, 0.8320000395178795, 0.0, 0.0, 0.0, 0.0, 0.0, 1.636072768444754E9, 0.0, 2021-11-04 19:39:28.444
30.0, 822.7200218024664, 469.1180908419192, -89.81930728582665, 1429.1934183170088, -0.06400000303983688, 0.25600001215934753, 0.8320000395178795, 0.0, 0.0, 0.0, 0.0, 0.0, 1.636072768444754E9, 0.0, 2021-11-04 19:39:28.444
31.0, 922.923161315266, 473.4563747905195, -57.929180363658816, 1498.370347797405, -0.06400000303983688, 0.27200001291930676, 0.8320000395178795, 0.0, 0.0, 0.0, 0.0, 0.0, 1.6360727684590418E9, 0.0, 2021-11-04 19:39:28.459
31.0, 984.0667856908403, 482.09928358811885, -25.470588648226112, 1515.012902600225, -0.06400000303983688, 0.27200001291930676, 0.8320000395178795, 0.0, 0.0, 0.0, 0.0, 0.0, 1.6360727684590418E9, 0.0, 2021-11-04 19:39:28.459
32.0, 1012.4114874550141, 495.3534890310839, 20.025294312741607, 1595.4319713474251, -0.12800000607967377, 0.27200001291930676, 0.8320000395178795, 0.0, 0.0, 0.0, 0.0, 0.0, 1.6360727684740937E9, 0.0, 2021-11-04 19:39:28.474
32.0, 1017.5575897940435, 532.8160668872297, 111.08811833383515, 1696.308292852249, -0.12800000607967377, 0.27200001291930676, 0.8320000395178795, 0.0, 0.0, 0.0, 0.0, 0.0, 1.6360727684740937E9, 0.0, 2021-11-04 19:39:28.474
33.0, 1158.3685630257241, 567.1707878801972, 205.04936482058838, 1804.4624596708454, -0.12800000607967377, 0.27200001291930676, 0.8320000395178795, 0.0, 0.0, 0.0, 0.0, 0.0, 1.6360727684747028E9, 0.0, 2021-11-04 19:39:28.474
33.0, 1203.8831454864703, 561.2430464504287, 236.92079224297777, 1791.0399587298743, -0.12800000607967377, 0.27200001291930676, 0.8320000395178795, 0.0, 0.0, 0.0, 0.0, 0.0, 1.6360727684747028E9, 0.0, 2021-11-04 19:39:28.474
34.0, 1070.3013988691382, 523.862746393308, 195.24708703672513, 1713.2575194514357, -0.12800000607967377, 0.27200001291930676, 0.8320000395178795, 0.0, 0.0, 0.0, 0.0, 0.0, 1.6360727685058064E9, 0.0, 2021-11-04 19:39:28.505
34.0, 1144.8488246859051, 502.92304654140025, 221.17581342952326, 1734.7282850970514, -0.12800000607967377, 0.27200001291930676, 0.8320000395178795, 0.0, 0.0, 0.0, 0.0, 0.0, 1.6360727685058064E9, 0.0, 2021-11-04 19:39:28.505
35.0, 1197.9030454573222, 476.1453628586605, 232.36933399690315, 1707.8346645156853, -0.12800000607967377, 0.27200001291930676, 0.8320000395178795, 0.0, 0.0, 0.0, 0.0, 0.0, 1.636072768506572E9, 0.0, 2021-11-04 19:39:28.506
35.0, 1177.0344037045725, 468.5197068490088, 227.8627545502968, 1712.1355494647287, -0.12800000607967377, 0.27200001291930676, 0.8320000395178795, 0.0, 0.0, 0.0, 0.0, 0.0, 1.636072768506572E9, 0.0, 2021-11-04 19:39:28.506
36.0, 1071.064338460099, 400.10197705961764, 221.87517472123727, 1669.2014979734086, -0.12800000607967377, 0.27200001291930676, 0.8320000395178795, 0.0, 0.0, 0.0, 0.0, 0.0, 1.636072768518986E9, 0.0, 2021-11-04 19:39:28.518
36.0, 1070.6716489647515, 347.48532458301634, 192.2551670721732, 1654.675726545509, -0.12800000607967377, 0.27200001291930676, 0.8320000395178795, 0.0, 0.0, 0.0, 0.0, 0.0, 1.636072768518986E9, 0.0, 2021-11-04 19:39:28.518
37.0, 998.1288095242344, 333.8683488443494, 181.33839910151437, 1632.314864710439, -0.12800000607967377, 0.27200001291930676, 0.8320000395178795, 0.0, 0.0, 0.0, 0.0, 0.0, 1.6360727685196729E9, 0.0, 2021-11-04 19:39:28.519
37.0, 951.5820146757178, 337.07344310637563, 204.7875718236901, 1645.183860457968, -0.12800000607967377, 0.27200001291930676, 0.8320000395178795, 0.0, 0.0, 0.0, 0.0, 0.0, 1.6360727685196729E9, 0.0, 2021-11-04 19:39:28.519
38.0, 980.4989211331122, 323.02263897284865, 226.96517856093124, 1658.4530255007558, -0.12800000607967377, 0.27200001291930676, 0.8320000395178795, 0.0, 0.0, 0.0, 0.0, 0.0, 1.6360727685340123E9, 0.0, 2021-11-04 19:39:28.534
38.0, 885.2548889615573, 308.4819079451263, 202.10606355546042, 1630.6954880296253, -0.12800000607967377, 0.27200001291930676, 0.8320000395178795, 0.0, 0.0, 0.0, 0.0, 0.0, 1.6360727685340123E9, 0.0, 2021-11-04 19:39:28.534
39.0, 985.3944501751103, 275.29029583837837, 164.90527869621292, 1621.8842837340198, -0.12800000607967377, 0.27200001291930676, 0.8320000395178795, 0.0, 0.0, 0.0, 0.0, 0.0, 1.636072768534738E9, 0.0, 2021-11-04 19:39:28.534
39.0, 936.2596445572563, 237.16949559003115, 127.12106944387779, 1555.056011425797, -0.12800000607967377, 0.27200001291930676, 0.8320000395178795, 0.0, 0.0, 0.0, 0.0, 0.0, 1.636072768534738E9, 0.0, 2021-11-04 19:39:28.534
40.0, 880.2883018204011, 194.58699469454587, 105.8485184959136, 1544.789986047428, -0.12800000607967377, 0.27200001291930676, 0.9280000440776348, 0.0, 0.0, 0.0, 0.0, 0.0, 1.6360727685483525E9, 0.0, 2021-11-04 19:39:28.548
40.0, 801.8700795494951, 140.5865792343393, 72.05852239625528, 1521.804560919758, -0.12800000607967377, 0.27200001291930676, 0.9280000440776348, 0.0, 0.0, 0.0, 0.0, 0.0, 1.6360727685483525E9, 0.0, 2021-11-04 19:39:28.548
41.0, 702.4523190273903, 73.7732665259391, -30.639130386989564, 1463.200328614097, -0.12800000607967377, 0.3040000144392252, 0.9280000440776348, 0.0, 0.0, 0.0, 0.0, 0.0, 1.6360727685642052E9, 0.0, 2021-11-04 19:39:28.564
41.0, 671.6916418918408, 14.697806825861335, -80.06564820138738, 1446.3109404142015, -0.12800000607967377, 0.3040000144392252, 0.9280000440776348, 0.0, 0.0, 0.0, 0.0, 0.0, 1.6360727685642052E9, 0.0, 2021-11-04 19:39:28.564
42.0, 613.6109955799766, -30.065055743791163, -117.1504961620085, 1407.0382509795018, -0.11200000531971455, 0.3040000144392252, 0.9280000440776348, 0.0, 0.0, 0.0, 0.0, 0.0, 1.6360727685647116E9, 0.0, 2021-11-04 19:39:28.564
42.0, 594.3804300078191, -70.35499796643853, -177.5461405464448, 1347.9702710793354, -0.11200000531971455, 0.3040000144392252, 0.9280000440776348, 0.0, 0.0, 0.0, 0.0, 0.0, 1.6360727685647116E9, 0.0, 2021-11-04 19:39:28.564
43.0, 559.5731811202131, -92.91033459920436, -204.9670870215632, 1363.4197977962904, -0.11200000531971455, 0.3040000144392252, 0.9280000440776348, 0.0, 0.0, 0.0, 0.0, 0.0, 1.636072768578297E9, 0.0, 2021-11-04 19:39:28.578
43.0, 511.50798688968644, -117.20846461132169, -210.2627853588201, 1360.8654461265542, -0.11200000531971455, 0.3040000144392252, 0.9280000440776348, 0.0, 0.0, 0.0, 0.0, 0.0, 1.636072768578297E9, 0.0, 2021-11-04 19:39:28.578
44.0, 586.650056799408, -115.37591363303363, -257.23218890232965, 1324.3415831592865, -0.11200000531971455, 0.3040000144392252, 0.9280000440776348, 0.0, 0.0, 0.0, 0.0, 0.0, 1.636072768594061E9, 0.0, 2021-11-04 19:39:28.594
44.0, 576.6009456184693, -144.45737568847835, -278.0858710552566, 1275.333934139926, -0.11200000531971455, 0.3040000144392252, 0.9280000440776348, 0.0, 0.0, 0.0, 0.0, 0.0, 1.636072768594061E9, 0.0, 2021-11-04 19:39:28.594
45.0, 495.2543816822581, -162.40141567587852, -313.4167059366591, 1253.7397517957725, -0.11200000531971455, 0.3040000144392252, 0.9280000440776348, 0.0, 0.0, 0.0, 0.0, 0.0, 1.6360727685947132E9, 0.0, 2021-11-04 19:39:28.594
45.0, 424.42441642144695, -165.5990301379934, -343.50420108018443, 1230.2606598739512, -0.11200000531971455, 0.3040000144392252, 0.9280000440776348, 0.0, 0.0, 0.0, 0.0, 0.0, 1.6360727685947132E9, 0.0, 2021-11-04 19:39:28.594
46.0, 433.0860247188248, -145.1081182807684, -303.8650014498271, 1234.991633317899, -0.11200000531971455, 0.3040000144392252, 0.9280000440776348, 0.0, 0.0, 0.0, 0.0, 0.0, 1.63607276862471E9, 0.0, 2021-11-04 19:39:28.624
46.0, 352.98858736781403, -158.36606362368912, -306.36325462022796, 1194.1444460018538, -0.11200000531971455, 0.3040000144392252, 0.9280000440776348, 0.0, 0.0, 0.0, 0.0, 0.0, 1.63607276862471E9, 0.0, 2021-11-04 19:39:28.624
47.0, 384.0559362997301, -156.21562114916742, -358.8116115988232, 1193.3628069111146, -0.11200000531971455, 0.3040000144392252, 0.9280000440776348, 0.0, 0.0, 0.0, 0.0, 0.0, 1.6360727686254084E9, 0.0, 2021-11-04 19:39:28.625
47.0, 385.07318908767775, -148.30199284292758, -367.35728299757466, 1198.3593132519163, -0.11200000531971455, 0.3040000144392252, 0.9280000440776348, 0.0, 0.0, 0.0, 0.0, 0.0, 1.6360727686254084E9, 0.0, 2021-11-04 19:39:28.625
48.0, 336.15529766725376, -147.64377045072615, -368.99161927821115, 1199.5635610376485, -0.11200000531971455, 0.3040000144392252, 0.9280000440776348, 0.0, 0.0, 0.0, 0.0, 0.0, 1.6360727686261332E9, 0.0, 2021-11-04 19:39:28.626
48.0, 379.29878355609253, -134.5802999055013, -417.05307360878214, 1200.1095864311792, -0.11200000531971455, 0.3040000144392252, 0.9280000440776348, 0.0, 0.0, 0.0, 0.0, 0.0, 1.6360727686261332E9, 0.0, 2021-11-04 19:39:28.626
49.0, 426.9638084913604, -104.80695635825396, -387.02915676450357, 1218.214442116674, -0.11200000531971455, 0.3040000144392252, 0.9280000440776348, 0.0, 0.0, 0.0, 0.0, 0.0, 1.636072768638347E9, 0.0, 2021-11-04 19:39:28.638
49.0, 332.60613260930404, -65.4370295247063, -318.58898757537827, 1247.1949268733151, -0.11200000531971455, 0.3040000144392252, 0.9280000440776348, 0.0, 0.0, 0.0, 0.0, 0.0, 1.636072768638347E9, 0.0, 2021-11-04 19:39:28.638
50.0, 448.21018013963476, -30.663439736701548, -317.63157318672165, 1277.7162504117005, -0.11200000531971455, 0.3040000144392252, 0.944000044837594, 0.0, 0.0, 0.0, 0.0, 0.0, 1.636072768669443E9, 0.0, 2021-11-04 19:39:28.669
50.0, 448.3822155375965, -22.46931893378496, -322.0670945341699, 1291.8792515438981, -0.11200000531971455, 0.3040000144392252, 0.944000044837594, 0.0, 0.0, 0.0, 0.0, 0.0, 1.636072768669443E9, 0.0, 2021-11-04 19:39:28.669
51.0, 444.2945048860274, 17.801923789083958, -289.91143471514806, 1321.9517870876007, -0.11200000531971455, 0.3200000151991844, 0.944000044837594, 0.0, 0.0, 0.0, 0.0, 0.0, 1.6360727686702163E9, 0.0, 2021-11-04 19:39:28.670
51.0, 515.408702543471, 59.56912649422884, -274.3721503992565, 1350.6442995476536, -0.11200000531971455, 0.3200000151991844, 0.944000044837594, 0.0, 0.0, 0.0, 0.0, 0.0, 1.6360727686702163E9, 0.0, 2021-11-04 19:39:28.670
52.0, 546.3526347768493, 127.25383589230478, -261.4320965525694, 1413.5531567023136, -0.04800000227987766, 0.3200000151991844, 0.944000044837594, 0.0, 0.0, 0.0, 0.0, 0.0, 1.6360727686846993E9, 0.0, 2021-11-04 19:39:28.684
52.0, 705.5863551902585, 249.50742554385215, -107.57635227544233, 1562.2553188405, -0.04800000227987766, 0.3200000151991844, 0.944000044837594, 0.0, 0.0, 0.0, 0.0, 0.0, 1.6360727686846993E9, 0.0, 2021-11-04 19:39:28.684
53.0, 748.5802450808696, 321.9305881857872, -43.874636330176145, 1625.1043375958689, -0.04800000227987766, 0.3200000151991844, 0.944000044837594, 0.0, 0.0, 0.0, 0.0, 0.0, 1.6360727686854165E9, 0.0, 2021-11-04 19:39:28.685
53.0, 890.8011605958454, 436.1321732327342, 43.24259323766455, 1757.504275827203, -0.04800000227987766, 0.3200000151991844, 0.944000044837594, 0.0, 0.0, 0.0, 0.0, 0.0, 1.6360727686854165E9, 0.0, 2021-11-04 19:39:28.685
54.0, 972.1626841318794, 528.0514343436807, 125.58771046204492, 1843.7987274047919, -0.04800000227987766, 0.3200000151991844, 0.944000044837594, 0.0, 0.0, 0.0, 0.0, 0.0, 1.636072768686114E9, 0.0, 2021-11-04 19:39:28.686
54.0, 1094.4873318825848, 631.5793449170887, 234.47489767195657, 1936.6567034046166, -0.04800000227987766, 0.3200000151991844, 0.944000044837594, 0.0, 0.0, 0.0, 0.0, 0.0, 1.636072768686114E9, 0.0, 2021-11-04 19:39:28.686
55.0, 1140.8246923335828, 707.304839219898, 309.860061078798, 1995.6087464061566, -0.04800000227987766, 0.3200000151991844, 0.944000044837594, 0.0, 0.0, 0.0, 0.0, 0.0, 1.6360727687146316E9, 0.0, 2021-11-04 19:39:28.714
55.0, 1150.047285624314, 737.3175363643095, 312.26481675030664, 1981.830954969395, -0.04800000227987766, 0.3200000151991844, 0.944000044837594, 0.0, 0.0, 0.0, 0.0, 0.0, 1.6360727687146316E9, 0.0, 2021-11-04 19:39:28.714
56.0, 1144.127023994457, 704.2082020565867, 287.95546703832224, 1954.899935388472, -0.04800000227987766, 0.3200000151991844, 0.944000044837594, 0.0, 0.0, 0.0, 0.0, 0.0, 1.6360727687154615E9, 0.0, 2021-11-04 19:39:28.715
56.0, 1097.4455927475356, 627.9404222602025, 223.0831624069251, 1860.1720094108023, -0.04800000227987766, 0.3200000151991844, 0.944000044837594, 0.0, 0.0, 0.0, 0.0, 0.0, 1.6360727687154615E9, 0.0, 2021-11-04 19:39:28.715
57.0, 1009.2550118924119, 563.7375597208738, 145.36056152777746, 1798.908708236646, -0.04800000227987766, 0.3200000151991844, 0.944000044837594, 0.0, 0.0, 0.0, 0.0, 0.0, 1.636072768716104E9, 0.0, 2021-11-04 19:39:28.716
57.0, 983.1355506018735, 549.7952126860619, 112.56537881633267, 1779.6856224643998, -0.04800000227987766, 0.3200000151991844, 0.944000044837594, 0.0, 0.0, 0.0, 0.0, 0.0, 1.636072768716104E9, 0.0, 2021-11-04 19:39:28.716
58.0, 1047.5067086392082, 588.1965054310858, 175.5452940701507, 1841.902598127257, -0.04800000227987766, 0.3200000151991844, 0.944000044837594, 0.0, 0.0, 0.0, 0.0, 0.0, 1.6360727687447207E9, 0.0, 2021-11-04 19:39:28.744
58.0, 1165.3584360429086, 718.4647006876767, 299.8670483971946, 1979.7253912943415, -0.04800000227987766, 0.3200000151991844, 0.944000044837594, 0.0, 0.0, 0.0, 0.0, 0.0, 1.6360727687447207E9, 0.0, 2021-11-04 19:39:28.744
59.0, 1252.973072304856, 791.3104720246047, 350.32203869940713, 2065.2344638812356, -0.04800000227987766, 0.3200000151991844, 0.944000044837594, 0.0, 0.0, 0.0, 0.0, 0.0, 1.6360727687454844E9, 0.0, 2021-11-04 19:39:28.745
59.0, 1332.958312657196, 857.7049159379676, 420.56483966717497, 2140.5186499892734, -0.04800000227987766, 0.3200000151991844, 0.944000044837594, 0.0, 0.0, 0.0, 0.0, 0.0, 1.6360727687454844E9, 0.0, 2021-11-04 19:39:28.745
60.0, 1365.7572352685966, 891.8726419331506, 502.9510957910679, 2184.1632824721746, -0.04800000227987766, 0.3200000151991844, 1.0240000486373901, 0.0, 0.0, 0.0, 0.0, 0.0, 1.6360727687462127E9, 0.0, 2021-11-04 19:39:28.746
60.0, 1334.5066312388517, 859.5374669162557, 453.59189617587253, 2177.3005660534836, -0.04800000227987766, 0.3200000151991844, 1.0240000486373901, 0.0, 0.0, 0.0, 0.0, 0.0, 1.6360727687462127E9, 0.0, 2021-11-04 19:39:28.746
61.0, 1280.9400441735052, 771.8854316547513, 356.8107651225291, 2066.5845677652396, -0.04800000227987766, 0.2240000106394291, 1.0240000486373901, 0.0, 0.0, 0.0, 0.0, 0.0, 1.6360727687582514E9, 0.0, 2021-11-04 19:39:28.758
61.0, 1114.783768942114, 682.2101105172187, 260.90851055877283, 1972.918773374986, -0.04800000227987766, 0.2240000106394291, 1.0240000486373901, 0.0, 0.0, 0.0, 0.0, 0.0, 1.6360727687582514E9, 0.0, 2021-11-04 19:39:28.758
62.0, 1103.4443922764622, 613.0780598362908, 194.0017003514804, 1918.0806203247048, -0.11200000531971455, 0.2240000106394291, 1.0240000486373901, 0.0, 0.0, 0.0, 0.0, 0.0, 1.6360727687739947E9, 0.0, 2021-11-04 19:39:28.773
62.0, 985.2186748771928, 579.1272480385378, 101.04274705285206, 1867.8724634195678, -0.11200000531971455, 0.2240000106394291, 1.0240000486373901, 0.0, 0.0, 0.0, 0.0, 0.0, 1.6360727687739947E9, 0.0, 2021-11-04 19:39:28.773
63.0, 1022.1202677399851, 539.1140584126115, 68.18398604216054, 1824.9907705276273, -0.11200000531971455, 0.2240000106394291, 1.0240000486373901, 0.0, 0.0, 0.0, 0.0, 0.0, 1.636072768774728E9, 0.0, 2021-11-04 19:39:28.774
63.0, 1018.0101176886819, 508.992904169485, 46.60476329782978, 1798.6282157399692, -0.11200000531971455, 0.2240000106394291, 1.0240000486373901, 0.0, 0.0, 0.0, 0.0, 0.0, 1.636072768774728E9, 0.0, 2021-11-04 19:39:28.774
64.0, 1064.2577205407433, 504.47884492296726, 5.634159283246845, 1779.0498394719325, -0.11200000531971455, 0.2240000106394291, 1.0240000486373901, 0.0, 0.0, 0.0, 0.0, 0.0, 1.6360727687883124E9, 0.0, 2021-11-04 19:39:28.788
64.0, 1024.7307179090567, 483.80467796791345, -4.104540201369673, 1785.471247695852, -0.11200000531971455, 0.2240000106394291, 1.0240000486373901, 0.0, 0.0, 0.0, 0.0, 0.0, 1.6360727687883124E9, 0.0, 2021-11-04 19:39:28.788
65.0, 1008.2340192045085, 460.2283486472443, -28.997314306441694, 1756.6141796377487, -0.11200000531971455, 0.2240000106394291, 1.0240000486373901, 0.0, 0.0, 0.0, 0.0, 0.0, 1.6360727688040788E9, 0.0, 2021-11-04 19:39:28.804
65.0, 960.9841231643222, 433.9555514585227, -69.2722969292663, 1752.365653288085, -0.11200000531971455, 0.2240000106394291, 1.0240000486373901, 0.0, 0.0, 0.0, 0.0, 0.0, 1.6360727688040788E9, 0.0, 2021-11-04 19:39:28.804
66.0, 1000.7542192931287, 452.94302353356034, -73.14309338340536, 1792.9772269069217, -0.11200000531971455, 0.2240000106394291, 1.0240000486373901, 0.0, 0.0, 0.0, 0.0, 0.0, 1.6360727688047867E9, 0.0, 2021-11-04 19:39:28.804
66.0, 1035.40065248264, 463.8784910039976, -61.4185070223175, 1773.0323404432274, -0.11200000531971455, 0.2240000106394291, 1.0240000486373901, 0.0, 0.0, 0.0, 0.0, 0.0, 1.6360727688047867E9, 0.0, 2021-11-04 19:39:28.804
67.0, 987.3204986522906, 428.92912591807544, -101.70470934500918, 1720.8420365615748, -0.11200000531971455, 0.2240000106394291, 1.0240000486373901, 0.0, 0.0, 0.0, 0.0, 0.0, 1.6360727688182604E9, 0.0, 2021-11-04 19:39:28.818
67.0, 1023.0926417284645, 447.52390849776566, -119.61883013276383, 1713.5380119481124, -0.11200000531971455, 0.2240000106394291, 1.0240000486373901, 0.0, 0.0, 0.0, 0.0, 0.0, 1.6360727688182604E9, 0.0, 2021-11-04 19:39:28.818
68.0, 1010.3433227795176, 480.69308120477945, -100.56403985852376, 1738.0044374582358, -0.11200000531971455, 0.2240000106394291, 1.0240000486373901, 0.0, 0.0, 0.0, 0.0, 0.0, 1.6360727688340533E9, 0.0, 2021-11-04 19:39:28.834
68.0, 1102.7487708847038, 505.1744663147256, -91.94731036061421, 1756.1579118431546, -0.11200000531971455, 0.2240000106394291, 1.0240000486373901, 0.0, 0.0, 0.0, 0.0, 0.0, 1.6360727688340533E9, 0.0, 2021-11-04 19:39:28.834
69.0, 1142.7245615110733, 537.0234543373808, -91.94731036061421, 1782.2811130336486, -0.11200000531971455, 0.2240000106394291, 1.0240000486373901, 0.0, 0.0, 0.0, 0.0, 0.0, 1.6360727688347197E9, 0.0, 2021-11-04 19:39:28.834
69.0, 1180.4115333645605, 596.6112803313881, -12.208903405349702, 1855.990801260341, -0.11200000531971455, 0.2240000106394291, 1.0240000486373901, 0.0, 0.0, 0.0, 0.0, 0.0, 1.6360727688347197E9, 0.0, 2021-11-04 19:39:28.834
70.0, 1215.3160196510144, 668.0022305855528, 38.54901879327372, 1945.273432902526, -0.11200000531971455, 0.2240000106394291, 1.0240000486373901, 0.0, 0.0, 0.0, 0.0, 0.0, 1.63607276884835E9, 0.0, 2021-11-04 19:39:28.848
70.0, 1286.6994901052676, 731.7600450301543, 67.20787215372548, 2028.276772519108, -0.11200000531971455, 0.2240000106394291, 1.0240000486373901, 0.0, 0.0, 0.0, 0.0, 0.0, 1.63607276884835E9, 0.0, 2021-11-04 19:39:28.848
71.0, 1405.4263540985994, 779.8775978600606, 118.27620604867116, 2098.7140482845716, -0.11200000531971455, 0.1600000075995922, 1.0240000486373901, 0.0, 0.0, 0.0, 0.0, 0.0, 1.6360727688640466E9, 0.0, 2021-11-04 19:39:28.864
71.0, 1487.0309711317532, 838.994196459651, 152.10360114788637, 2158.421551077161, -0.11200000531971455, 0.1600000075995922, 1.0240000486373901, 0.0, 0.0, 0.0, 0.0, 0.0, 1.6360727688640466E9, 0.0, 2021-11-04 19:39:28.864
72.0, 1532.115465097595, 887.7587519818917, 186.04319324577227, 2240.721789502073, -0.0800000037997961, 0.1600000075995922, 1.0240000486373901, 0.0, 0.0, 0.0, 0.0, 0.0, 1.63607276886476E9, 0.0, 2021-11-04 19:39:28.864
72.0, 1546.7347340243869, 939.3544117705896, 240.07726780558005, 2345.1734553645365, -0.0800000037997961, 0.1600000075995922, 1.0240000486373901, 0.0, 0.0, 0.0, 0.0, 0.0, 1.63607276886476E9, 0.0, 2021-11-04 19:39:28.864
73.0, 1656.2951032263227, 978.08855561167, 314.00387022970244, 2408.942489509005, -0.0800000037997961, 0.1600000075995922, 1.0240000486373901, 0.0, 0.0, 0.0, 0.0, 0.0, 1.6360727688782585E9, 0.0, 2021-11-04 19:39:28.878
73.0, 1582.85468779644, 996.7282169908285, 325.56764089269564, 2359.3177569969557, -0.0800000037997961, 0.1600000075995922, 1.0240000486373901, 0.0, 0.0, 0.0, 0.0, 0.0, 1.6360727688782585E9, 0.0, 2021-11-04 19:39:28.878
74.0, 1589.825861313846, 997.2817221842706, 344.9964211625047, 2258.7593269883655, -0.0800000037997961, 0.1600000075995922, 1.0240000486373901, 0.0, 0.0, 0.0, 0.0, 0.0, 1.6360727688940282E9, 0.0, 2021-11-04 19:39:28.894
74.0, 1549.6219367901795, 957.3508103573695, 337.6886566490866, 2079.337626614142, -0.0800000037997961, 0.1600000075995922, 1.0240000486373901, 0.0, 0.0, 0.0, 0.0, 0.0, 1.6360727688940282E9, 0.0, 2021-11-04 19:39:28.894
75.0, 1423.991217478644, 903.627147493884, 318.51418957626447, 1909.16469883034, -0.0800000037997961, 0.1600000075995922, 1.0240000486373901, 0.0, 0.0, 0.0, 0.0, 0.0, 1.636072768894796E9, 0.0, 2021-11-04 19:39:28.894
75.0, 1365.981629265938, 893.0694099189714, 272.7789530181326, 1856.170316458214, -0.0800000037997961, 0.1600000075995922, 1.0240000486373901, 0.0, 0.0, 0.0, 0.0, 0.0, 1.636072768894796E9, 0.0, 2021-11-04 19:39:28.894
76.0, 1344.065815525595, 916.9112721364945, 298.40848741447553, 1933.3693313435651, -0.0800000037997961, 0.1600000075995922, 1.0240000486373901, 0.0, 0.0, 0.0, 0.0, 0.0, 1.6360727689083776E9, 0.0, 2021-11-04 19:39:28.908
76.0, 1446.0117484177463, 962.9980592904612, 308.46133849537, 1995.4516706080176, -0.0800000037997961, 0.1600000075995922, 1.0240000486373901, 0.0, 0.0, 0.0, 0.0, 0.0, 1.6360727689083776E9, 0.0, 2021-11-04 19:39:28.908
77.0, 1519.4820830472745, 1031.6775820767507, 373.84226952074096, 2076.9590502423234, -0.0800000037997961, 0.1600000075995922, 1.0240000486373901, 0.0, 0.0, 0.0, 0.0, 0.0, 1.6360727689241037E9, 0.0, 2021-11-04 19:39:28.924
77.0, 1551.6489625661634, 1041.4237613612786, 429.86971075693145, 2074.7861683680676, -0.0800000037997961, 0.1600000075995922, 1.0240000486373901, 0.0, 0.0, 0.0, 0.0, 0.0, 1.6360727689241037E9, 0.0, 2021-11-04 19:39:28.924
78.0, 1549.8276312877424, 1022.4400291861966, 421.30533985840157, 1982.4966571615078, -0.0800000037997961, 0.1600000075995922, 1.0240000486373901, 0.0, 0.0, 0.0, 0.0, 0.0, 1.6360727689247894E9, 0.0, 2021-11-04 19:39:28.924
78.0, 1479.8728026165627, 971.8616221854463, 371.5721502476372, 1894.71746530151, -0.0800000037997961, 0.1600000075995922, 1.0240000486373901, 0.0, 0.0, 0.0, 0.0, 0.0, 1.6360727689247894E9, 0.0, 2021-11-04 19:39:28.924
79.0, 1390.934241770301, 935.4723956165835, 315.45121151255444, 1826.587707808707, -0.0800000037997961, 0.1600000075995922, 1.0240000486373901, 0.0, 0.0, 0.0, 0.0, 0.0, 1.6360727689383063E9, 0.0, 2021-11-04 19:39:28.938
79.0, 1306.7715331674553, 891.7080863351002, 306.0865020235069, 1760.518635191489, -0.0800000037997961, 0.1600000075995922, 1.0240000486373901, 0.0, 0.0, 0.0, 0.0, 0.0, 1.6360727689383063E9, 0.0, 2021-11-04 19:39:28.938
80.0, 1358.9431375493295, 854.3390059778467, 260.82623275974765, 1705.9946337374859, -0.0800000037997961, 0.1600000075995922, 0.9600000455975533, 0.0, 0.0, 0.0, 0.0, 0.0, 1.636072768954411E9, 0.0, 2021-11-04 19:39:28.954
80.0, 1255.5835224739276, 832.9018994318321, 222.56331631308421, 1668.7115710792132, -0.0800000037997961, 0.1600000075995922, 0.9600000455975533, 0.0, 0.0, 0.0, 0.0, 0.0, 1.636072768954411E9, 0.0, 2021-11-04 19:39:28.954
81.0, 1330.4413599870168, 865.8317185416818, 265.1906960080378, 1703.3580042687245, -0.0800000037997961, 0.17600000835955143, 0.9600000455975533, 0.0, 0.0, 0.0, 0.0, 0.0, 1.6360727689690487E9, 0.0, 2021-11-04 19:39:28.969
81.0, 1367.4588897484355, 884.9538270151243, 336.70880286069587, 1760.073587096762, -0.0800000037997961, 0.17600000835955143, 0.9600000455975533, 0.0, 0.0, 0.0, 0.0, 0.0, 1.6360727689690487E9, 0.0, 2021-11-04 19:39:28.969
82.0, 1414.4469927917235, 919.4693637061864, 388.5737354462035, 1834.2732022176497, 0.04800000227987766, 0.17600000835955143, 0.9600000455975533, 0.0, 0.0, 0.0, 0.0, 0.0, 1.636072768970302E9, 0.0, 2021-11-04 19:39:28.970
82.0, 1493.6805132529698, 934.645877726376, 386.2101186742075, 1851.8694315091707, 0.04800000227987766, 0.17600000835955143, 0.9600000455975533, 0.0, 0.0, 0.0, 0.0, 0.0, 1.636072768970302E9, 0.0, 2021-11-04 19:39:28.970
83.0, 1520.0804670401849, 926.7247696202248, 397.29518214287236, 1853.6533637880348, 0.04800000227987766, 0.17600000835955143, 0.9600000455975533, 0.0, 0.0, 0.0, 0.0, 0.0, 1.6360727690167649E9, 0.0, 2021-11-04 19:39:29.016
83.0, 1482.2401592885144, 937.2338884957135, 401.5362286926247, 1833.8805127223022, 0.04800000227987766, 0.17600000835955143, 0.9600000455975533, 0.0, 0.0, 0.0, 0.0, 0.0, 1.6360727690167649E9, 0.0, 2021-11-04 19:39:29.016
84.0, 1473.3466771938838, 952.7544733118266, 392.78486279631034, 1815.562482739333, 0.04800000227987766, 0.17600000835955143, 0.9600000455975533, 0.0, 0.0, 0.0, 0.0, 0.0, 1.6360727690174725E9, 0.0, 2021-11-04 19:39:29.017
84.0, 1444.773841532413, 978.7355583040044, 451.7443855977617, 1834.2470229179598, 0.04800000227987766, 0.17600000835955143, 0.9600000455975533, 0.0, 0.0, 0.0, 0.0, 0.0, 1.6360727690174725E9, 0.0, 2021-11-04 19:39:29.017
85.0, 1562.0832834425382, 980.5344501826912, 493.1114190076478, 1826.1239602142014, 0.04800000227987766, 0.17600000835955143, 0.9600000455975533, 0.0, 0.0, 0.0, 0.0, 0.0, 1.6360727690181756E9, 0.0, 2021-11-04 19:39:29.018
85.0, 1561.2343261525966, 976.7721108272672, 501.72814850555733, 1855.4634753665887, 0.04800000227987766, 0.17600000835955143, 0.9600000455975533, 0.0, 0.0, 0.0, 0.0, 0.0, 1.6360727690181756E9, 0.0, 2021-11-04 19:39:29.018
86.0, 1579.1110479407944, 988.1601061923429, 507.91020313231274, 1875.902028624434, 0.04800000227987766, 0.17600000835955143, 0.9600000455975533, 0.0, 0.0, 0.0, 0.0, 0.0, 1.636072769019015E9, 0.0, 2021-11-04 19:39:29.019
86.0, 1601.139058679808, 1009.6944501372054, 573.4407301559113, 1903.738103994634, 0.04800000227987766, 0.17600000835955143, 0.9600000455975533, 0.0, 0.0, 0.0, 0.0, 0.0, 1.636072769019015E9, 0.0, 2021-11-04 19:39:29.019
87.0, 1588.5505554289557, 993.538082328625, 536.0454704989679, 1909.8453606222756, 0.04800000227987766, 0.17600000835955143, 0.9600000455975533, 0.0, 0.0, 0.0, 0.0, 0.0, 1.6360727690290437E9, 0.0, 2021-11-04 19:39:29.029
87.0, 1457.3473851834424, 920.6062932927161, 453.9397068717517, 1879.9411205765791, 0.04800000227987766, 0.17600000835955143, 0.9600000455975533, 0.0, 0.0, 0.0, 0.0, 0.0, 1.6360727690290437E9, 0.0, 2021-11-04 19:39:29.029
88.0, 1460.571178945247, 888.1065626777709, 421.98226175038144, 1891.3852144409902, 0.04800000227987766, 0.17600000835955143, 0.9600000455975533, 0.0, 0.0, 0.0, 0.0, 0.0, 1.6360727690296507E9, 0.0, 2021-11-04 19:39:29.029
88.0, 1331.3651152760722, 822.314242657274, 417.670157101471, 1867.7415669211186, 0.04800000227987766, 0.17600000835955143, 0.9600000455975533, 0.0, 0.0, 0.0, 0.0, 0.0, 1.6360727690296507E9, 0.0, 2021-11-04 19:39:29.029
89.0, 1366.0639070649631, 763.1976440576836, 378.2628312683664, 1851.588939012494, 0.04800000227987766, 0.17600000835955143, 0.9600000455975533, 0.0, 0.0, 0.0, 0.0, 0.0, 1.6360727690439148E9, 0.0, 2021-11-04 19:39:29.043
89.0, 1254.252118089702, 664.0267169326544, 301.3181295800023, 1732.6975194211118, 0.04800000227987766, 0.17600000835955143, 0.9600000455975533, 0.0, 0.0, 0.0, 0.0, 0.0, 1.6360727690439148E9, 0.0, 2021-11-04 19:39:29.043
90.0, 1187.304168982897, 564.4032619129866, 196.6682490198873, 1623.5560190142132, 0.04800000227987766, 0.17600000835955143, 0.8480000402778387, 0.0, 0.0, 0.0, 0.0, 0.0, 1.6360727690446787E9, 0.0, 2021-11-04 19:39:29.044
90.0, 1098.7732572318055, 502.238644849509, 174.67015748051926, 1610.1634372728877, 0.04800000227987766, 0.17600000835955143, 0.8480000402778387, 0.0, 0.0, 0.0, 0.0, 0.0, 1.6360727690446787E9, 0.0, 2021-11-04 19:39:29.044
91.0, 1093.761791291181, 543.0559129659086, 213.4491801210679, 1725.7637449032627, 0.04800000227987766, 0.11200000531971455, 0.8480000402778387, 0.0, 0.0, 0.0, 0.0, 0.0, 1.6360727690581877E9, 0.0, 2021-11-04 19:39:29.058
91.0, 1223.050132759381, 637.73896014411, 294.07020346587524, 1883.2397123374976, 0.04800000227987766, 0.11200000531971455, 0.8480000402778387, 0.0, 0.0, 0.0, 0.0, 0.0, 1.6360727690581877E9, 0.0, 2021-11-04 19:39:29.058
92.0, 1279.253349293489, 661.7491178596392, 369.39926837338135, 1895.0203971979208, 0.09600000455975533, 0.11200000531971455, 0.8480000402778387, 0.0, 0.0, 0.0, 0.0, 0.0, 1.6360727690737188E9, 0.0, 2021-11-04 19:39:29.073
92.0, 1262.102168096695, 688.8933117380366, 458.2667711204849, 1992.6654451410286, 0.09600000455975533, 0.11200000531971455, 0.8480000402778387, 0.0, 0.0, 0.0, 0.0, 0.0, 1.6360727690737188E9, 0.0, 2021-11-04 19:39:29.073
93.0, 1277.1851846179925, 712.1592293623835, 490.0260015442036, 2067.844914050307, 0.09600000455975533, 0.11200000531971455, 0.8480000402778387, 0.0, 0.0, 0.0, 0.0, 0.0, 1.636072769088934E9, 0.0, 2021-11-04 19:39:29.088
93.0, 1433.3334875679575, 695.3296795617789, 465.6194144333713, 2080.123005604837, 0.09600000455975533, 0.11200000531971455, 0.8480000402778387, 0.0, 0.0, 0.0, 0.0, 0.0, 1.636072769088934E9, 0.0, 2021-11-04 19:39:29.088
94.0, 1217.4141035261564, 584.6286408733577, 344.992681262549, 1859.438989019487, 0.09600000455975533, 0.11200000531971455, 0.8480000402778387, 0.0, 0.0, 0.0, 0.0, 0.0, 1.63607276908963E9, 0.0, 2021-11-04 19:39:29.089
94.0, 1132.8474857280962, 479.5673713181168, 280.0455786320381, 1753.7307167719118, 0.09600000455975533, 0.11200000531971455, 0.8480000402778387, 0.0, 0.0, 0.0, 0.0, 0.0, 1.63607276908963E9, 0.0, 2021-11-04 19:39:29.089
95.0, 1067.0028071082197, 436.45380462892354, 237.62389343464747, 1756.8797125346027, 0.09600000455975533, 0.11200000531971455, 0.8480000402778387, 0.0, 0.0, 0.0, 0.0, 0.0, 1.636072769103888E9, 0.0, 2021-11-04 19:39:29.103
95.0, 1050.8950579990633, 469.5220000371337, 238.15869912831113, 1788.8147182562388, 0.09600000455975533, 0.11200000531971455, 0.8480000402778387, 0.0, 0.0, 0.0, 0.0, 0.0, 1.636072769103888E9, 0.0, 2021-11-04 19:39:29.103
96.0, 1177.0568431043066, 520.3248010352254, 299.5379372010939, 1830.5033830623142, 0.09600000455975533, 0.11200000531971455, 0.8480000402778387, 0.0, 0.0, 0.0, 0.0, 0.0, 1.6360727691046064E9, 0.0, 2021-11-04 19:39:29.104
96.0, 1219.2129954048432, 503.84680183045566, 318.40573247754946, 1830.5108628622256, 0.09600000455975533, 0.11200000531971455, 0.8480000402778387, 0.0, 0.0, 0.0, 0.0, 0.0, 1.6360727691046064E9, 0.0, 2021-11-04 19:39:29.104
97.0, 1197.0952270668931, 514.3297414062545, 316.59562089899555, 1820.966638175305, 0.09600000455975533, 0.11200000531971455, 0.8480000402778387, 0.0, 0.0, 0.0, 0.0, 0.0, 1.6360727691182415E9, 0.0, 2021-11-04 19:39:29.118
97.0, 1125.7790748118423, 535.1123654600233, 327.0935200746171, 1776.0504397074692, 0.09600000455975533, 0.11200000531971455, 0.8480000402778387, 0.0, 0.0, 0.0, 0.0, 0.0, 1.6360727691182415E9, 0.0, 2021-11-04 19:39:29.118
98.0, 1083.7500791097991, 549.4885408896953, 347.0683257379569, 1723.6806206279434, 0.09600000455975533, 0.11200000531971455, 0.8480000402778387, 0.0, 0.0, 0.0, 0.0, 0.0, 1.6360727691339717E9, 0.0, 2021-11-04 19:39:29.133
98.0, 1011.3680553673767, 582.706332296133, 371.9685796429403, 1691.6259381077252, 0.09600000455975533, 0.11200000531971455, 0.8480000402778387, 0.0, 0.0, 0.0, 0.0, 0.0, 1.6360727691339717E9, 0.0, 2021-11-04 19:39:29.133
99.0, 1042.0763739035465, 603.896605445072, 356.99028032040223, 1665.5812748163007, 0.09600000455975533, 0.11200000531971455, 0.8480000402778387, 0.0, 0.0, 0.0, 0.0, 0.0, 1.636072769134647E9, 0.0, 2021-11-04 19:39:29.134
99.0, 1019.2143654744141, 575.7388986786827, 339.5399071271531, 1626.6900551770814, 0.09600000455975533, 0.11200000531971455, 0.8480000402778387, 0.0, 0.0, 0.0, 0.0, 0.0, 1.636072769134647E9, 0.0, 2021-11-04 19:39:29.134
100.0, 880.7632691147737, 533.8407994750887, 321.8015616373159, 1542.3515712763183, 0.09600000455975533, 0.11200000531971455, 0.7360000349581242, 0.0, 0.0, 0.0, 0.0, 0.0, 1.636072769148974E9, 0.0, 2021-11-04 19:39:29.148
100.0, 854.1725804298185, 478.4080023318529, 224.41082689119503, 1468.7989588477649, 0.09600000455975533, 0.11200000531971455, 0.7360000349581242, 0.0, 0.0, 0.0, 0.0, 0.0, 1.636072769148974E9, 0.0, 2021-11-04 19:39:29.148
0.0, 338.57127303862944, -62.972435453906655, -349.64885670738295, 425.36126136034727, 0.09600000455975533, 0.11200000531971455, 0.7360000349581242, 0.0, 0.0, 0.0, 0.0, 0.0, 1.6360727691497507E9, 0.0, 2021-11-04 19:39:29.149
1.0, 289.5299649196677, -100.39761431049556, -361.5529582663439, 396.6051706010476, 0.09600000455975533, 0.12800000607967377, 0.7360000349581242, 0.0, 0.0, 0.0, 0.0, 0.0, 1.6360727691633043E9, 0.0, 2021-11-04 19:39:29.163
1.0, 266.731534789782, -102.88464778102934, -399.45310441730544, 393.97602093219757, 0.09600000455975533, 0.12800000607967377, 0.7360000349581242, 0.0, 0.0, 0.0, 0.0, 0.0, 1.6360727691633043E9, 0.0, 2021-11-04 19:39:29.163
2.0, 250.05532088736072, -98.48278553318232, -403.9970828634687, 419.84490892570466, -0.06400000303983688, 0.12800000607967377, 0.7360000349581242, 0.0, 0.0, 0.0, 0.0, 0.0, 1.6360727691957722E9, 0.0, 2021-11-04 19:39:29.195
2.0, 273.2576602124609, -83.39228921197355, -390.8737739189528, 447.3892720993608, -0.06400000303983688, 0.12800000607967377, 0.7360000349581242, 0.0, 0.0, 0.0, 0.0, 0.0, 1.6360727691957722E9, 0.0, 2021-11-04 19:39:29.195
3.0, 307.9115732018836, -73.57505182828754, -354.46210795035586, 449.11710587888956, -0.06400000303983688, 0.12800000607967377, 0.7360000349581242, 0.0, 0.0, 0.0, 0.0, 0.0, 1.6360727691964562E9, 0.0, 2021-11-04 19:39:29.196
3.0, 358.9986065966077, -89.66784133762121, -377.1633006813936, 485.0014459537342, -0.06400000303983688, 0.12800000607967377, 0.7360000349581242, 0.0, 0.0, 0.0, 0.0, 0.0, 1.6360727691964562E9, 0.0, 2021-11-04 19:39:29.196
4.0, 375.2260325043462, -70.54573286417872, -384.575782393571, 500.96333896461874, -0.06400000303983688, 0.12800000607967377, 0.7360000349581242, 0.0, 0.0, 0.0, 0.0, 0.0, 1.6360727691972156E9, 0.0, 2021-11-04 19:39:29.197
4.0, 373.5318578244187, -56.27801453322172, -353.9983603558503, 497.73954520281404, -0.06400000303983688, 0.12800000607967377, 0.7360000349581242, 0.0, 0.0, 0.0, 0.0, 0.0, 1.6360727691972156E9, 0.0, 2021-11-04 19:39:29.197
5.0, 348.3024927233346, -66.45054241269827, -371.40011484967545, 485.17722125165164, -0.06400000303983688, 0.12800000607967377, 0.7360000349581242, 0.0, 0.0, 0.0, 0.0, 0.0, 1.6360727692088745E9, 0.0, 2021-11-04 19:39:29.208
5.0, 334.15445119095966, -58.952043001540005, -391.8611075072549, 525.3400068758056, -0.06400000303983688, 0.12800000607967377, 0.7360000349581242, 0.0, 0.0, 0.0, 0.0, 0.0, 1.6360727692088745E9, 0.0, 2021-11-04 19:39:29.208
6.0, 385.0170905883424, -60.04783368855715, -339.08737923251465, 526.3535197637975, -0.06400000303983688, 0.12800000607967377, 0.7360000349581242, 0.0, 0.0, 0.0, 0.0, 0.0, 1.636072769223942E9, 0.0, 2021-11-04 19:39:29.223
6.0, 364.1110498360358, -50.922477796673775, -356.67986862408, 520.1527656372637, -0.06400000303983688, 0.12800000607967377, 0.7360000349581242, 0.0, 0.0, 0.0, 0.0, 0.0, 1.636072769223942E9, 0.0, 2021-11-04 19:39:29.223
7.0, 450.99640560662374, -27.918353169225156, -364.13348923576996, 551.4594681663439, -0.06400000303983688, 0.12800000607967377, 0.7360000349581242, 0.0, 0.0, 0.0, 0.0, 0.0, 1.6360727692246923E9, 0.0, 2021-11-04 19:39:29.224
7.0, 449.58272342337295, -6.533605222590268, -308.99240428907797, 593.7764361649752, -0.06400000303983688, 0.12800000607967377, 0.7360000349581242, 0.0, 0.0, 0.0, 0.0, 0.0, 1.6360727692246923E9, 0.0, 2021-11-04 19:39:29.224
8.0, 505.46804846124724, 52.05566748324782, -261.2189222550951, 641.7743121962994, -0.06400000303983688, 0.12800000607967377, 0.7360000349581242, 0.0, 0.0, 0.0, 0.0, 0.0, 1.6360727692389457E9, 0.0, 2021-11-04 19:39:29.238
8.0, 634.0682483376004, 96.28372435923666, -223.59926860081032, 700.2401682035998, -0.06400000303983688, 0.12800000607967377, 0.7360000349581242, 0.0, 0.0, 0.0, 0.0, 0.0, 1.6360727692389457E9, 0.0, 2021-11-04 19:39:29.238
9.0, 707.5834617665969, 160.4865868985653, -156.3109885980375, 741.2406914178282, -0.06400000303983688, 0.12800000607967377, 0.7360000349581242, 0.0, 0.0, 0.0, 0.0, 0.0, 1.6360727692396543E9, 0.0, 2021-11-04 19:39:29.239
9.0, 675.2445468497463, 194.3551208972931, -120.28079242492095, 787.761306966655, -0.06400000303983688, 0.12800000607967377, 0.7360000349581242, 0.0, 0.0, 0.0, 0.0, 0.0, 1.6360727692396543E9, 0.0, 2021-11-04 19:39:29.239
10.0, 762.6796679138206, 244.33140400517732, -77.05876863701269, 830.4821841605008, -0.06400000303983688, 0.12800000607967377, 0.8160000387579203, 0.0, 0.0, 0.0, 0.0, 0.0, 1.636072769301035E9, 0.0, 2021-11-04 19:39:29.301
10.0, 814.4885019999929, 297.3220464773476, -30.108064593281597, 891.6033691363409, -0.06400000303983688, 0.12800000607967377, 0.8160000387579203, 0.0, 0.0, 0.0, 0.0, 0.0, 1.636072769301035E9, 0.0, 2021-11-04 19:39:29.301
11.0, 883.0820070873015, 363.8810459887609, 31.009380482602865, 959.7219069292769, -0.06400000303983688, 0.25600001215934753, 0.8160000387579203, 0.0, 0.0, 0.0, 0.0, 0.0, 1.63607276930171E9, 0.0, 2021-11-04 19:39:29.301
11.0, 927.1754275648855, 424.3178292727098, 102.5461868350394, 1014.2272088835016, -0.06400000303983688, 0.25600001215934753, 0.8160000387579203, 0.0, 0.0, 0.0, 0.0, 0.0, 1.63607276930171E9, 0.0, 2021-11-04 19:39:29.301
12.0, 954.2560431440361, 483.4082485726103, 152.24945724615827, 1086.8336266232654, -0.01600000075995922, 0.25600001215934753, 0.8160000387579203, 0.0, 0.0, 0.0, 0.0, 0.0, 1.636072769302474E9, 0.0, 2021-11-04 19:39:29.302
12.0, 1048.0190749331377, 541.1859629880637, 243.25244286796078, 1154.955904316157, -0.01600000075995922, 0.25600001215934753, 0.8160000387579203, 0.0, 0.0, 0.0, 0.0, 0.0, 1.636072769302474E9, 0.0, 2021-11-04 19:39:29.302
13.0, 1082.3476166264154, 590.4591449042782, 260.8898110589944, 1197.8787361076102, -0.01600000075995922, 0.25600001215934753, 0.8160000387579203, 0.0, 0.0, 0.0, 0.0, 0.0, 1.6360727693031926E9, 0.0, 2021-11-04 19:39:29.303
13.0, 1085.9267008840106, 647.5935965273529, 300.7982834861614, 1249.7548883929849, -0.01600000075995922, 0.25600001215934753, 0.8160000387579203, 0.0, 0.0, 0.0, 0.0, 0.0, 1.6360727693031926E9, 0.0, 2021-11-04 19:39:29.303
14.0, 1008.7650849982165, 646.1686946442351, 324.33721380727366, 1248.6852770056576, -0.01600000075995922, 0.25600001215934753, 0.8160000387579203, 0.0, 0.0, 0.0, 0.0, 0.0, 1.6360727693457308E9, 0.0, 2021-11-04 19:39:29.345
14.0, 953.8895329483785, 527.0678406553343, 189.13609050912783, 1149.0057234866545, -0.01600000075995922, 0.25600001215934753, 0.8160000387579203, 0.0, 0.0, 0.0, 0.0, 0.0, 1.6360727693457308E9, 0.0, 2021-11-04 19:39:29.345
15.0, 969.3652389650233, 464.1440239008516, 76.52770284330472, 1072.3115950953215, -0.01600000075995922, 0.25600001215934753, 0.8160000387579203, 0.0, 0.0, 0.0, 0.0, 0.0, 1.6360727693464627E9, 0.0, 2021-11-04 19:39:29.346
15.0, 908.1168973906897, 416.10874886997044, 43.855936830397695, 989.9141192715615, -0.01600000075995922, 0.25600001215934753, 0.8160000387579203, 0.0, 0.0, 0.0, 0.0, 0.0, 1.6360727693464627E9, 0.0, 2021-11-04 19:39:29.346
16.0, 829.900629717391, 350.3463480491191, -1.6586456303484738, 949.770033147186, -0.01600000075995922, 0.25600001215934753, 0.8160000387579203, 0.0, 0.0, 0.0, 0.0, 0.0, 1.6360727693472729E9, 0.0, 2021-11-04 19:39:29.347
16.0, 711.0989677249454, 315.95422805659473, -41.91492875339463, 912.3859931901097, -0.01600000075995922, 0.25600001215934753, 0.8160000387579203, 0.0, 0.0, 0.0, 0.0, 0.0, 1.6360727693472729E9, 0.0, 2021-11-04 19:39:29.347
17.0, 709.5880481428467, 269.6093878056854, -100.33216606127098, 877.0364588089287, -0.01600000075995922, 0.25600001215934753, 0.8160000387579203, 0.0, 0.0, 0.0, 0.0, 0.0, 1.6360727693609989E9, 0.0, 2021-11-04 19:39:29.360
17.0, 716.4133655619808, 247.29714467003942, -133.34800287010148, 839.4841233538464, -0.01600000075995922, 0.25600001215934753, 0.8160000387579203, 0.0, 0.0, 0.0, 0.0, 0.0, 1.6360727693609989E9, 0.0, 2021-11-04 19:39:29.360
18.0, 678.2813456137665, 253.70733319409192, -124.18524797866121, 825.9344658143818, -0.01600000075995922, 0.25600001215934753, 0.8160000387579203, 0.0, 0.0, 0.0, 0.0, 0.0, 1.636072769361834E9, 0.0, 2021-11-04 19:39:29.361
18.0, 663.1758896927349, 256.1868868647143, -131.3808154934086, 826.813342303969, -0.01600000075995922, 0.25600001215934753, 0.8160000387579203, 0.0, 0.0, 0.0, 0.0, 0.0, 1.636072769361834E9, 0.0, 2021-11-04 19:39:29.361
19.0, 632.3067554584704, 241.38436284009367, -164.3592533026822, 800.4096486167982, -0.01600000075995922, 0.25600001215934753, 0.8160000387579203, 0.0, 0.0, 0.0, 0.0, 0.0, 1.6360727693625193E9, 0.0, 2021-11-04 19:39:29.362
19.0, 638.1821382888593, 225.7702805250883, -165.66447838721797, 807.2910645352677, -0.01600000075995922, 0.25600001215934753, 0.8160000387579203, 0.0, 0.0, 0.0, 0.0, 0.0, 1.6360727693625193E9, 0.0, 2021-11-04 19:39:29.362
20.0, 561.5067093973048, 233.09300463832915, -165.18203129293397, 792.0846313154325, -0.01600000075995922, 0.25600001215934753, 0.8800000417977571, 0.0, 0.0, 0.0, 0.0, 0.0, 1.6360727693632655E9, 0.0, 2021-11-04 19:39:29.363
20.0, 535.7126194029115, 204.26211587991565, -182.14995739189908, 775.6963897095993, -0.01600000075995922, 0.25600001215934753, 0.8800000417977571, 0.0, 0.0, 0.0, 0.0, 0.0, 1.6360727693632655E9, 0.0, 2021-11-04 19:39:29.363
21.0, 528.3001376907341, 201.34499391447753, -199.32731788838282, 756.8173747332767, -0.01600000075995922, 0.35200001671910286, 0.8800000417977571, 0.0, 0.0, 0.0, 0.0, 0.0, 1.6360727693740475E9, 0.0, 2021-11-04 19:39:29.374
21.0, 539.0373904635198, 191.28466303367168, -221.70687922323123, 723.4462474286556, -0.01600000075995922, 0.35200001671910286, 0.8800000417977571, 0.0, 0.0, 0.0, 0.0, 0.0, 1.6360727693740475E9, 0.0, 2021-11-04 19:39:29.374
22.0, 518.7746125035919, 176.4522198094055, -228.82390883890912, 695.0828461647034, -0.06400000303983688, 0.35200001671910286, 0.8800000417977571, 0.0, 0.0, 0.0, 0.0, 0.0, 1.6360727693746912E9, 0.0, 2021-11-04 19:39:29.374
22.0, 548.2076251548715, 170.27764498256147, -232.13746019965038, 710.0648853871971, -0.06400000303983688, 0.35200001671910286, 0.8800000417977571, 0.0, 0.0, 0.0, 0.0, 0.0, 1.6360727693746912E9, 0.0, 2021-11-04 19:39:29.374
23.0, 522.2788987620734, 183.35607512760907, -223.7226852993481, 723.6631616260856, -0.06400000303983688, 0.35200001671910286, 0.8800000417977571, 0.0, 0.0, 0.0, 0.0, 0.0, 1.636072769405042E9, 0.0, 2021-11-04 19:39:29.405
23.0, 514.5859245532192, 197.14508626423776, -212.14395503653213, 733.0428307149559, -0.06400000303983688, 0.35200001671910286, 0.8800000417977571, 0.0, 0.0, 0.0, 0.0, 0.0, 1.636072769405042E9, 0.0, 2021-11-04 19:39:29.405
24.0, 508.4001300265081, 204.88293927256018, -231.74477070430294, 744.4345659799874, -0.06400000303983688, 0.35200001671910286, 0.8800000417977571, 0.0, 0.0, 0.0, 0.0, 0.0, 1.6360727694058104E9, 0.0, 2021-11-04 19:39:29.405
24.0, 485.7737352945842, 197.42183886095881, -204.77261222386733, 714.601384033449, -0.06400000303983688, 0.35200001671910286, 0.8800000417977571, 0.0, 0.0, 0.0, 0.0, 0.0, 1.6360727694058104E9, 0.0, 2021-11-04 19:39:29.405
25.0, 510.08682490652427, 191.5763752302155, -179.31511322548613, 717.1071170037612, -0.06400000303983688, 0.35200001671910286, 0.8800000417977571, 0.0, 0.0, 0.0, 0.0, 0.0, 1.6360727694197004E9, 0.0, 2021-11-04 19:39:29.419
25.0, 569.958883297164, 188.12070767115802, -193.4855941575952, 730.1556279491633, -0.06400000303983688, 0.35200001671910286, 0.8800000417977571, 0.0, 0.0, 0.0, 0.0, 0.0, 1.6360727694197004E9, 0.0, 2021-11-04 19:39:29.419
26.0, 592.8582907258533, 190.2786299455911, -192.46086156973615, 724.5195987159386, -0.06400000303983688, 0.35200001671910286, 0.8800000417977571, 0.0, 0.0, 0.0, 0.0, 0.0, 1.6360727694203815E9, 0.0, 2021-11-04 19:39:29.420
26.0, 561.9218382923864, 191.3482413329184, -170.5787069289945, 746.8468014514074, -0.06400000303983688, 0.35200001671910286, 0.8800000417977571, 0.0, 0.0, 0.0, 0.0, 0.0, 1.6360727694203815E9, 0.0, 2021-11-04 19:39:29.420
27.0, 618.3569286237471, 195.9857172779739, -179.3973910245113, 771.840552855283, -0.06400000303983688, 0.35200001671910286, 0.8800000417977571, 0.0, 0.0, 0.0, 0.0, 0.0, 1.636072769421252E9, 0.0, 2021-11-04 19:39:29.421
27.0, 622.265124077443, 181.48238524980843, -179.30763342557475, 777.4391830889508, -0.06400000303983688, 0.35200001671910286, 0.8800000417977571, 0.0, 0.0, 0.0, 0.0, 0.0, 1.636072769421252E9, 0.0, 2021-11-04 19:39:29.421
28.0, 613.6147354799323, 201.9807769069448, -174.55422058189288, 783.6100180158392, -0.06400000303983688, 0.35200001671910286, 0.8800000417977571, 0.0, 0.0, 0.0, 0.0, 0.0, 1.636072769449761E9, 0.0, 2021-11-04 19:39:29.449
28.0, 641.0394218550064, 180.33797586336732, -178.12208513962105, 757.0679480303079, -0.06400000303983688, 0.35200001671910286, 0.8800000417977571, 0.0, 0.0, 0.0, 0.0, 0.0, 1.636072769449761E9, 0.0, 2021-11-04 19:39:29.449
29.0, 555.5490487678908, 177.121661901474, -183.369164777454, 772.4127575485036, -0.06400000303983688, 0.35200001671910286, 0.8800000417977571, 0.0, 0.0, 0.0, 0.0, 0.0, 1.6360727694506044E9, 0.0, 2021-11-04 19:39:29.450
29.0, 597.3087716731243, 160.03031910397112, -212.8994148275815, 756.125493241474, -0.06400000303983688, 0.35200001671910286, 0.8800000417977571, 0.0, 0.0, 0.0, 0.0, 0.0, 1.6360727694506044E9, 0.0, 2021-11-04 19:39:29.450
30.0, 618.2222922253422, 151.63798360340297, -221.02247753133997, 720.9068553587422, -0.06400000303983688, 0.35200001671910286, 0.944000044837594, 0.0, 0.0, 0.0, 0.0, 0.0, 1.6360727694511397E9, 0.0, 2021-11-04 19:39:29.451
30.0, 628.6266939020716, 122.62383974716067, -262.2885336424224, 719.5567514747381, -0.06400000303983688, 0.35200001671910286, 0.944000044837594, 0.0, 0.0, 0.0, 0.0, 0.0, 1.6360727694511397E9, 0.0, 2021-11-04 19:39:29.451
31.0, 607.6271556508727, 115.77234302833676, -305.506817530375, 708.7559204027057, -0.06400000303983688, 0.3200000151991844, 0.944000044837594, 0.0, 0.0, 0.0, 0.0, 0.0, 1.6360727694632463E9, 0.0, 2021-11-04 19:39:29.463
31.0, 620.9000605936162, 114.10808754805475, -323.58549391618, 702.8842774722725, -0.06400000303983688, 0.3200000151991844, 0.944000044837594, 0.0, 0.0, 0.0, 0.0, 0.0, 1.6360727694632463E9, 0.0, 2021-11-04 19:39:29.463
32.0, 642.3633464393206, 87.29674476571381, -347.42735613370314, 679.1845314530656, -0.06400000303983688, 0.3200000151991844, 0.944000044837594, 0.0, 0.0, 0.0, 0.0, 0.0, 1.63607276947892E9, 0.0, 2021-11-04 19:39:29.478
32.0, 610.9668863113038, 72.31096564326435, -326.0276485872455, 682.8795526092872, -0.06400000303983688, 0.3200000151991844, 0.944000044837594, 0.0, 0.0, 0.0, 0.0, 0.0, 1.63607276947892E9, 0.0, 2021-11-04 19:39:29.478
33.0, 575.4153973325156, 52.7662484748289, -355.0829313430004, 668.6342736780643, -0.06400000303983688, 0.3200000151991844, 0.944000044837594, 0.0, 0.0, 0.0, 0.0, 0.0, 1.636072769479696E9, 0.0, 2021-11-04 19:39:29.479
33.0, 543.1438006148674, 66.49542121216655, -375.73839879827574, 671.3569208458066, -0.06400000303983688, 0.3200000151991844, 0.944000044837594, 0.0, 0.0, 0.0, 0.0, 0.0, 1.636072769479696E9, 0.0, 2021-11-04 19:39:29.479
34.0, 640.7626692582853, 67.10876480489969, -390.95979161793366, 676.0205760905519, -0.06400000303983688, 0.3200000151991844, 0.944000044837594, 0.0, 0.0, 0.0, 0.0, 0.0, 1.6360727694933195E9, 0.0, 2021-11-04 19:39:29.493
34.0, 681.2246468788944, 55.62727194093168, -395.8441009600647, 652.8780751647428, -0.06400000303983688, 0.3200000151991844, 0.944000044837594, 0.0, 0.0, 0.0, 0.0, 0.0, 1.6360727694933195E9, 0.0, 2021-11-04 19:39:29.493
35.0, 638.1110801897012, 44.908718667924404, -404.8123810538091, 659.6510339844972, -0.06400000303983688, 0.3200000151991844, 0.944000044837594, 0.0, 0.0, 0.0, 0.0, 0.0, 1.636072769526666E9, 0.0, 2021-11-04 19:39:29.526
35.0, 596.298998685088, 51.89859168510884, -428.1493567773141, 656.1243083262816, -0.06400000303983688, 0.3200000151991844, 0.944000044837594, 0.0, 0.0, 0.0, 0.0, 0.0, 1.636072769526666E9, 0.0, 2021-11-04 19:39:29.526
36.0, 656.6048854705878, 28.800969558767974, -433.7853860105388, 634.8592371782288, -0.06400000303983688, 0.3200000151991844, 0.944000044837594, 0.0, 0.0, 0.0, 0.0, 0.0, 1.6360727695274575E9, 0.0, 2021-11-04 19:39:29.527
36.0, 587.2185215926729, 23.669826819561422, -448.8684025318362, 618.3027000743896, -0.06400000303983688, 0.3200000151991844, 0.944000044837594, 0.0, 0.0, 0.0, 0.0, 0.0, 1.6360727695274575E9, 0.0, 2021-11-04 19:39:29.527
37.0, 629.4045930928551, 13.478599440306425, -442.2749589099549, 617.6257781824097, -0.06400000303983688, 0.3200000151991844, 0.944000044837594, 0.0, 0.0, 0.0, 0.0, 0.0, 1.636072769528183E9, 0.0, 2021-11-04 19:39:29.528
37.0, 579.2712341868319, 15.101716021075845, -467.56416241033, 568.9472403591499, -0.06400000303983688, 0.3200000151991844, 0.944000044837594, 0.0, 0.0, 0.0, 0.0, 0.0, 1.636072769528183E9, 0.0, 2021-11-04 19:39:29.528
38.0, 594.2383138095029, -8.366156200878322, -473.6078407387249, 535.7294489527121, -0.06400000303983688, 0.3200000151991844, 0.944000044837594, 0.0, 0.0, 0.0, 0.0, 0.0, 1.636072769528891E9, 0.0, 2021-11-04 19:39:29.528
38.0, 615.0583368628286, -23.041523627005517, -497.2926271581091, 530.617005713284, -0.06400000303983688, 0.3200000151991844, 0.944000044837594, 0.0, 0.0, 0.0, 0.0, 0.0, 1.636072769528891E9, 0.0, 2021-11-04 19:39:29.528
39.0, 559.8461938169785, -26.082062290981412, -520.7231003805064, 517.7554897656664, -0.06400000303983688, 0.3200000151991844, 0.944000044837594, 0.0, 0.0, 0.0, 0.0, 0.0, 1.6360727695537372E9, 0.0, 2021-11-04 19:39:29.553
39.0, 614.269217972178, -21.635321243666112, -488.103692966979, 512.9347587227821, -0.06400000303983688, 0.3200000151991844, 0.944000044837594, 0.0, 0.0, 0.0, 0.0, 0.0, 1.6360727695537372E9, 0.0, 2021-11-04 19:39:29.553
40.0, 587.8767439848743, -21.37726814672351, -531.6585678509437, 511.8427079357207, -0.06400000303983688, 0.3200000151991844, 0.944000044837594, 0.0, 0.0, 0.0, 0.0, 0.0, 1.6360727695702553E9, 0.0, 2021-11-04 19:39:29.570
40.0, 567.0006224322133, -7.337683713063598, -552.3439545058645, 487.21920662745833, -0.06400000303983688, 0.3200000151991844, 0.944000044837594, 0.0, 0.0, 0.0, 0.0, 0.0, 1.6360727695702553E9, 0.0, 2021-11-04 19:39:29.570
41.0, 573.6875635529868, -32.27907651755959, -563.8142276699655, 480.0722578121349, -0.06400000303983688, 0.3200000151991844, 0.944000044837594, 0.0, 0.0, 0.0, 0.0, 0.0, 1.6360727695710588E9, 0.0, 2021-11-04 19:39:29.571
41.0, 561.4693103977479, 0.5086263939738274, -595.285485797096, 516.7195374779403, -0.06400000303983688, 0.3200000151991844, 0.944000044837594, 0.0, 0.0, 0.0, 0.0, 0.0, 1.6360727695710588E9, 0.0, 2021-11-04 19:39:29.571
42.0, 536.2436851966195, 28.052989567629993, -527.8999683954753, 551.422069166787, -0.06400000303983688, 0.3200000151991844, 0.944000044837594, 0.0, 0.0, 0.0, 0.0, 0.0, 1.636072769571746E9, 0.0, 2021-11-04 19:39:29.571
42.0, 612.5600836924277, 49.7631088104099, -524.5041392357089, 558.8532503787428, -0.06400000303983688, 0.3200000151991844, 0.944000044837594, 0.0, 0.0, 0.0, 0.0, 0.0, 1.636072769571746E9, 0.0, 2021-11-04 19:39:29.571
43.0, 605.6150894747116, 68.1821160921827, -507.76434703404084, 564.5117190117016, -0.06400000303983688, 0.3200000151991844, 0.944000044837594, 0.0, 0.0, 0.0, 0.0, 0.0, 1.6360727695832393E9, 0.0, 2021-11-04 19:39:29.583
43.0, 667.1214841459878, 94.38759508170187, -484.44607081031427, 592.560968679376, -0.06400000303983688, 0.3200000151991844, 0.944000044837594, 0.0, 0.0, 0.0, 0.0, 0.0, 1.6360727695832393E9, 0.0, 2021-11-04 19:39:29.583
44.0, 640.5420151608996, 114.25768354628235, -483.9898030157201, 619.8846777556464, -0.06400000303983688, 0.3200000151991844, 0.944000044837594, 0.0, 0.0, 0.0, 0.0, 0.0, 1.6360727696456668E9, 0.0, 2021-11-04 19:39:29.645
44.0, 687.7919112010859, 137.03741417638958, -476.77553600119427, 626.7174749746919, -0.06400000303983688, 0.3200000151991844, 0.944000044837594, 0.0, 0.0, 0.0, 0.0, 0.0, 1.6360727696456668E9, 0.0, 2021-11-04 19:39:29.645
45.0, 683.8051778483205, 141.1438243277371, -500.6173982187174, 640.7159205088392, -0.06400000303983688, 0.3200000151991844, 0.944000044837594, 0.0, 0.0, 0.0, 0.0, 0.0, 1.6360727696464496E9, 0.0, 2021-11-04 19:39:29.646
45.0, 698.7759973709472, 96.88958815205842, -501.79920660471544, 641.9762667939067, -0.06400000303983688, 0.3200000151991844, 0.944000044837594, 0.0, 0.0, 0.0, 0.0, 0.0, 1.6360727696464496E9, 0.0, 2021-11-04 19:39:29.646
46.0, 697.68020668393, 101.20169280096889, -526.4825463122688, 618.4672556724399, -0.06400000303983688, 0.3200000151991844, 0.944000044837594, 0.0, 0.0, 0.0, 0.0, 0.0, 1.6360727696607406E9, 0.0, 2021-11-04 19:39:29.660
46.0, 657.0910724648274, 115.97803752589971, -540.1855397499166, 610.168417670764, -0.06400000303983688, 0.3200000151991844, 0.944000044837594, 0.0, 0.0, 0.0, 0.0, 0.0, 1.6360727696607406E9, 0.0, 2021-11-04 19:39:29.660
47.0, 652.3750586207025, 118.55482859537005, -529.5604839758016, 606.682830912061, -0.06400000303983688, 0.3200000151991844, 0.944000044837594, 0.0, 0.0, 0.0, 0.0, 0.0, 1.6360727696614993E9, 0.0, 2021-11-04 19:39:29.661
47.0, 631.2932425704785, 99.98996521532536, -550.3954666289501, 609.8393064746633, -0.06400000303983688, 0.3200000151991844, 0.944000044837594, 0.0, 0.0, 0.0, 0.0, 0.0, 1.6360727696614993E9, 0.0, 2021-11-04 19:39:29.661
48.0, 617.1452010381036, 65.38093102537096, -561.1102800020017, 583.2074788901955, -0.06400000303983688, 0.3200000151991844, 0.944000044837594, 0.0, 0.0, 0.0, 0.0, 0.0, 1.6360727696622095E9, 0.0, 2021-11-04 19:39:29.662
48.0, 534.6018691160716, 48.846833321265876, -610.6863938146271, 525.7139968713745, -0.06400000303983688, 0.3200000151991844, 0.944000044837594, 0.0, 0.0, 0.0, 0.0, 0.0, 1.6360727696622095E9, 0.0, 2021-11-04 19:39:29.662
49.0, 505.4717883612029, 14.88854172360152, -609.0146585344337, 516.3605070821941, -0.06400000303983688, 0.3200000151991844, 0.944000044837594, 0.0, 0.0, 0.0, 0.0, 0.0, 1.6360727696737087E9, 0.0, 2021-11-04 19:39:29.673
49.0, 537.1487409858964, -18.46762598119676, -652.5770132183097, 473.73312738724053, -0.06400000303983688, 0.3200000151991844, 0.944000044837594, 0.0, 0.0, 0.0, 0.0, 0.0, 1.6360727696737087E9, 0.0, 2021-11-04 19:39:29.673
50.0, 509.9970673075877, -50.911258096806705, -737.9514494067989, 421.3932275073603, -0.06400000303983688, 0.3200000151991844, 0.9600000455975533, 0.0, 0.0, 0.0, 0.0, 0.0, 1.636072769690951E9, 0.0, 2021-11-04 19:39:29.690
50.0, 425.9278562036343, -87.36406296491623, -776.7229922474362, 390.3670174749568, -0.06400000303983688, 0.3200000151991844, 0.9600000455975533, 0.0, 0.0, 0.0, 0.0, 0.0, 1.636072769690951E9, 0.0, 2021-11-04 19:39:29.690
51.0, 376.6097954879515, -101.57942269649357, -753.5730115217157, 370.0930198151618, -0.06400000303983688, 0.35200001671910286, 0.9600000455975533, 0.0, 0.0, 0.0, 0.0, 0.0, 1.6360727696916769E9, 0.0, 2021-11-04 19:39:29.691
51.0, 413.8180601471104, -106.98731803242117, -779.9243466095068, 384.9516423391178, -0.06400000303983688, 0.35200001671910286, 0.9600000455975533, 0.0, 0.0, 0.0, 0.0, 0.0, 1.6360727696916769E9, 0.0, 2021-11-04 19:39:29.691
52.0, 417.8010535999201, -80.92395524121821, -735.0792062408291, 402.3010382335633, 0.0, 0.35200001671910286, 0.9600000455975533, 0.0, 0.0, 0.0, 0.0, 0.0, 1.636072769692434E9, 0.0, 2021-11-04 19:39:29.692
52.0, 443.16879499936476, -90.13158893212676, -678.3187446133234, 411.4600532250479, 0.0, 0.35200001671910286, 0.9600000455975533, 0.0, 0.0, 0.0, 0.0, 0.0, 1.636072769692434E9, 0.0, 2021-11-04 19:39:29.692
53.0, 438.5574983539991, -103.69620607141405, -695.0323575153016, 410.80931063275784, 0.0, 0.35200001671910286, 0.9600000455975533, 0.0, 0.0, 0.0, 0.0, 0.0, 1.636072769693179E9, 0.0, 2021-11-04 19:39:29.693
53.0, 486.5852935849689, -94.09962278511375, -712.8492409042083, 440.4779369812459, 0.0, 0.35200001671910286, 0.9600000455975533, 0.0, 0.0, 0.0, 0.0, 0.0, 1.636072769693179E9, 0.0, 2021-11-04 19:39:29.693
54.0, 453.81629017321393, -79.61499025672674, -710.5305029316805, 460.6958361417055, 0.0, 0.35200001671910286, 0.9600000455975533, 0.0, 0.0, 0.0, 0.0, 0.0, 1.6360727697039783E9, 0.0, 2021-11-04 19:39:29.703
54.0, 389.67326603317633, -83.90465550590307, -655.6212917822413, 461.30543983448297, 0.0, 0.35200001671910286, 0.9600000455975533, 0.0, 0.0, 0.0, 0.0, 0.0, 1.6360727697039783E9, 0.0, 2021-11-04 19:39:29.703
55.0, 436.074204783421, -96.61283555533737, -670.3003991083242, 410.13238874077797, 0.0, 0.35200001671910286, 0.9600000455975533, 0.0, 0.0, 0.0, 0.0, 0.0, 1.6360727697046504E9, 0.0, 2021-11-04 19:39:29.704
55.0, 387.63502055732533, -97.69740654248744, -663.0449931942858, 420.274997420609, 0.0, 0.35200001671910286, 0.9600000455975533, 0.0, 0.0, 0.0, 0.0, 0.0, 1.6360727697046504E9, 0.0, 2021-11-04 19:39:29.704
56.0, 417.2625080063008, -122.2797689512372, -656.2458550748415, 429.2470174143091, 0.0, 0.35200001671910286, 0.9600000455975533, 0.0, 0.0, 0.0, 0.0, 0.0, 1.6360727697516394E9, 0.0, 2021-11-04 19:39:29.751
56.0, 408.6869174079038, -139.5094880471006, -654.9107107906602, 432.7999223722145, 0.0, 0.35200001671910286, 0.9600000455975533, 0.0, 0.0, 0.0, 0.0, 0.0, 1.6360727697516394E9, 0.0, 2021-11-04 19:39:29.751
57.0, 400.30954150715843, -152.8833702886477, -648.1564514706843, 417.72812555078417, 0.0, 0.35200001671910286, 0.9600000455975533, 0.0, 0.0, 0.0, 0.0, 0.0, 1.6360727697524242E9, 0.0, 2021-11-04 19:39:29.752
57.0, 431.20859494106844, -143.52614059951156, -635.0181829263456, 414.6053090877831, 0.0, 0.35200001671910286, 0.9600000455975533, 0.0, 0.0, 0.0, 0.0, 0.0, 1.6360727697524242E9, 0.0, 2021-11-04 19:39:29.752
58.0, 412.4268173635937, -134.1352518107742, -619.9950048043393, 423.77928367909044, 0.0, 0.35200001671910286, 0.9600000455975533, 0.0, 0.0, 0.0, 0.0, 0.0, 1.6360727697530684E9, 0.0, 2021-11-04 19:39:29.753
58.0, 401.255736195948, -148.23093474376947, -634.33752113441, 405.0162056013942, 0.0, 0.35200001671910286, 0.9600000455975533, 0.0, 0.0, 0.0, 0.0, 0.0, 1.6360727697530684E9, 0.0, 2021-11-04 19:39:29.753
59.0, 399.6101802154444, -168.3029778059572, -632.5348893557675, 403.42674812022597, 0.0, 0.35200001671910286, 0.9600000455975533, 0.0, 0.0, 0.0, 0.0, 0.0, 1.636072769753919E9, 0.0, 2021-11-04 19:39:29.753
59.0, 375.84685589699075, -155.183408761397, -594.5150664062239, 419.3811613311991, 0.0, 0.35200001671910286, 0.9600000455975533, 0.0, 0.0, 0.0, 0.0, 0.0, 1.636072769753919E9, 0.0, 2021-11-04 19:39:29.753
60.0, 398.735043625813, -127.25757579226047, -562.4641237859614, 449.53597467392683, 0.0, 0.35200001671910286, 0.9760000463575125, 0.0, 0.0, 0.0, 0.0, 0.0, 1.6360727697807224E9, 0.0, 2021-11-04 19:39:29.780
60.0, 392.3435546015389, -104.89297405723482, -504.02070717839524, 483.72987996879965, 0.0, 0.35200001671910286, 0.9760000463575125, 0.0, 0.0, 0.0, 0.0, 0.0, 1.6360727697807224E9, 0.0, 2021-11-04 19:39:29.780
61.0, 347.90980322798714, -100.21809911262244, -493.952896497678, 496.9728657118976, 0.0, 0.35200001671910286, 0.9760000463575125, 0.0, 0.0, 0.0, 0.0, 0.0, 1.6360727697813928E9, 0.0, 2021-11-04 19:39:29.781
61.0, 436.90820247353986, -84.01311260461807, -454.4221539660357, 537.5021615317091, 0.0, 0.35200001671910286, 0.9760000463575125, 0.0, 0.0, 0.0, 0.0, 0.0, 1.6360727697813928E9, 0.0, 2021-11-04 19:39:29.781
62.0, 477.3253012946807, -72.00803374685347, -458.9474329124205, 556.7589064035565, -0.01600000075995922, 0.35200001671910286, 0.9760000463575125, 0.0, 0.0, 0.0, 0.0, 0.0, 1.636072769782195E9, 0.0, 2021-11-04 19:39:29.782
62.0, 472.2465171548538, -43.248203087598085, -402.1271328856237, 593.1855319719762, -0.01600000075995922, 0.35200001671910286, 0.9760000463575125, 0.0, 0.0, 0.0, 0.0, 0.0, 1.636072769782195E9, 0.0, 2021-11-04 19:39:29.782
63.0, 497.83117275172845, -25.236844900995493, -340.53472051536664, 622.18097632844, -0.01600000075995922, 0.35200001671910286, 0.9760000463575125, 0.0, 0.0, 0.0, 0.0, 0.0, 1.6360727697940009E9, 0.0, 2021-11-04 19:39:29.794
63.0, 489.46127665089443, -11.485232763923705, -359.4212152916007, 649.111995909363, -0.01600000075995922, 0.35200001671910286, 0.9760000463575125, 0.0, 0.0, 0.0, 0.0, 0.0, 1.6360727697940009E9, 0.0, 2021-11-04 19:39:29.794
64.0, 514.9000761494972, -6.993612917140126, -330.97927612857893, 665.9116265103221, -0.01600000075995922, 0.35200001671910286, 0.9760000463575125, 0.0, 0.0, 0.0, 0.0, 0.0, 1.6360727697947137E9, 0.0, 2021-11-04 19:39:29.794
64.0, 524.7547125327401, 21.111735249869525, -327.60214646859095, 671.147486448288, -0.01600000075995922, 0.35200001671910286, 0.9760000463575125, 0.0, 0.0, 0.0, 0.0, 0.0, 1.6360727697947137E9, 0.0, 2021-11-04 19:39:29.794
65.0, 548.2749433540739, 41.33711421024054, -308.40523999603465, 695.0192678654566, -0.01600000075995922, 0.35200001671910286, 0.9760000463575125, 0.0, 0.0, 0.0, 0.0, 0.0, 1.6360727698100276E9, 0.0, 2021-11-04 19:39:29.810
65.0, 546.6892257728614, 68.79171978496015, -267.05690608592704, 716.9089023061097, -0.01600000075995922, 0.35200001671910286, 0.9760000463575125, 0.0, 0.0, 0.0, 0.0, 0.0, 1.6360727698100276E9, 0.0, 2021-11-04 19:39:29.810
66.0, 581.3132195626386, 79.36441695969552, -247.21673682099208, 720.2635925663635, -0.01600000075995922, 0.35200001671910286, 0.9760000463575125, 0.0, 0.0, 0.0, 0.0, 0.0, 1.6360727698239655E9, 0.0, 2021-11-04 19:39:29.823
66.0, 497.49832165567204, 101.85243539325893, -259.08717928035185, 741.7530577117577, -0.01600000075995922, 0.35200001671910286, 0.9760000463575125, 0.0, 0.0, 0.0, 0.0, 0.0, 1.6360727698239655E9, 0.0, 2021-11-04 19:39:29.823
67.0, 595.3116650967859, 109.87078089825809, -235.27149636251852, 749.1057010246441, -0.01600000075995922, 0.35200001671910286, 0.9760000463575125, 0.0, 0.0, 0.0, 0.0, 0.0, 1.6360727698247392E9, 0.0, 2021-11-04 19:39:29.824
67.0, 597.9108955659904, 88.2279798546806, -229.19415893452242, 729.2692716596648, -0.01600000075995922, 0.35200001671910286, 0.9760000463575125, 0.0, 0.0, 0.0, 0.0, 0.0, 1.6360727698247392E9, 0.0, 2021-11-04 19:39:29.824
68.0, 565.9197913450189, 88.53465165104717, -250.4330507828854, 727.3581827823073, -0.01600000075995922, 0.35200001671910286, 0.9760000463575125, 0.0, 0.0, 0.0, 0.0, 0.0, 1.636072769838986E9, 0.0, 2021-11-04 19:39:29.838
68.0, 539.5684562572278, 92.13617530837655, -279.2639395412989, 713.4270554473624, -0.01600000075995922, 0.35200001671910286, 0.9760000463575125, 0.0, 0.0, 0.0, 0.0, 0.0, 1.636072769838986E9, 0.0, 2021-11-04 19:39:29.838
69.0, 497.94336975039914, 48.25218922831118, -306.2435778216459, 675.2763359993696, -0.01600000075995922, 0.35200001671910286, 0.9760000463575125, 0.0, 0.0, 0.0, 0.0, 0.0, 1.6360727698397567E9, 0.0, 2021-11-04 19:39:29.839
69.0, 476.790495601017, 54.946610148996115, -302.0511499713175, 651.355935882777, -0.01600000075995922, 0.35200001671910286, 0.9760000463575125, 0.0, 0.0, 0.0, 0.0, 0.0, 1.6360727698397567E9, 0.0, 2021-11-04 19:39:29.839
70.0, 469.44533208804205, 68.2195150917396, -317.4969367883168, 663.1665399428457, -0.01600000075995922, 0.35200001671910286, 0.9760000463575125, 0.0, 0.0, 0.0, 0.0, 0.0, 1.6360727698532314E9, 0.0, 2021-11-04 19:39:29.853
70.0, 510.5206533013843, 91.53031151555479, -297.84376252116635, 692.7566283922642, -0.01600000075995922, 0.35200001671910286, 0.9760000463575125, 0.0, 0.0, 0.0, 0.0, 0.0, 1.6360727698532314E9, 0.0, 2021-11-04 19:39:29.853
71.0, 511.49676718981937, 106.73674473538995, -261.56673295097426, 716.9425614057109, -0.01600000075995922, 0.3840000182390213, 0.9760000463575125, 0.0, 0.0, 0.0, 0.0, 0.0, 1.636072769868961E9, 0.0, 2021-11-04 19:39:29.868
71.0, 564.7417228589766, 105.06874935515225, -306.5427698181011, 731.2476787362248, -0.01600000075995922, 0.3840000182390213, 0.9760000463575125, 0.0, 0.0, 0.0, 0.0, 0.0, 1.636072769868961E9, 0.0, 2021-11-04 19:39:29.868
72.0, 562.5688409847207, 103.74482477083802, -284.6755747771822, 744.367247780785, -0.01600000075995922, 0.3840000182390213, 0.9760000463575125, 0.0, 0.0, 0.0, 0.0, 0.0, 1.636072769869684E9, 0.0, 2021-11-04 19:39:29.869
72.0, 531.0115651586093, 90.06801063288003, -267.9507421753369, 723.453727228567, -0.01600000075995922, 0.3840000182390213, 0.9760000463575125, 0.0, 0.0, 0.0, 0.0, 0.0, 1.636072769869684E9, 0.0, 2021-11-04 19:39:29.869
73.0, 546.4349125758745, 92.57000370323658, -287.9779064380564, 717.4661473995075, -0.01600000075995922, 0.3840000182390213, 0.9760000463575125, 0.0, 0.0, 0.0, 0.0, 0.0, 1.6360727698988287E9, 0.0, 2021-11-04 19:39:29.898
73.0, 485.1416922020726, 104.24971126485616, -278.65807574847713, 714.7135810321197, -0.01600000075995922, 0.3840000182390213, 0.9760000463575125, 0.0, 0.0, 0.0, 0.0, 0.0, 1.6360727698988287E9, 0.0, 2021-11-04 19:39:29.898
74.0, 546.9697182695381, 88.8562830472365, -273.24270061263815, 687.4945891546085, -0.01600000075995922, 0.3840000182390213, 0.9760000463575125, 0.0, 0.0, 0.0, 0.0, 0.0, 1.636072769915373E9, 0.0, 2021-11-04 19:39:29.915
74.0, 483.2156437248923, 80.87159664183855, -297.353835626971, 680.108286742121, -0.01600000075995922, 0.3840000182390213, 0.9760000463575125, 0.0, 0.0, 0.0, 0.0, 0.0, 1.636072769915373E9, 0.0, 2021-11-04 19:39:29.915
75.0, 527.6157359988429, 38.405032644979656, -342.75996098900214, 639.2872787257656, -0.01600000075995922, 0.3840000182390213, 0.9760000463575125, 0.0, 0.0, 0.0, 0.0, 0.0, 1.6360727699160872E9, 0.0, 2021-11-04 19:39:29.916
75.0, 451.25071880361065, -4.480400146916509, -374.96049960749224, 598.8664400046691, -0.01600000075995922, 0.3840000182390213, 0.9760000463575125, 0.0, 0.0, 0.0, 0.0, 0.0, 1.6360727699160872E9, 0.0, 2021-11-04 19:39:29.916
76.0, 424.17010322446004, -2.128003074787557, -358.46006100298837, 579.4040006352589, -0.01600000075995922, 0.3840000182390213, 0.9760000463575125, 0.0, 0.0, 0.0, 0.0, 0.0, 1.636072769916819E9, 0.0, 2021-11-04 19:39:29.916
76.0, 458.7155591151677, -2.80866486672312, -385.7613306795247, 576.2587447725236, -0.01600000075995922, 0.3840000182390213, 0.9760000463575125, 0.0, 0.0, 0.0, 0.0, 0.0, 1.636072769916819E9, 0.0, 2021-11-04 19:39:29.916
77.0, 451.9799992949702, 11.305717566050589, -337.6288182497956, 579.7929502306506, -0.01600000075995922, 0.3840000182390213, 0.9760000463575125, 0.0, 0.0, 0.0, 0.0, 0.0, 1.6360727699175978E9, 0.0, 2021-11-04 19:39:29.917
77.0, 454.35857566678897, 28.11656786687672, -301.381707879249, 579.0262707397342, -0.01600000075995922, 0.3840000182390213, 0.9760000463575125, 0.0, 0.0, 0.0, 0.0, 0.0, 1.6360727699175978E9, 0.0, 2021-11-04 19:39:29.917
78.0, 451.3030774029903, 27.985671368427575, -268.9717348632403, 600.1043468900025, -0.01600000075995922, 0.3840000182390213, 0.9760000463575125, 0.0, 0.0, 0.0, 0.0, 0.0, 1.636072769928244E9, 0.0, 2021-11-04 19:39:29.928
78.0, 399.15017252089456, 49.14976521767676, -244.68108465103433, 625.1504568932578, -0.01600000075995922, 0.3840000182390213, 0.9760000463575125, 0.0, 0.0, 0.0, 0.0, 0.0, 1.636072769928244E9, 0.0, 2021-11-04 19:39:29.928
79.0, 462.6761131682433, 83.1529356148094, -220.50263143749908, 636.063484963961, -0.01600000075995922, 0.3840000182390213, 0.9760000463575125, 0.0, 0.0, 0.0, 0.0, 0.0, 1.6360727699432168E9, 0.0, 2021-11-04 19:39:29.943
79.0, 498.53427394339815, 81.30542503669858, -242.82235437305644, 638.4682406354696, -0.01600000075995922, 0.3840000182390213, 0.9760000463575125, 0.0, 0.0, 0.0, 0.0, 0.0, 1.6360727699432168E9, 0.0, 2021-11-04 19:39:29.943
80.0, 521.9198683663271, 82.36007682420313, -214.76936480542645, 646.796997836791, -0.01600000075995922, 0.3840000182390213, 0.9760000463575125, 0.0, 0.0, 0.0, 0.0, 0.0, 1.6360727699589355E9, 0.0, 2021-11-04 19:39:29.958
80.0, 535.2825309080072, 76.79884559009224, -181.16262380359694, 657.5641698092222, -0.01600000075995922, 0.3840000182390213, 0.9760000463575125, 0.0, 0.0, 0.0, 0.0, 0.0, 1.6360727699589355E9, 0.0, 2021-11-04 19:39:29.958
81.0, 529.2799914791249, 86.90779517032206, -165.6195995877497, 651.729925878346, -0.01600000075995922, 0.288000013679266, 0.9760000463575125, 0.0, 0.0, 0.0, 0.0, 0.0, 1.6360727699596937E9, 0.0, 2021-11-04 19:39:29.959
81.0, 526.6508418102749, 78.53041926957667, -172.55337410559878, 639.9006223184988, -0.01600000075995922, 0.288000013679266, 0.9760000463575125, 0.0, 0.0, 0.0, 0.0, 0.0, 1.6360727699596937E9, 0.0, 2021-11-04 19:39:29.959
82.0, 529.833496672567, 86.84047697111964, -129.25655231857672, 667.8488946873695, 0.03200000151991844, 0.288000013679266, 0.9760000463575125, 0.0, 0.0, 0.0, 0.0, 0.0, 1.6360727699896324E9, 0.0, 2021-11-04 19:39:29.989
82.0, 522.6042700582184, 117.69091170560569, -121.9263484054245, 695.7373286569491, 0.03200000151991844, 0.288000013679266, 0.9760000463575125, 0.0, 0.0, 0.0, 0.0, 0.0, 1.6360727699896324E9, 0.0, 2021-11-04 19:39:29.989
83.0, 544.643500497099, 104.5676027610898, -156.00805670162663, 666.1621998073533, 0.03200000151991844, 0.288000013679266, 0.9760000463575125, 0.0, 0.0, 0.0, 0.0, 0.0, 1.636072769990491E9, 0.0, 2021-11-04 19:39:29.990
83.0, 558.6494258311577, 80.1123969508335, -157.07392818899825, 630.7116881273687, 0.03200000151991844, 0.288000013679266, 0.9760000463575125, 0.0, 0.0, 0.0, 0.0, 0.0, 1.636072769990491E9, 0.0, 2021-11-04 19:39:29.990
84.0, 424.38701742189005, 69.71921497397125, -157.58629448292777, 618.5495334714651, 0.03200000151991844, 0.288000013679266, 0.9760000463575125, 0.0, 0.0, 0.0, 0.0, 0.0, 1.636072769991073E9, 0.0, 2021-11-04 19:39:29.991
84.0, 520.4762669834308, 55.09246624726802, -172.08214671118185, 614.0541737247258, 0.03200000151991844, 0.288000013679266, 0.9760000463575125, 0.0, 0.0, 0.0, 0.0, 0.0, 1.636072769991073E9, 0.0, 2021-11-04 19:39:29.991
85.0, 495.8116267756559, 33.243970706127584, -198.36242369981483, 558.6475558811799, 0.03200000151991844, 0.288000013679266, 0.9760000463575125, 0.0, 0.0, 0.0, 0.0, 0.0, 1.6360727700032485E9, 0.0, 2021-11-04 19:39:30.003
85.0, 505.8495182567276, 25.35278179962188, -191.6231239796616, 574.7478251904249, 0.03200000151991844, 0.288000013679266, 0.9760000463575125, 0.0, 0.0, 0.0, 0.0, 0.0, 1.6360727700032485E9, 0.0, 2021-11-04 19:39:30.003
86.0, 500.68845631787553, 33.35990760475397, -203.26917244167998, 602.0528347669169, 0.03200000151991844, 0.288000013679266, 0.9760000463575125, 0.0, 0.0, 0.0, 0.0, 0.0, 1.636072770018918E9, 0.0, 2021-11-04 19:39:30.018
86.0, 503.41858328552917, 73.83684482518584, -144.81827603420243, 630.0833849348128, 0.03200000151991844, 0.288000013679266, 0.9760000463575125, 0.0, 0.0, 0.0, 0.0, 0.0, 1.636072770018918E9, 0.0, 2021-11-04 19:39:30.018
87.0, 543.6636467087083, 151.83619830105454, -97.74789519188926, 690.6585445171222, 0.03200000151991844, 0.288000013679266, 0.9760000463575125, 0.0, 0.0, 0.0, 0.0, 0.0, 1.636072770019737E9, 0.0, 2021-11-04 19:39:30.019
87.0, 579.6302645825781, 196.6888184696436, -74.51189676718786, 736.962245868519, 0.03200000151991844, 0.288000013679266, 0.9760000463575125, 0.0, 0.0, 0.0, 0.0, 0.0, 1.636072770019737E9, 0.0, 2021-11-04 19:39:30.019
88.0, 650.6509647411294, 205.67579806316644, -56.695013378281146, 742.3925806041807, 0.03200000151991844, 0.288000013679266, 0.9760000463575125, 0.0, 0.0, 0.0, 0.0, 0.0, 1.63607277003331E9, 0.0, 2021-11-04 19:39:30.033
88.0, 653.1679174113087, 180.98871845565736, -93.03562124771997, 725.1142428088933, 0.03200000151991844, 0.288000013679266, 0.9760000463575125, 0.0, 0.0, 0.0, 0.0, 0.0, 1.63607277003331E9, 0.0, 2021-11-04 19:39:30.033
89.0, 582.8129194448702, 129.3593995673582, -119.4467947348021, 675.0818612016737, 0.03200000151991844, 0.288000013679266, 0.9760000463575125, 0.0, 0.0, 0.0, 0.0, 0.0, 1.6360727700489488E9, 0.0, 2021-11-04 19:39:30.048
89.0, 544.4976443988271, 101.36998829897493, -173.7725814911537, 637.6342429453507, 0.03200000151991844, 0.288000013679266, 0.9760000463575125, 0.0, 0.0, 0.0, 0.0, 0.0, 1.6360727700489488E9, 0.0, 2021-11-04 19:39:30.048
90.0, 484.4348511104472, 64.53571363538504, -213.81569031672552, 622.4016304258257, 0.03200000151991844, 0.288000013679266, 0.9280000440776348, 0.0, 0.0, 0.0, 0.0, 0.0, 1.636072770049687E9, 0.0, 2021-11-04 19:39:30.049
90.0, 479.950711063575, 41.00800301413983, -224.2761904927902, 591.5063168918714, 0.03200000151991844, 0.288000013679266, 0.9280000440776348, 0.0, 0.0, 0.0, 0.0, 0.0, 1.636072770049687E9, 0.0, 2021-11-04 19:39:30.049
91.0, 520.2556128860451, 34.92318578623235, -243.44317776570097, 563.7300799209625, 0.03200000151991844, 0.25600001215934753, 0.9280000440776348, 0.0, 0.0, 0.0, 0.0, 0.0, 1.6360727700796895E9, 0.0, 2021-11-04 19:39:30.079
91.0, 507.4352358379401, 16.175067308358848, -265.97981489868835, 556.0483254119754, 0.03200000151991844, 0.25600001215934753, 0.9280000440776348, 0.0, 0.0, 0.0, 0.0, 0.0, 1.6360727700796895E9, 0.0, 2021-11-04 19:39:30.079
92.0, 499.20745593542233, 9.978053081780672, -329.00834885193035, 547.031426618807, -0.01600000075995922, 0.25600001215934753, 0.9280000440776348, 0.0, 0.0, 0.0, 0.0, 0.0, 1.6360727700803945E9, 0.0, 2021-11-04 19:39:30.080
92.0, 487.3519730758853, 4.0839707516133785, -315.540969111491, 538.975682114251, -0.01600000075995922, 0.25600001215934753, 0.9280000440776348, 0.0, 0.0, 0.0, 0.0, 0.0, 1.6360727700803945E9, 0.0, 2021-11-04 19:39:30.080
93.0, 471.5695952628739, -27.626640972681344, -318.59646737528965, 527.4006917513907, -0.01600000075995922, 0.25600001215934753, 0.9280000440776348, 0.0, 0.0, 0.0, 0.0, 0.0, 1.6360727700811412E9, 0.0, 2021-11-04 19:39:30.081
93.0, 474.48297732835636, -22.031750638969243, -342.23263509524986, 540.1350511005148, -0.01600000075995922, 0.25600001215934753, 0.9280000440776348, 0.0, 0.0, 0.0, 0.0, 0.0, 1.6360727700811412E9, 0.0, 2021-11-04 19:39:30.081
94.0, 503.08573218947276, 3.62770295701921, -320.29438195517287, 583.2673172894865, -0.01600000075995922, 0.25600001215934753, 0.9280000440776348, 0.0, 0.0, 0.0, 0.0, 0.0, 1.6360727700933087E9, 0.0, 2021-11-04 19:39:30.093
94.0, 556.3119883588515, 46.464517049491405, -274.49930699774995, 615.6099721062928, -0.01600000075995922, 0.25600001215934753, 0.9280000440776348, 0.0, 0.0, 0.0, 0.0, 0.0, 1.6360727700933087E9, 0.0, 2021-11-04 19:39:30.093
95.0, 563.3168209758587, 62.138437763787806, -287.7572523406707, 639.9380213180557, -0.01600000075995922, 0.25600001215934753, 0.9280000440776348, 0.0, 0.0, 0.0, 0.0, 0.0, 1.636072770108929E9, 0.0, 2021-11-04 19:39:30.108
95.0, 568.6237390129827, 58.555613606236875, -272.9659480159171, 663.3385753408074, -0.01600000075995922, 0.25600001215934753, 0.9280000440776348, 0.0, 0.0, 0.0, 0.0, 0.0, 1.636072770108929E9, 0.0, 2021-11-04 19:39:30.108
96.0, 563.518775573466, 60.152550887316465, -279.91094223363325, 648.5248316163197, -0.01600000075995922, 0.25600001215934753, 0.9280000440776348, 0.0, 0.0, 0.0, 0.0, 0.0, 1.6360727701096907E9, 0.0, 2021-11-04 19:39:30.109
96.0, 594.4327886071987, 59.786040691658854, -299.99794489564374, 636.5272325584665, -0.01600000075995922, 0.25600001215934753, 0.9280000440776348, 0.0, 0.0, 0.0, 0.0, 0.0, 1.6360727701096907E9, 0.0, 2021-11-04 19:39:30.109
97.0, 549.3183754417114, 60.937929878011346, -310.9371522660367, 641.0525115048513, -0.01600000075995922, 0.25600001215934753, 0.9280000440776348, 0.0, 0.0, 0.0, 0.0, 0.0, 1.6360727701233656E9, 0.0, 2021-11-04 19:39:30.123
97.0, 601.2094873269089, 65.29865322634578, -305.4320195312612, 662.7551509477198, -0.01600000075995922, 0.25600001215934753, 0.9280000440776348, 0.0, 0.0, 0.0, 0.0, 0.0, 1.6360727701233656E9, 0.0, 2021-11-04 19:39:30.123
98.0, 662.3531117024831, 46.25508265197277, -333.3241934007965, 650.2863244954497, -0.01600000075995922, 0.25600001215934753, 0.9280000440776348, 0.0, 0.0, 0.0, 0.0, 0.0, 1.6360727701389215E9, 0.0, 2021-11-04 19:39:30.138
98.0, 649.8581059505232, 66.19248931575567, -339.1023388323374, 669.4757511680946, -0.01600000075995922, 0.25600001215934753, 0.9280000440776348, 0.0, 0.0, 0.0, 0.0, 0.0, 1.6360727701389215E9, 0.0, 2021-11-04 19:39:30.138
99.0, 677.2042544265278, 102.91456698067486, -293.44190027331933, 693.5046083834022, -0.01600000075995922, 0.25600001215934753, 0.9280000440776348, 0.0, 0.0, 0.0, 0.0, 0.0, 1.6360727701396408E9, 0.0, 2021-11-04 19:39:30.139
99.0, 688.3005375950597, 114.63167354185134, -278.5982373491861, 708.5726653048769, -0.01600000075995922, 0.25600001215934753, 0.9280000440776348, 0.0, 0.0, 0.0, 0.0, 0.0, 1.6360727701396408E9, 0.0, 2021-11-04 19:39:30.139
100.0, 699.1948661659844, 161.73571348376572, -254.8049938310869, 753.761876469478, -0.01600000075995922, 0.25600001215934753, 0.9600000455975533, 0.0, 0.0, 0.0, 0.0, 0.0, 1.636072770153959E9, 0.0, 2021-11-04 19:39:30.153
100.0, 696.3338426998816, 210.08888001088053, -266.45478219306096, 792.3763435119763, -0.01600000075995922, 0.25600001215934753, 0.9600000455975533, 0.0, 0.0, 0.0, 0.0, 0.0, 1.636072770153959E9, 0.0, 2021-11-04 19:39:30.153
0.0, 794.0592984920368, 210.3955518072471, -218.2156826145947, 807.4369206335396, -0.01600000075995922, 0.25600001215934753, 0.9600000455975533, 0.0, 0.0, 0.0, 0.0, 0.0, 1.63607277015461E9, 0.0, 2021-11-04 19:39:30.154
1.0, 792.2155278138816, 210.60124630481005, -231.00988036300987, 807.455620133318, -0.01600000075995922, 0.288000013679266, 0.9600000455975533, 0.0, 0.0, 0.0, 0.0, 0.0, 1.636072770168248E9, 0.0, 2021-11-04 19:39:30.168
1.0, 816.6969129238278, 211.96256988868117, -215.51547484658659, 794.1864550905302, -0.01600000075995922, 0.288000013679266, 0.9600000455975533, 0.0, 0.0, 0.0, 0.0, 0.0, 1.636072770168248E9, 0.0, 2021-11-04 19:39:30.168
2.0, 825.4108798205853, 209.22496312111616, -222.20989576727152, 792.4474016111344, -0.03200000151991844, 0.288000013679266, 0.9600000455975533, 0.0, 0.0, 0.0, 0.0, 0.0, 1.6360727701839192E9, 0.0, 2021-11-04 19:39:30.183
2.0, 759.6297794999555, 244.47352020349354, -235.74833360686898, 788.7449006550014, -0.03200000151991844, 0.288000013679266, 0.9600000455975533, 0.0, 0.0, 0.0, 0.0, 0.0, 1.6360727701839192E9, 0.0, 2021-11-04 19:39:30.183
3.0, 782.6301642274484, 279.81183488480747, -194.40373959671706, 808.528971420601, -0.03200000151991844, 0.288000013679266, 0.9600000455975533, 0.0, 0.0, 0.0, 0.0, 0.0, 1.6360727701846256E9, 0.0, 2021-11-04 19:39:30.184
3.0, 805.3350968584418, 251.29135782271624, -240.0005998564884, 782.8956971243024, -0.03200000151991844, 0.288000013679266, 0.9600000455975533, 0.0, 0.0, 0.0, 0.0, 0.0, 1.6360727701846256E9, 0.0, 2021-11-04 19:39:30.184
4.0, 734.6173285963014, 222.4754286641255, -276.4945436241105, 757.7074709227309, -0.03200000151991844, 0.288000013679266, 0.9600000455975533, 0.0, 0.0, 0.0, 0.0, 0.0, 1.6360727701982443E9, 0.0, 2021-11-04 19:39:30.198
4.0, 785.7268013907596, 221.37589807715267, -340.58520916476846, 753.9638310670853, -0.03200000151991844, 0.288000013679266, 0.9600000455975533, 0.0, 0.0, 0.0, 0.0, 0.0, 1.6360727701982443E9, 0.0, 2021-11-04 19:39:30.198
5.0, 786.6916955793276, 216.9553363295272, -256.4150207620114, 764.5477479416877, -0.03200000151991844, 0.288000013679266, 0.9600000455975533, 0.0, 0.0, 0.0, 0.0, 0.0, 1.636072770213876E9, 0.0, 2021-11-04 19:39:30.213
5.0, 760.5049160895869, 226.23776801954955, -293.2605151254684, 740.2944967290387, -0.03200000151991844, 0.288000013679266, 0.9600000455975533, 0.0, 0.0, 0.0, 0.0, 0.0, 1.636072770213876E9, 0.0, 2021-11-04 19:39:30.213
6.0, 755.317674851045, 202.5043629007414, -341.40050735510886, 703.1348507693037, -0.03200000151991844, 0.288000013679266, 0.9600000455975533, 0.0, 0.0, 0.0, 0.0, 0.0, 1.6360727702146263E9, 0.0, 2021-11-04 19:39:30.214
6.0, 736.4685790743679, 177.75744489394128, -386.35784472245723, 669.6552663659677, -0.03200000151991844, 0.288000013679266, 0.9600000455975533, 0.0, 0.0, 0.0, 0.0, 0.0, 1.6360727702146263E9, 0.0, 2021-11-04 19:39:30.214
7.0, 676.8620535805821, 156.93368194065988, -406.0184987895191, 611.0360744604841, -0.03200000151991844, 0.288000013679266, 0.9600000455975533, 0.0, 0.0, 0.0, 0.0, 0.0, 1.636072770244613E9, 0.0, 2021-11-04 19:39:30.244
7.0, 632.1739890100434, 118.32295479811728, -476.3061785567552, 548.6657628994435, -0.03200000151991844, 0.288000013679266, 0.9600000455975533, 0.0, 0.0, 0.0, 0.0, 0.0, 1.636072770244613E9, 0.0, 2021-11-04 19:39:30.244
8.0, 558.6176366815343, 85.40809528809041, -539.7909803045914, 527.1725578540936, -0.03200000151991844, 0.288000013679266, 0.9600000455975533, 0.0, 0.0, 0.0, 0.0, 0.0, 1.6360727702453008E9, 0.0, 2021-11-04 19:39:30.245
8.0, 560.3043315615505, 88.65432844962925, -532.1840237947181, 511.29294264223427, -0.03200000151991844, 0.288000013679266, 0.9600000455975533, 0.0, 0.0, 0.0, 0.0, 0.0, 1.6360727702453008E9, 0.0, 2021-11-04 19:39:30.245
9.0, 539.2636544108391, 80.55370514560491, -556.1680022105575, 475.3749434677884, -0.03200000151991844, 0.288000013679266, 0.9600000455975533, 0.0, 0.0, 0.0, 0.0, 0.0, 1.636072770246102E9, 0.0, 2021-11-04 19:39:30.246
9.0, 466.05885267816484, 40.398399321362376, -597.8828463163227, 463.2614075113088, -0.03200000151991844, 0.288000013679266, 0.9600000455975533, 0.0, 0.0, 0.0, 0.0, 0.0, 1.636072770246102E9, 0.0, 2021-11-04 19:39:30.246
10.0, 517.3927194699645, 29.04780295584351, -608.0890332954004, 431.99958378169686, -0.03200000151991844, 0.288000013679266, 0.9760000463575125, 0.0, 0.0, 0.0, 0.0, 0.0, 1.6360727702582507E9, 0.0, 2021-11-04 19:39:30.258
10.0, 491.7108264742419, 33.74511730019003, -598.6532657071948, 422.3506418960169, -0.03200000151991844, 0.288000013679266, 0.9760000463575125, 0.0, 0.0, 0.0, 0.0, 0.0, 1.6360727702582507E9, 0.0, 2021-11-04 19:39:30.258
11.0, 506.0608226042241, 39.11935353651643, -574.7291256906465, 432.5680485749617, -0.03200000151991844, 0.288000013679266, 0.9760000463575125, 0.0, 0.0, 0.0, 0.0, 0.0, 1.6360727702739203E9, 0.0, 2021-11-04 19:39:30.273
11.0, 543.979668254964, 61.07630617637187, -551.7736197626218, 449.4761362746358, -0.03200000151991844, 0.288000013679266, 0.9760000463575125, 0.0, 0.0, 0.0, 0.0, 0.0, 1.6360727702739203E9, 0.0, 2021-11-04 19:39:30.273
12.0, 513.9520115107298, 83.1491957148537, -521.0727810263634, 477.6076637413353, -0.03200000151991844, 0.288000013679266, 0.9760000463575125, 0.0, 0.0, 0.0, 0.0, 0.0, 1.6360727702746782E9, 0.0, 2021-11-04 19:39:30.274
12.0, 554.6832619281486, 106.0860021430999, -509.3519345652312, 506.10944130364805, -0.03200000151991844, 0.288000013679266, 0.9760000463575125, 0.0, 0.0, 0.0, 0.0, 0.0, 1.6360727702746782E9, 0.0, 2021-11-04 19:39:30.274
13.0, 614.8956512147561, 114.201585046947, -472.3418846037239, 536.5858860425651, -0.03200000151991844, 0.288000013679266, 0.9760000463575125, 0.0, 0.0, 0.0, 0.0, 0.0, 1.6360727703045733E9, 0.0, 2021-11-04 19:39:30.304
13.0, 572.9489333117381, 149.1060713334009, -428.0091105289757, 550.5282330773771, -0.03200000151991844, 0.288000013679266, 0.9760000463575125, 0.0, 0.0, 0.0, 0.0, 0.0, 1.6360727703045733E9, 0.0, 2021-11-04 19:39:30.304
14.0, 603.9040852449834, 160.89797589369118, -407.58177697099745, 587.0184369450435, -0.03200000151991844, 0.288000013679266, 0.9760000463575125, 0.0, 0.0, 0.0, 0.0, 0.0, 1.6360727703052776E9, 0.0, 2021-11-04 19:39:30.305
14.0, 675.766262893565, 162.19572117831558, -434.22482425533235, 578.5849625449628, -0.03200000151991844, 0.288000013679266, 0.9760000463575125, 0.0, 0.0, 0.0, 0.0, 0.0, 1.6360727703052776E9, 0.0, 2021-11-04 19:39:30.305
15.0, 678.0027230670676, 166.42554802820086, -434.1425464563072, 577.7322653550655, -0.03200000151991844, 0.288000013679266, 0.9760000463575125, 0.0, 0.0, 0.0, 0.0, 0.0, 1.6360727703060508E9, 0.0, 2021-11-04 19:39:30.306
15.0, 691.1783906109631, 204.97643677145243, -435.1597992442548, 630.648109828122, -0.03200000151991844, 0.288000013679266, 0.9760000463575125, 0.0, 0.0, 0.0, 0.0, 0.0, 1.6360727703060508E9, 0.0, 2021-11-04 19:39:30.306
16.0, 682.3933656150475, 234.54408582113683, -400.7826388515532, 659.568756185472, -0.03200000151991844, 0.288000013679266, 0.9760000463575125, 0.0, 0.0, 0.0, 0.0, 0.0, 1.6360727703345473E9, 0.0, 2021-11-04 19:39:30.334
16.0, 743.679106188938, 245.1579218953848, -354.2321041030809, 650.0020920988172, -0.03200000151991844, 0.288000013679266, 0.9760000463575125, 0.0, 0.0, 0.0, 0.0, 0.0, 1.6360727703345473E9, 0.0, 2021-11-04 19:39:30.334
17.0, 738.5554432496428, 254.78068448137492, -364.60658658016473, 678.1859781648964, -0.03200000151991844, 0.288000013679266, 0.9760000463575125, 0.0, 0.0, 0.0, 0.0, 0.0, 1.6360727703352892E9, 0.0, 2021-11-04 19:39:30.335
17.0, 739.1912262421101, 260.66354711167514, -357.30256196670234, 669.385993569158, -0.03200000151991844, 0.288000013679266, 0.9760000463575125, 0.0, 0.0, 0.0, 0.0, 0.0, 1.6360727703352892E9, 0.0, 2021-11-04 19:39:30.335
18.0, 753.7581365695223, 242.49885302688926, -349.7629236560315, 660.0175441801548, -0.03200000151991844, 0.288000013679266, 0.9760000463575125, 0.0, 0.0, 0.0, 0.0, 0.0, 1.636072770336056E9, 0.0, 2021-11-04 19:39:30.336
18.0, 689.3757588323206, 222.35201196558774, -349.89008025452495, 628.512626953423, -0.03200000151991844, 0.288000013679266, 0.9760000463575125, 0.0, 0.0, 0.0, 0.0, 0.0, 1.636072770336056E9, 0.0, 2021-11-04 19:39:30.336
19.0, 657.8110032062978, 206.88752564880997, -400.57694435399026, 605.1644315300509, -0.03200000151991844, 0.288000013679266, 0.9760000463575125, 0.0, 0.0, 0.0, 0.0, 0.0, 1.6360727703482337E9, 0.0, 2021-11-04 19:39:30.348
19.0, 649.2578520076349, 178.35582888685167, -426.1578600509092, 598.1782984128222, -0.03200000151991844, 0.288000013679266, 0.9760000463575125, 0.0, 0.0, 0.0, 0.0, 0.0, 1.6360727703482337E9, 0.0, 2021-11-04 19:39:30.348
20.0, 625.3598912907764, 158.66151572018862, -405.31913749780506, 573.5099183050916, -0.03200000151991844, 0.288000013679266, 0.9760000463575125, 0.0, 0.0, 0.0, 0.0, 0.0, 1.6360727703638427E9, 0.0, 2021-11-04 19:39:30.363
20.0, 692.0198681009933, 142.15359731577337, -442.60220015607774, 538.3436390217394, -0.03200000151991844, 0.288000013679266, 0.9760000463575125, 0.0, 0.0, 0.0, 0.0, 0.0, 1.6360727703638427E9, 0.0, 2021-11-04 19:39:30.363
21.0, 660.7543044714257, 102.7537512825802, -454.5848396141082, 498.32670949585736, -0.03200000151991844, 0.27200001291930676, 0.9760000463575125, 0.0, 0.0, 0.0, 0.0, 0.0, 1.6360727703646748E9, 0.0, 2021-11-04 19:39:30.364
21.0, 621.8443853324279, 89.52946503926069, -389.93692898005247, 491.9838391710073, -0.03200000151991844, 0.27200001291930676, 0.9760000463575125, 0.0, 0.0, 0.0, 0.0, 0.0, 1.6360727703646748E9, 0.0, 2021-11-04 19:39:30.364
22.0, 605.3102876283228, 60.530280782841146, -394.6305034244433, 467.39025706239045, -0.03200000151991844, 0.27200001291930676, 0.9760000463575125, 0.0, 0.0, 0.0, 0.0, 0.0, 1.636072770378247E9, 0.0, 2021-11-04 19:39:30.378
22.0, 561.9274481423199, 30.285709841176867, -465.38941058609635, 442.8452936531976, -0.03200000151991844, 0.27200001291930676, 0.9760000463575125, 0.0, 0.0, 0.0, 0.0, 0.0, 1.636072770378247E9, 0.0, 2021-11-04 19:39:30.378
23.0, 530.3439930165187, 21.927033440209925, -453.0701801320538, 454.04629402048886, -0.03200000151991844, 0.27200001291930676, 0.9760000463575125, 0.0, 0.0, 0.0, 0.0, 0.0, 1.636072770393859E9, 0.0, 2021-11-04 19:39:30.393
23.0, 473.4825540902093, 5.62854943331331, -439.9132120879367, 453.8892182223499, -0.03200000151991844, 0.27200001291930676, 0.9760000463575125, 0.0, 0.0, 0.0, 0.0, 0.0, 1.636072770393859E9, 0.0, 2021-11-04 19:39:30.393
24.0, 536.7728810403496, 0.35155059583485126, -445.7025772193447, 435.4627311406657, -0.03200000151991844, 0.27200001291930676, 0.9760000463575125, 0.0, 0.0, 0.0, 0.0, 0.0, 1.636072770394564E9, 0.0, 2021-11-04 19:39:30.394
24.0, 547.4166363142431, -17.173620596528053, -445.11167302634567, 423.91765997745097, -0.03200000151991844, 0.27200001291930676, 0.9760000463575125, 0.0, 0.0, 0.0, 0.0, 0.0, 1.636072770394564E9, 0.0, 2021-11-04 19:39:30.394
25.0, 596.0353357382119, 2.692727968096733, -403.69602091703564, 438.9034390999004, -0.03200000151991844, 0.27200001291930676, 0.9760000463575125, 0.0, 0.0, 0.0, 0.0, 0.0, 1.6360727704081852E9, 0.0, 2021-11-04 19:39:30.408
25.0, 552.4318421548232, 7.378822612576187, -386.45508212130517, 442.49000315740705, -0.03200000151991844, 0.27200001291930676, 0.9760000463575125, 0.0, 0.0, 0.0, 0.0, 0.0, 1.6360727704081852E9, 0.0, 2021-11-04 19:39:30.408
26.0, 533.9754358734936, 21.040677150711417, -383.1864095600322, 483.35215007327497, -0.03200000151991844, 0.27200001291930676, 0.9760000463575125, 0.0, 0.0, 0.0, 0.0, 0.0, 1.6360727704410353E9, 0.0, 2021-11-04 19:39:30.441
26.0, 602.4081252627075, 51.14313189405948, -332.80995715688914, 508.9816844696179, -0.03200000151991844, 0.27200001291930676, 0.9760000463575125, 0.0, 0.0, 0.0, 0.0, 0.0, 1.6360727704410353E9, 0.0, 2021-11-04 19:39:30.441
27.0, 626.4220228781924, 45.41360516194254, -338.36744849104434, 520.0293489387259, -0.03200000151991844, 0.27200001291930676, 0.9760000463575125, 0.0, 0.0, 0.0, 0.0, 0.0, 1.6360727704417496E9, 0.0, 2021-11-04 19:39:30.441
27.0, 604.1546585420147, 70.80378596112132, -320.87219649832696, 534.0614535724744, -0.03200000151991844, 0.27200001291930676, 0.9760000463575125, 0.0, 0.0, 0.0, 0.0, 0.0, 1.6360727704417496E9, 0.0, 2021-11-04 19:39:30.441
28.0, 648.7641852134839, 86.67592137306929, -290.56778715737164, 564.6239160103723, -0.03200000151991844, 0.27200001291930676, 0.9760000463575125, 0.0, 0.0, 0.0, 0.0, 0.0, 1.636072770442495E9, 0.0, 2021-11-04 19:39:30.442
28.0, 630.3676173314452, 105.10988825466484, -271.44567868392915, 616.7693410925567, -0.03200000151991844, 0.27200001291930676, 0.9760000463575125, 0.0, 0.0, 0.0, 0.0, 0.0, 1.636072770442495E9, 0.0, 2021-11-04 19:39:30.442
29.0, 681.1180597301573, 115.28989593405277, -251.99071911443025, 635.6146969692782, -0.03200000151991844, 0.27200001291930676, 0.9760000463575125, 0.0, 0.0, 0.0, 0.0, 0.0, 1.6360727704432068E9, 0.0, 2021-11-04 19:39:30.443
29.0, 701.9904413828626, 109.26117720548064, -301.34243892971426, 663.7013456365094, -0.03200000151991844, 0.27200001291930676, 0.9760000463575125, 0.0, 0.0, 0.0, 0.0, 0.0, 1.6360727704432068E9, 0.0, 2021-11-04 19:39:30.443
30.0, 696.522707647644, 117.30196211021394, -264.03319697175175, 671.2821228466928, -0.03200000151991844, 0.27200001291930676, 0.9920000471174717, 0.0, 0.0, 0.0, 0.0, 0.0, 1.6360727704532661E9, 0.0, 2021-11-04 19:39:30.453
30.0, 705.7041620388627, 153.75476697832346, -237.71552098356187, 688.3734656441957, -0.03200000151991844, 0.27200001291930676, 0.9920000471174717, 0.0, 0.0, 0.0, 0.0, 0.0, 1.6360727704532661E9, 0.0, 2021-11-04 19:39:30.453
31.0, 700.7413147976622, 138.48475545924157, -298.34677906520665, 689.5814533298835, -0.03200000151991844, 0.2400000113993883, 0.9920000471174717, 0.0, 0.0, 0.0, 0.0, 0.0, 1.6360727704682612E9, 0.0, 2021-11-04 19:39:30.468
31.0, 652.8219766654074, 133.8061406146735, -244.39498230442405, 689.2673017336056, -0.03200000151991844, 0.2400000113993883, 0.9920000471174717, 0.0, 0.0, 0.0, 0.0, 0.0, 1.6360727704682612E9, 0.0, 2021-11-04 19:39:30.468
32.0, 654.4002144467086, 154.73462076671422, -220.52320088725537, 691.2793679097667, -0.03200000151991844, 0.2400000113993883, 0.9920000471174717, 0.0, 0.0, 0.0, 0.0, 0.0, 1.6360727704840293E9, 0.0, 2021-11-04 19:39:30.484
32.0, 667.5796218905598, 158.06687162723392, -264.47824506647885, 704.9711416475475, -0.03200000151991844, 0.2400000113993883, 0.9920000471174717, 0.0, 0.0, 0.0, 0.0, 0.0, 1.6360727704840293E9, 0.0, 2021-11-04 19:39:30.484
33.0, 634.735820479691, 134.692496904172, -250.09458983689547, 701.5379134882241, -0.03200000151991844, 0.2400000113993883, 0.9920000471174717, 0.0, 0.0, 0.0, 0.0, 0.0, 1.6360727704846745E9, 0.0, 2021-11-04 19:39:30.484
33.0, 636.4524345593527, 125.41006521414965, -251.5307114198804, 702.1026383815333, -0.03200000151991844, 0.2400000113993883, 0.9920000471174717, 0.0, 0.0, 0.0, 0.0, 0.0, 1.6360727704846745E9, 0.0, 2021-11-04 19:39:30.484
34.0, 634.2271940857172, 121.40837226156145, -288.477183082141, 687.5693871537223, -0.03200000151991844, 0.2400000113993883, 0.9920000471174717, 0.0, 0.0, 0.0, 0.0, 0.0, 1.6360727704983084E9, 0.0, 2021-11-04 19:39:30.498
34.0, 633.6923883920535, 104.18987286556512, -316.94904144480824, 668.4921574797481, -0.03200000151991844, 0.2400000113993883, 0.9920000471174717, 0.0, 0.0, 0.0, 0.0, 0.0, 1.6360727704983084E9, 0.0, 2021-11-04 19:39:30.498
35.0, 502.6388141447678, 89.43596754036844, -350.3800071487203, 656.2178058251739, -0.03200000151991844, 0.2400000113993883, 0.9920000471174717, 0.0, 0.0, 0.0, 0.0, 0.0, 1.63607277051376E9, 0.0, 2021-11-04 19:39:30.513
35.0, 487.05839092936367, 80.71078094374388, -311.0026005152613, 672.0936811370775, -0.03200000151991844, 0.2400000113993883, 0.9920000471174717, 0.0, 0.0, 0.0, 0.0, 0.0, 1.63607277051376E9, 0.0, 2021-11-04 19:39:30.513
36.0, 600.9121652804315, 54.44920345488936, -330.03495138976723, 658.6450008964166, -0.03200000151991844, 0.2400000113993883, 0.9920000471174717, 0.0, 0.0, 0.0, 0.0, 0.0, 1.6360727705288997E9, 0.0, 2021-11-04 19:39:30.528
36.0, 541.9713419787586, 42.9452711911872, -344.1942126220092, 656.9770055161789, -0.03200000151991844, 0.2400000113993883, 0.9920000471174717, 0.0, 0.0, 0.0, 0.0, 0.0, 1.6360727705288997E9, 0.0, 2021-11-04 19:39:30.528
37.0, 514.8084486005828, 32.810142311267555, -336.6433546114713, 634.1598758865148, -0.03200000151991844, 0.2400000113993883, 0.9920000471174717, 0.0, 0.0, 0.0, 0.0, 0.0, 1.636072770529677E9, 0.0, 2021-11-04 19:39:30.529
37.0, 473.5498722894117, 8.44095419999212, -363.97454348765314, 578.9813919402659, -0.03200000151991844, 0.2400000113993883, 0.9920000471174717, 0.0, 0.0, 0.0, 0.0, 0.0, 1.636072770529677E9, 0.0, 2021-11-04 19:39:30.529
38.0, 480.1171366116032, -17.555090392008424, -402.09908363595605, 550.143023381941, -0.03200000151991844, 0.2400000113993883, 0.9920000471174717, 0.0, 0.0, 0.0, 0.0, 0.0, 1.6360727705607064E9, 0.0, 2021-11-04 19:39:30.560
38.0, 444.0570212388411, -45.05457476619631, -429.6958054089919, 538.2538814228028, -0.03200000151991844, 0.2400000113993883, 0.9920000471174717, 0.0, 0.0, 0.0, 0.0, 0.0, 1.6360727705607064E9, 0.0, 2021-11-04 19:39:30.560
39.0, 362.23549000825733, -74.13603682164103, -449.60329287312925, 535.718229252845, -0.03200000151991844, 0.2400000113993883, 0.9920000471174717, 0.0, 0.0, 0.0, 0.0, 0.0, 1.636072770561492E9, 0.0, 2021-11-04 19:39:30.561
39.0, 381.2267019832507, -97.21121954824775, -413.5730967000127, 559.9041622662917, -0.03200000151991844, 0.2400000113993883, 0.9920000471174717, 0.0, 0.0, 0.0, 0.0, 0.0, 1.636072770561492E9, 0.0, 2021-11-04 19:39:30.561
40.0, 388.676582694985, -121.69260465819389, -429.74068420846015, 539.1813766118139, -0.03200000151991844, 0.2400000113993883, 0.9760000463575125, 0.0, 0.0, 0.0, 0.0, 0.0, 1.6360727705622313E9, 0.0, 2021-11-04 19:39:30.562
40.0, 357.0220694700256, -143.33914560172707, -469.31256563961506, 491.92026087176055, -0.03200000151991844, 0.2400000113993883, 0.9760000463575125, 0.0, 0.0, 0.0, 0.0, 0.0, 1.6360727705622313E9, 0.0, 2021-11-04 19:39:30.562
41.0, 354.74447039701045, -147.886863947846, -464.7012689942494, 500.9857783643529, -0.03200000151991844, 0.2400000113993883, 0.9760000463575125, 0.0, 0.0, 0.0, 0.0, 0.0, 1.6360727705739477E9, 0.0, 2021-11-04 19:39:30.573
41.0, 355.6046473868191, -166.17871463112533, -471.87813700921834, 487.6717345220968, -0.03200000151991844, 0.2400000113993883, 0.9760000463575125, 0.0, 0.0, 0.0, 0.0, 0.0, 1.6360727705739477E9, 0.0, 2021-11-04 19:39:30.573
42.0, 280.7729891734198, -167.2296265186742, -456.0695798965171, 485.3866556491703, -0.04800000227987766, 0.2400000113993883, 0.9760000463575125, 0.0, 0.0, 0.0, 0.0, 0.0, 1.6360727705746753E9, 0.0, 2021-11-04 19:39:30.574
42.0, 335.6448013233021, -175.782777717337, -510.1335736559704, 464.211342100054, -0.04800000227987766, 0.2400000113993883, 0.9760000463575125, 0.0, 0.0, 0.0, 0.0, 0.0, 1.6360727705746753E9, 0.0, 2021-11-04 19:39:30.574
43.0, 296.6937432847917, -181.572142848745, -465.4006302859634, 452.04170764423907, -0.04800000227987766, 0.2400000113993883, 0.9760000463575125, 0.0, 0.0, 0.0, 0.0, 0.0, 1.6360727705882857E9, 0.0, 2021-11-04 19:39:30.588
43.0, 231.51102695707232, -209.9879027120769, -495.77235782612115, 453.94157682172954, -0.04800000227987766, 0.2400000113993883, 0.9760000463575125, 0.0, 0.0, 0.0, 0.0, 0.0, 1.6360727705882857E9, 0.0, 2021-11-04 19:39:30.588
44.0, 188.2403844697401, -225.9198765233159, -486.54228473547846, 448.7692951830104, -0.04800000227987766, 0.2400000113993883, 0.9760000463575125, 0.0, 0.0, 0.0, 0.0, 0.0, 1.6360727706039248E9, 0.0, 2021-11-04 19:39:30.603
44.0, 233.30617893580347, -281.64064596313983, -553.9240622371435, 399.1146434713155, -0.04800000227987766, 0.2400000113993883, 0.9760000463575125, 0.0, 0.0, 0.0, 0.0, 0.0, 1.6360727706039248E9, 0.0, 2021-11-04 19:39:30.603
45.0, 162.5996303735301, -326.28009183425456, -591.0425692973658, 358.40583245363086, -0.04800000227987766, 0.2400000113993883, 0.9760000463575125, 0.0, 0.0, 0.0, 0.0, 0.0, 1.6360727706046588E9, 0.0, 2021-11-04 19:39:30.604
45.0, 317.3828698396683, -274.93126544263214, -597.4789371211082, 204.7800920237787, -0.04800000227987766, 0.2400000113993883, 0.9760000463575125, 0.0, 0.0, 0.0, 0.0, 0.0, 1.6360727706046588E9, 0.0, 2021-11-04 19:39:30.604
46.0, 266.32949554454535, -308.05181945022196, -617.3677250854671, -22.026140789035708, -0.04800000227987766, 0.2400000113993883, 0.9760000463575125, 0.0, 0.0, 0.0, 0.0, 0.0, 1.6360727706183667E9, 0.0, 2021-11-04 19:39:30.618
46.0, 93.22074629552662, -421.1576138101518, -712.8137118546292, -186.82483233651146, -0.04800000227987766, 0.2400000113993883, 0.9760000463575125, 0.0, 0.0, 0.0, 0.0, 0.0, 1.6360727706183667E9, 0.0, 2021-11-04 19:39:30.618
47.0, -35.177498983219266, -517.1271865731105, -763.0330884596333, -309.4935508831404, -0.04800000227987766, 0.2400000113993883, 0.9760000463575125, 0.0, 0.0, 0.0, 0.0, 0.0, 1.6360727706339307E9, 0.0, 2021-11-04 19:39:30.633
47.0, -159.8882029056549, -590.6012611025944, -827.5501025952399, -400.19360460853204, -0.04800000227987766, 0.2400000113993883, 0.9760000463575125, 0.0, 0.0, 0.0, 0.0, 0.0, 1.6360727706339307E9, 0.0, 2021-11-04 19:39:30.633
48.0, -196.90199276711792, -636.340237560682, -924.551887745969, -493.30215390538797, -0.04800000227987766, 0.2400000113993883, 0.9760000463575125, 0.0, 0.0, 0.0, 0.0, 0.0, 1.6360727706346602E9, 0.0, 2021-11-04 19:39:30.634
48.0, -231.9261558521539, -669.5094102676958, -960.9897330142558, -528.1842007921077, -0.04800000227987766, 0.2400000113993883, 0.9760000463575125, 0.0, 0.0, 0.0, 0.0, 0.0, 1.6360727706346602E9, 0.0, 2021-11-04 19:39:30.634
49.0, -188.41615976765752, -698.3477788260207, -951.9877938209102, -547.5494027626701, -0.04800000227987766, 0.2400000113993883, 0.9760000463575125, 0.0, 0.0, 0.0, 0.0, 0.0, 1.636072770664434E9, 0.0, 2021-11-04 19:39:30.664
49.0, -209.8009077142924, -703.4639619654045, -985.4486787244678, -537.552650181111, -0.04800000227987766, 0.2400000113993883, 0.9760000463575125, 0.0, 0.0, 0.0, 0.0, 0.0, 1.636072770664434E9, 0.0, 2021-11-04 19:39:30.664
50.0, -228.82577878888696, -682.2026307173073, -952.7395137120038, -507.68954903492704, -0.04800000227987766, 0.2400000113993883, 0.9760000463575125, 0.0, 0.0, 0.0, 0.0, 0.0, 1.636072770680379E9, 0.0, 2021-11-04 19:39:30.680
50.0, -234.9292955165729, -630.1394834341481, -903.0063241012394, -520.2630926859565, -0.04800000227987766, 0.2400000113993883, 0.9760000463575125, 0.0, 0.0, 0.0, 0.0, 0.0, 1.636072770680379E9, 0.0, 2021-11-04 19:39:30.680
51.0, -139.1018389519304, -559.4703338714316, -850.7262626206502, -412.9504033573903, -0.04800000227987766, 0.2400000113993883, 0.9760000463575125, 0.0, 0.0, 0.0, 0.0, 0.0, 1.6360727706810803E9, 0.0, 2021-11-04 19:39:30.681
51.0, -18.89023467618972, -498.3454089956358, -762.6216994645074, -299.17516690539196, -0.04800000227987766, 0.2400000113993883, 0.9760000463575125, 0.0, 0.0, 0.0, 0.0, 0.0, 1.6360727706810803E9, 0.0, 2021-11-04 19:39:30.681
52.0, 37.249403558671474, -370.71758310776204, -637.5631848461926, -141.11203517811373, -0.06400000303983688, 0.2400000113993883, 0.9760000463575125, 0.0, 0.0, 0.0, 0.0, 0.0, 1.636072770681816E9, 0.0, 2021-11-04 19:39:30.681
52.0, 228.38447059411556, -250.73037282936275, -513.3536275178194, 1.6997845298610628, -0.06400000303983688, 0.2400000113993883, 0.9760000463575125, 0.0, 0.0, 0.0, 0.0, 0.0, 1.636072770681816E9, 0.0, 2021-11-04 19:39:30.681
53.0, 350.3949667485431, -133.18531722202897, -396.73232719954103, 94.53158122999594, -0.06400000303983688, 0.2400000113993883, 0.9760000463575125, 0.0, 0.0, 0.0, 0.0, 0.0, 1.6360727706825457E9, 0.0, 2021-11-04 19:39:30.682
53.0, 437.56081501580775, -40.495636720210314, -301.64911072608083, 170.81432062620297, -0.06400000303983688, 0.2400000113993883, 0.9760000463575125, 0.0, 0.0, 0.0, 0.0, 0.0, 1.6360727706825457E9, 0.0, 2021-11-04 19:39:30.682
54.0, 467.24440096411854, 52.156644782051444, -215.27612124942243, 256.7796610076912, -0.06400000303983688, 0.2400000113993883, 0.9760000463575125, 0.0, 0.0, 0.0, 0.0, 0.0, 1.6360727706933336E9, 0.0, 2021-11-04 19:39:30.693
54.0, 561.9835466416553, 131.6930971397087, -113.50970355514437, 342.34857199387625, -0.06400000303983688, 0.2400000113993883, 0.9760000463575125, 0.0, 0.0, 0.0, 0.0, 0.0, 1.6360727706933336E9, 0.0, 2021-11-04 19:39:30.693
55.0, 613.9644161257893, 207.22411664482206, -77.61788368038833, 431.298352540005, -0.06400000303983688, 0.2400000113993883, 0.9760000463575125, 0.0, 0.0, 0.0, 0.0, 0.0, 1.636072770708236E9, 0.0, 2021-11-04 19:39:30.708
55.0, 709.1635694978759, 257.39487455040216, -67.93528269510716, 466.9470789176412, -0.06400000303983688, 0.2400000113993883, 0.9760000463575125, 0.0, 0.0, 0.0, 0.0, 0.0, 1.636072770708236E9, 0.0, 2021-11-04 19:39:30.708
56.0, 756.9931500311941, 298.2084027668461, -19.417560569941998, 515.6181369409896, -0.06400000303983688, 0.2400000113993883, 0.9760000463575125, 0.0, 0.0, 0.0, 0.0, 0.0, 1.636072770724032E9, 0.0, 2021-11-04 19:39:30.724
56.0, 792.537159210071, 361.4762903172523, 55.5823931414634, 569.5624539018609, -0.06400000303983688, 0.2400000113993883, 0.9760000463575125, 0.0, 0.0, 0.0, 0.0, 0.0, 1.636072770724032E9, 0.0, 2021-11-04 19:39:30.724
57.0, 852.7084095971659, 429.9052398065105, 130.22331645712256, 629.5953279905953, -0.06400000303983688, 0.2400000113993883, 0.9760000463575125, 0.0, 0.0, 0.0, 0.0, 0.0, 1.6360727707247028E9, 0.0, 2021-11-04 19:39:30.724
57.0, 956.5055929673836, 526.589133461006, 173.3069639466703, 711.4467784208246, -0.06400000303983688, 0.2400000113993883, 0.9760000463575125, 0.0, 0.0, 0.0, 0.0, 0.0, 1.6360727707247028E9, 0.0, 2021-11-04 19:39:30.724
58.0, 1115.6009370824322, 655.8026769300923, 317.2257940415293, 872.2998755150475, -0.06400000303983688, 0.2400000113993883, 0.9760000463575125, 0.0, 0.0, 0.0, 0.0, 0.0, 1.6360727707546248E9, 0.0, 2021-11-04 19:39:30.754
58.0, 1218.9904713574797, 789.8519110418856, 467.09480496589094, 1020.1007217639126, -0.06400000303983688, 0.2400000113993883, 0.9760000463575125, 0.0, 0.0, 0.0, 0.0, 0.0, 1.6360727707546248E9, 0.0, 2021-11-04 19:39:30.754
59.0, 1353.798905160278, 891.5435307370499, 519.8049549413845, 1130.7905407524668, -0.06400000303983688, 0.2400000113993883, 0.9760000463575125, 0.0, 0.0, 0.0, 0.0, 0.0, 1.636072770755304E9, 0.0, 2021-11-04 19:39:30.755
59.0, 1414.9425295358524, 938.6737499786541, 577.2460783608258, 1195.083160890732, -0.06400000303983688, 0.2400000113993883, 0.9760000463575125, 0.0, 0.0, 0.0, 0.0, 0.0, 1.636072770755304E9, 0.0, 2021-11-04 19:39:30.755
60.0, 1388.6622525472194, 958.6672551417723, 636.5758512578905, 1251.9707791167311, -0.06400000303983688, 0.2400000113993883, 1.008000047877431, 0.0, 0.0, 0.0, 0.0, 0.0, 1.6360727707560897E9, 0.0, 2021-11-04 19:39:30.756
60.0, 1352.3104249779135, 953.9662008974701, 608.287247993052, 1257.2926567536779, -0.06400000303983688, 0.2400000113993883, 1.008000047877431, 0.0, 0.0, 0.0, 0.0, 0.0, 1.6360727707560897E9, 0.0, 2021-11-04 19:39:30.756
61.0, 1393.5802209889516, 944.6949889073148, 581.5507032098249, 1241.4018218419515, -0.06400000303983688, 0.25600001215934753, 1.008000047877431, 0.0, 0.0, 0.0, 0.0, 0.0, 1.636072770768283E9, 0.0, 2021-11-04 19:39:30.768
61.0, 1445.931340568699, 957.1301562599838, 579.6209148326889, 1270.4533646977507, -0.06400000303983688, 0.25600001215934753, 1.008000047877431, 0.0, 0.0, 0.0, 0.0, 0.0, 1.636072770768283E9, 0.0, 2021-11-04 19:39:30.768
62.0, 1487.395611377433, 927.7794214077294, 588.9931041216478, 1250.0970892389305, -0.06400000303983688, 0.25600001215934753, 1.008000047877431, 0.0, 0.0, 0.0, 0.0, 0.0, 1.6360727707840955E9, 0.0, 2021-11-04 19:39:30.784
62.0, 1413.8878777483478, 882.2872783467174, 530.5197683144361, 1219.4224298023619, -0.06400000303983688, 0.25600001215934753, 1.008000047877431, 0.0, 0.0, 0.0, 0.0, 0.0, 1.6360727707840955E9, 0.0, 2021-11-04 19:39:30.784
63.0, 1346.420082547702, 841.0773207349703, 516.4353050813079, 1172.7260389556177, -0.06400000303983688, 0.25600001215934753, 1.008000047877431, 0.0, 0.0, 0.0, 0.0, 0.0, 1.63607277078473E9, 0.0, 2021-11-04 19:39:30.784
63.0, 1301.9975508740172, 727.8668091762811, 406.6655014818534, 1060.39066398656, -0.06400000303983688, 0.25600001215934753, 1.008000047877431, 0.0, 0.0, 0.0, 0.0, 0.0, 1.63607277078473E9, 0.0, 2021-11-04 19:39:30.784
64.0, 1183.0874317828566, 589.5279098153114, 264.76621736306697, 928.0281247547828, -0.06400000303983688, 0.25600001215934753, 1.008000047877431, 0.0, 0.0, 0.0, 0.0, 0.0, 1.636072770798308E9, 0.0, 2021-11-04 19:39:30.798
64.0, 1011.5905794147402, 473.3441777918488, 109.8296419987455, 804.8881788137369, -0.06400000303983688, 0.25600001215934753, 1.008000047877431, 0.0, 0.0, 0.0, 0.0, 0.0, 1.636072770798308E9, 0.0, 2021-11-04 19:39:30.798
65.0, 830.901052955538, 331.8974215677008, -6.967433617450297, 651.2755280337296, -0.06400000303983688, 0.25600001215934753, 1.008000047877431, 0.0, 0.0, 0.0, 0.0, 0.0, 1.6360727708139691E9, 0.0, 2021-11-04 19:39:30.813
65.0, 795.2074477784336, 207.83372033759952, -114.62793364189565, 488.2570288651623, -0.06400000303983688, 0.25600001215934753, 1.008000047877431, 0.0, 0.0, 0.0, 0.0, 0.0, 1.6360727708139691E9, 0.0, 2021-11-04 19:39:30.813
66.0, 684.715843487531, 133.2114965217188, -236.28687920048833, 411.0617538797669, -0.06400000303983688, 0.25600001215934753, 1.008000047877431, 0.0, 0.0, 0.0, 0.0, 0.0, 1.636072770814666E9, 0.0, 2021-11-04 19:39:30.814
66.0, 626.6464168755338, 68.9936743825674, -267.4589453311637, 365.27789862221107, -0.06400000303983688, 0.25600001215934753, 1.008000047877431, 0.0, 0.0, 0.0, 0.0, 0.0, 1.636072770814666E9, 0.0, 2021-11-04 19:39:30.814
67.0, 605.3626462277025, 29.694805648177862, -320.73382019996643, 309.29907608544454, -0.06400000303983688, 0.25600001215934753, 1.008000047877431, 0.0, 0.0, 0.0, 0.0, 0.0, 1.6360727708284948E9, 0.0, 2021-11-04 19:39:30.828
67.0, 587.7140583368018, 27.548103073611856, -337.0472638066858, 287.3383835456334, -0.06400000303983688, 0.25600001215934753, 1.008000047877431, 0.0, 0.0, 0.0, 0.0, 0.0, 1.6360727708284948E9, 0.0, 2021-11-04 19:39:30.828
68.0, 523.7056705951691, 48.132512429729104, -351.66279283352196, 288.5688106310554, -0.06400000303983688, 0.25600001215934753, 1.008000047877431, 0.0, 0.0, 0.0, 0.0, 0.0, 1.636072770843917E9, 0.0, 2021-11-04 19:39:30.843
68.0, 510.3205686537549, 42.69843779411167, -389.38342378661036, 281.264786017593, -0.06400000303983688, 0.25600001215934753, 1.008000047877431, 0.0, 0.0, 0.0, 0.0, 0.0, 1.636072770843917E9, 0.0, 2021-11-04 19:39:30.843
69.0, 542.3266324745491, 24.458945710211992, -392.861530745402, 267.28130008326843, -0.06400000303983688, 0.25600001215934753, 1.008000047877431, 0.0, 0.0, 0.0, 0.0, 0.0, 1.6360727708446867E9, 0.0, 2021-11-04 19:39:30.844
