%OpenBCI Raw EEG Data
%Number of channels = 4
%Sample Rate = 200 Hz
%Board = OpenBCI_GUI$BoardGanglionBLE
Sample Index, EXG Channel 0, EXG Channel 1, EXG Channel 2, EXG Channel 3, Accel Channel 0, Accel Channel 1, Accel Channel 2, Other, Other, Other, Other, Other, Timestamp, Other, Timestamp (Formatted)
0.0, 1184.0785052711144, 229.17732938472182, -97.74415529193357, 950.1346733928658, 0.0, 0.0, 0.0, 0.0, 0.0, 0.0, 0.0, 0.0, 1.6360739151554124E9, 0.0, 2021-11-04 19:58:35.155
1.0, 1182.9303559847176, 225.93857602309436, -95.63859161688015, 951.1781054805033, 0.0, 0.2400000113993883, 0.0, 0.0, 0.0, 0.0, 0.0, 0.0, 1.636073915168841E9, 0.0, 2021-11-04 19:58:35.168
1.0, 1171.0973125249147, 221.95184267032892, -77.33926113368943, 937.6658469405957, 0.0, 0.2400000113993883, 0.0, 0.0, 0.0, 0.0, 0.0, 0.0, 1.636073915168841E9, 0.0, 2021-11-04 19:58:35.168
2.0, 1178.5995518360287, 234.19627512525767, -60.734105330426246, 947.587801523041, -0.06400000303983688, 0.2400000113993883, 0.0, 0.0, 0.0, 0.0, 0.0, 0.0, 1.6360739152160497E9, 0.0, 2021-11-04 19:58:35.216
2.0, 1175.0055079786107, 233.62407043203712, -60.43117343401536, 943.993757665623, -0.06400000303983688, 0.2400000113993883, 0.0, 0.0, 0.0, 0.0, 0.0, 0.0, 1.6360739152160497E9, 0.0, 2021-11-04 19:58:35.216
3.0, 1175.3981974739581, 229.38676378224045, -82.0552749778144, 944.861414455343, -0.06400000303983688, 0.2400000113993883, 0.0, 0.0, 0.0, 0.0, 0.0, 0.0, 1.6360739152168844E9, 0.0, 2021-11-04 19:58:35.216
3.0, 1173.8386591924354, 231.032319762744, -68.02691024402156, 940.4819916072302, -0.06400000303983688, 0.2400000113993883, 0.0, 0.0, 0.0, 0.0, 0.0, 0.0, 1.6360739152168844E9, 0.0, 2021-11-04 19:58:35.216
4.0, 1174.1752501884475, 231.53720625676215, -72.27169669372961, 943.3654544730671, -0.06400000303983688, 0.2400000113993883, 0.0, 0.0, 0.0, 0.0, 0.0, 0.0, 1.6360739152303145E9, 0.0, 2021-11-04 19:58:35.230
4.0, 1162.7797750234604, 225.44864912889898, -81.31103488663211, 941.1140346997418, -0.06400000303983688, 0.2400000113993883, 0.0, 0.0, 0.0, 0.0, 0.0, 0.0, 1.6360739152303145E9, 0.0, 2021-11-04 19:58:35.230
5.0, 1159.7280166596174, 229.67473607882857, -68.7524508354254, 935.4144271672703, -0.06400000303983688, 0.2400000113993883, 0.0, 0.0, 0.0, 0.0, 0.0, 0.0, 1.636073915247002E9, 0.0, 2021-11-04 19:58:35.247
5.0, 1156.597720396705, 235.73337400704622, -59.578476244118065, 939.6891328166239, -0.06400000303983688, 0.2400000113993883, 0.0, 0.0, 0.0, 0.0, 0.0, 0.0, 1.636073915247002E9, 0.0, 2021-11-04 19:58:35.247
6.0, 1156.8669931935146, 240.65882224868983, -51.58257013885304, 940.5642694062553, -0.06400000303983688, 0.2400000113993883, 0.0, 0.0, 0.0, 0.0, 0.0, 0.0, 1.6360739152477E9, 0.0, 2021-11-04 19:58:35.247
6.0, 1153.366446834989, 237.1133970906958, -54.81384370056912, 938.8626149264164, -0.06400000303983688, 0.2400000113993883, 0.0, 0.0, 0.0, 0.0, 0.0, 0.0, 1.6360739152477E9, 0.0, 2021-11-04 19:58:35.247
7.0, 1156.7996749943122, 234.05789882689714, -66.93485945696011, 941.1701331990771, -0.06400000303983688, 0.2400000113993883, 0.0, 0.0, 0.0, 0.0, 0.0, 0.0, 1.6360739152484264E9, 0.0, 2021-11-04 19:58:35.248
7.0, 1159.6569585604593, 236.56363179720938, -56.85582907637581, 946.1853390396573, -0.06400000303983688, 0.2400000113993883, 0.0, 0.0, 0.0, 0.0, 0.0, 0.0, 1.6360739152484264E9, 0.0, 2021-11-04 19:58:35.248
8.0, 1154.7576896185055, 232.46470144577324, -76.8717736392282, 943.8628611671738, -0.06400000303983688, 0.2400000113993883, 0.0, 0.0, 0.0, 0.0, 0.0, 0.0, 1.6360739152491512E9, 0.0, 2021-11-04 19:58:35.249
8.0, 1166.8637457750738, 241.13004964310676, -63.74846469471231, 950.8938730838709, -0.06400000303983688, 0.2400000113993883, 0.0, 0.0, 0.0, 0.0, 0.0, 0.0, 1.6360739152491512E9, 0.0, 2021-11-04 19:58:35.249
9.0, 1171.744315217249, 236.0026468038559, -50.12774905608967, 945.2915029502474, -0.06400000303983688, 0.2400000113993883, 0.0, 0.0, 0.0, 0.0, 0.0, 0.0, 1.636073915259265E9, 0.0, 2021-11-04 19:58:35.259
9.0, 1170.2034764355049, 238.8935894696042, -53.46747971652076, 944.3976668608375, -0.06400000303983688, 0.2400000113993883, 0.0, 0.0, 0.0, 0.0, 0.0, 0.0, 1.636073915259265E9, 0.0, 2021-11-04 19:58:35.259
10.0, 1168.5167815554887, 228.94171568751335, -52.91397452307865, 942.7184517807327, -0.06400000303983688, 0.2400000113993883, 0.9920000471174717, 0.0, 0.0, 0.0, 0.0, 0.0, 1.636073915259946E9, 0.0, 2021-11-04 19:58:35.259
10.0, 1180.4395826142281, 232.1842089490965, -51.24223924288526, 946.7201447333209, -0.06400000303983688, 0.2400000113993883, 0.9920000471174717, 0.0, 0.0, 0.0, 0.0, 0.0, 1.636073915259946E9, 0.0, 2021-11-04 19:58:35.259
11.0, 1187.4331955313683, 237.8875563815236, -36.78004611423239, 952.8535806606524, -0.06400000303983688, 0.11200000531971455, 0.9920000471174717, 0.0, 0.0, 0.0, 0.0, 0.0, 1.6360739153212385E9, 0.0, 2021-11-04 19:58:35.321
11.0, 1177.619698047638, 237.91747558116913, -37.2213543090038, 945.1793059515767, -0.06400000303983688, 0.11200000531971455, 0.9920000471174717, 0.0, 0.0, 0.0, 0.0, 0.0, 1.6360739153212385E9, 0.0, 2021-11-04 19:58:35.321
12.0, 1177.197089352645, 235.30702541209757, -40.605963768903166, 939.5731959179975, -0.03200000151991844, 0.11200000531971455, 0.9920000471174717, 0.0, 0.0, 0.0, 0.0, 0.0, 1.636073915321975E9, 0.0, 2021-11-04 19:58:35.321
12.0, 1181.04544640705, 236.23078070115298, -25.414490148890764, 942.969025077764, -0.03200000151991844, 0.11200000531971455, 0.9920000471174717, 0.0, 0.0, 0.0, 0.0, 0.0, 1.636073915321975E9, 0.0, 2021-11-04 19:58:35.321
13.0, 1170.562506831251, 229.75701387785375, -21.12108499975875, 933.1854467936791, -0.03200000151991844, 0.11200000531971455, 0.9920000471174717, 0.0, 0.0, 0.0, 0.0, 0.0, 1.636073915322733E9, 0.0, 2021-11-04 19:58:35.322
13.0, 1159.6644383603707, 232.49836054537445, -24.071866064798087, 930.3580824271776, -0.03200000151991844, 0.11200000531971455, 0.9920000471174717, 0.0, 0.0, 0.0, 0.0, 0.0, 1.636073915322733E9, 0.0, 2021-11-04 19:58:35.322
14.0, 1162.1140728313476, 225.67304312624037, -14.168610982131213, 933.1330881942995, -0.03200000151991844, 0.11200000531971455, 0.9920000471174717, 0.0, 0.0, 0.0, 0.0, 0.0, 1.6360739153234663E9, 0.0, 2021-11-04 19:58:35.323
14.0, 1153.4786438336596, 228.79211968928576, -33.70958825061098, 929.2622917401604, -0.03200000151991844, 0.11200000531971455, 0.9920000471174717, 0.0, 0.0, 0.0, 0.0, 0.0, 1.6360739153234663E9, 0.0, 2021-11-04 19:58:35.323
15.0, 1149.615327179432, 243.16455521900207, -16.569626753684133, 928.1440616534092, -0.03200000151991844, 0.11200000531971455, 0.9920000471174717, 0.0, 0.0, 0.0, 0.0, 0.0, 1.6360739153518894E9, 0.0, 2021-11-04 19:58:35.351
15.0, 1140.2655772902071, 256.6431546593085, -20.990188501309603, 922.4182748212479, -0.03200000151991844, 0.11200000531971455, 0.9920000471174717, 0.0, 0.0, 0.0, 0.0, 0.0, 1.6360739153518894E9, 0.0, 2021-11-04 19:58:35.351
16.0, 1135.418666947633, 248.58367025479674, -33.833004949148744, 925.3017376870848, -0.03200000151991844, 0.11200000531971455, 0.9920000471174717, 0.0, 0.0, 0.0, 0.0, 0.0, 1.636073915352706E9, 0.0, 2021-11-04 19:58:35.352
16.0, 1131.0355041995645, 244.6380758015439, -34.625863739755005, 921.6665549301542, -0.03200000151991844, 0.11200000531971455, 0.9920000471174717, 0.0, 0.0, 0.0, 0.0, 0.0, 1.636073915352706E9, 0.0, 2021-11-04 19:58:35.352
17.0, 1143.8222221480682, 255.73435897007585, -49.83603685954586, 930.8255699216388, -0.03200000151991844, 0.11200000531971455, 0.9920000471174717, 0.0, 0.0, 0.0, 0.0, 0.0, 1.6360739153534486E9, 0.0, 2021-11-04 19:58:35.353
17.0, 1145.7856696248055, 256.9311269558966, -47.02737199282274, 931.7343656108715, -0.03200000151991844, 0.11200000531971455, 0.9920000471174717, 0.0, 0.0, 0.0, 0.0, 0.0, 1.6360739153534486E9, 0.0, 2021-11-04 19:58:35.353
18.0, 1143.354734653607, 247.53275836724788, -17.8785917381756, 926.8126572691835, -0.03200000151991844, 0.11200000531971455, 0.9920000471174717, 0.0, 0.0, 0.0, 0.0, 0.0, 1.636073915354339E9, 0.0, 2021-11-04 19:58:35.354
18.0, 1143.825962048024, 252.0879565132782, -39.93652167683467, 928.4694329495542, -0.03200000151991844, 0.11200000531971455, 0.9920000471174717, 0.0, 0.0, 0.0, 0.0, 0.0, 1.636073915354339E9, 0.0, 2021-11-04 19:58:35.354
19.0, 1154.8212679177523, 248.33309695776552, -28.34283181419596, 934.0269242837094, -0.03200000151991844, 0.11200000531971455, 0.9920000471174717, 0.0, 0.0, 0.0, 0.0, 0.0, 1.636073915364987E9, 0.0, 2021-11-04 19:58:35.364
19.0, 1158.0114025799558, 253.24732549954206, -36.15922272158787, 939.6666934168898, -0.03200000151991844, 0.11200000531971455, 0.9920000471174717, 0.0, 0.0, 0.0, 0.0, 0.0, 1.636073915364987E9, 0.0, 2021-11-04 19:58:35.364
20.0, 1154.2490632245317, 248.27699845843017, -24.546833359170705, 930.3842617268674, -0.03200000151991844, 0.11200000531971455, 0.49600002355873585, 0.0, 0.0, 0.0, 0.0, 0.0, 1.636073915380654E9, 0.0, 2021-11-04 19:58:35.380
20.0, 1160.0122490562499, 251.1529815243557, -35.845071125309914, 933.320083192084, -0.03200000151991844, 0.11200000531971455, 0.49600002355873585, 0.0, 0.0, 0.0, 0.0, 0.0, 1.636073915380654E9, 0.0, 2021-11-04 19:58:35.380
21.0, 1157.0016295919195, 250.77151172887534, -10.23423622874543, 929.9466934320517, -0.03200000151991844, 0.17600000835955143, 0.49600002355873585, 0.0, 0.0, 0.0, 0.0, 0.0, 1.636073915381318E9, 0.0, 2021-11-04 19:58:35.381
21.0, 1151.784469153732, 247.46544016804546, -20.904170802328736, 922.7025072178803, -0.03200000151991844, 0.17600000835955143, 0.49600002355873585, 0.0, 0.0, 0.0, 0.0, 0.0, 1.636073915381318E9, 0.0, 2021-11-04 19:58:35.381
22.0, 1155.4981898097321, 251.14924162440002, -18.031927636358887, 925.60092968354, -0.04800000227987766, 0.17600000835955143, 0.49600002355873585, 0.0, 0.0, 0.0, 0.0, 0.0, 1.6360739153822153E9, 0.0, 2021-11-04 19:58:35.382
22.0, 1143.0705022569746, 239.68270836025476, -26.78703343262896, 920.3314106459729, -0.04800000227987766, 0.17600000835955143, 0.49600002355873585, 0.0, 0.0, 0.0, 0.0, 0.0, 1.6360739153822153E9, 0.0, 2021-11-04 19:58:35.382
23.0, 1142.281383366324, 252.42454750929028, -14.972689472604543, 919.2131805592217, -0.04800000227987766, 0.17600000835955143, 0.49600002355873585, 0.0, 0.0, 0.0, 0.0, 0.0, 1.6360739153828385E9, 0.0, 2021-11-04 19:58:35.382
23.0, 1146.612187515013, 250.83135012816638, -19.995375113096088, 918.6821147655137, -0.04800000227987766, 0.17600000835955143, 0.49600002355873585, 0.0, 0.0, 0.0, 0.0, 0.0, 1.6360739153828385E9, 0.0, 2021-11-04 19:58:35.382
24.0, 1139.0688093043864, 237.75665988307446, -11.47588301403448, 915.5256392029114, -0.04800000227987766, 0.17600000835955143, 0.49600002355873585, 0.0, 0.0, 0.0, 0.0, 0.0, 1.6360739153935668E9, 0.0, 2021-11-04 19:58:35.393
24.0, 1146.0474626217037, 242.12112313136458, -13.372012291569263, 924.2994444989599, -0.04800000227987766, 0.17600000835955143, 0.49600002355873585, 0.0, 0.0, 0.0, 0.0, 0.0, 1.6360739153935668E9, 0.0, 2021-11-04 19:58:35.393
25.0, 1138.8294557072222, 245.3374370932579, -18.72380912816152, 913.9062625220977, -0.04800000227987766, 0.17600000835955143, 0.49600002355873585, 0.0, 0.0, 0.0, 0.0, 0.0, 1.6360739154248636E9, 0.0, 2021-11-04 19:58:35.424
25.0, 1157.3793594874442, 251.84486301615834, -31.17767598060891, 926.6593213710003, -0.04800000227987766, 0.17600000835955143, 0.49600002355873585, 0.0, 0.0, 0.0, 0.0, 0.0, 1.6360739154248636E9, 0.0, 2021-11-04 19:58:35.424
26.0, 1166.6505714775994, 254.42913388554007, -14.632358576636761, 935.515404466074, -0.04800000227987766, 0.17600000835955143, 0.49600002355873585, 0.0, 0.0, 0.0, 0.0, 0.0, 1.63607391542563E9, 0.0, 2021-11-04 19:58:35.425
26.0, 1163.351979716681, 251.24273912329227, -16.939876849297434, 936.5027380543761, -0.04800000227987766, 0.17600000835955143, 0.49600002355873585, 0.0, 0.0, 0.0, 0.0, 0.0, 1.63607391542563E9, 0.0, 2021-11-04 19:58:35.425
27.0, 1156.9978896919638, 241.80323163513094, -13.659984588157386, 935.5864625652321, -0.04800000227987766, 0.17600000835955143, 0.49600002355873585, 0.0, 0.0, 0.0, 0.0, 0.0, 1.6360739154264078E9, 0.0, 2021-11-04 19:58:35.426
27.0, 1160.5844537494704, 249.53734474349767, -7.646225459408015, 942.8306487794034, -0.04800000227987766, 0.17600000835955143, 0.49600002355873585, 0.0, 0.0, 0.0, 0.0, 0.0, 1.6360739154264078E9, 0.0, 2021-11-04 19:58:35.426
28.0, 1149.6676857788116, 242.69706772454083, -0.20008464762941003, 933.2490250929259, -0.04800000227987766, 0.17600000835955143, 0.49600002355873585, 0.0, 0.0, 0.0, 0.0, 0.0, 1.6360739154385777E9, 0.0, 2021-11-04 19:58:35.438
28.0, 1154.8549270173535, 242.77560562361032, -7.03288186667487, 937.5274706422351, -0.04800000227987766, 0.17600000835955143, 0.49600002355873585, 0.0, 0.0, 0.0, 0.0, 0.0, 1.6360739154385777E9, 0.0, 2021-11-04 19:58:35.438
29.0, 1158.9575972687453, 256.5945359598845, -13.678684087935835, 942.811949279625, -0.04800000227987766, 0.17600000835955143, 0.49600002355873585, 0.0, 0.0, 0.0, 0.0, 0.0, 1.636073915454414E9, 0.0, 2021-11-04 19:58:35.454
29.0, 1156.4705637982115, 244.17806810699403, -4.21673720004037, 940.1566203110851, -0.04800000227987766, 0.17600000835955143, 0.49600002355873585, 0.0, 0.0, 0.0, 0.0, 0.0, 1.636073915454414E9, 0.0, 2021-11-04 19:58:35.454
30.0, 1153.7965353298932, 249.42514774482697, -8.349326651077718, 943.6646464695223, -0.04800000227987766, 0.17600000835955143, 0.7520000357180834, 0.0, 0.0, 0.0, 0.0, 0.0, 1.6360739154552572E9, 0.0, 2021-11-04 19:58:35.455
30.0, 1140.6470470856875, 248.0077256616205, -0.8957060393877327, 935.9529727608897, -0.04800000227987766, 0.17600000835955143, 0.7520000357180834, 0.0, 0.0, 0.0, 0.0, 0.0, 1.6360739154552572E9, 0.0, 2021-11-04 19:58:35.455
31.0, 1146.3354349182919, 253.88684839196503, -7.818260857369751, 938.6980593283661, -0.04800000227987766, 0.20800000987946987, 0.7520000357180834, 0.0, 0.0, 0.0, 0.0, 0.0, 1.6360739154684958E9, 0.0, 2021-11-04 19:58:35.468
31.0, 1141.1444537797943, 246.64640207774937, -6.045548278372735, 935.5827226652764, -0.04800000227987766, 0.20800000987946987, 0.7520000357180834, 0.0, 0.0, 0.0, 0.0, 0.0, 1.6360739154684958E9, 0.0, 2021-11-04 19:58:35.468
32.0, 1133.6122952690348, 244.335143905133, -14.28828778071329, 928.4918723492883, -0.06400000303983688, 0.20800000987946987, 0.7520000357180834, 0.0, 0.0, 0.0, 0.0, 0.0, 1.63607391548427E9, 0.0, 2021-11-04 19:58:35.484
32.0, 1142.1804060675204, 245.10930319596082, 2.178491724189371, 935.4967049662955, -0.06400000303983688, 0.20800000987946987, 0.7520000357180834, 0.0, 0.0, 0.0, 0.0, 0.0, 1.63607391548427E9, 0.0, 2021-11-04 19:58:35.484
33.0, 1139.1398674035445, 246.638922277838, -5.85107348067686, 936.4840385545976, -0.06400000303983688, 0.20800000987946987, 0.7520000357180834, 0.0, 0.0, 0.0, 0.0, 0.0, 1.6360739154850166E9, 0.0, 2021-11-04 19:58:35.485
33.0, 1144.173772743903, 253.39318159781396, -4.179338200483471, 940.0519031123258, -0.06400000303983688, 0.20800000987946987, 0.7520000357180834, 0.0, 0.0, 0.0, 0.0, 0.0, 1.6360739154850166E9, 0.0, 2021-11-04 19:58:35.485
34.0, 1152.3417142471299, 247.03535167314112, 16.105879159178585, 948.130087016616, -0.06400000303983688, 0.20800000987946987, 0.7520000357180834, 0.0, 0.0, 0.0, 0.0, 0.0, 1.636073915498658E9, 0.0, 2021-11-04 19:58:35.498
34.0, 1155.9993364037946, 252.005678714253, 11.427264314610511, 951.0659084818326, -0.06400000303983688, 0.20800000987946987, 0.7520000357180834, 0.0, 0.0, 0.0, 0.0, 0.0, 1.636073915498658E9, 0.0, 2021-11-04 19:58:35.498
35.0, 1151.6386130554602, 253.2660249993205, 1.7820623288862407, 944.4612451600842, -0.06400000303983688, 0.20800000987946987, 0.7520000357180834, 0.0, 0.0, 0.0, 0.0, 0.0, 1.636073915546291E9, 0.0, 2021-11-04 19:58:35.546
35.0, 1145.176065932028, 249.42140784487128, 15.384078467730433, 939.3525418206118, -0.06400000303983688, 0.20800000987946987, 0.7520000357180834, 0.0, 0.0, 0.0, 0.0, 0.0, 1.636073915546291E9, 0.0, 2021-11-04 19:58:35.546
36.0, 1149.3684937823564, 251.99819891434163, 6.22132357629016, 935.9641924607567, -0.06400000303983688, 0.20800000987946987, 0.7520000357180834, 0.0, 0.0, 0.0, 0.0, 0.0, 1.6360739155471144E9, 0.0, 2021-11-04 19:58:35.547
36.0, 1146.3017758186907, 246.964293573983, 18.37973833223805, 936.6822532522492, -0.06400000303983688, 0.20800000987946987, 0.7520000357180834, 0.0, 0.0, 0.0, 0.0, 0.0, 1.6360739155471144E9, 0.0, 2021-11-04 19:58:35.547
37.0, 1148.0632686978206, 241.21232744213194, 13.229896093253046, 940.7026457046159, -0.06400000303983688, 0.20800000987946987, 0.7520000357180834, 0.0, 0.0, 0.0, 0.0, 0.0, 1.6360739155476665E9, 0.0, 2021-11-04 19:58:35.547
37.0, 1152.0948808500543, 245.16166179534048, 10.540908025112003, 944.3004294619896, -0.06400000303983688, 0.20800000987946987, 0.7520000357180834, 0.0, 0.0, 0.0, 0.0, 0.0, 1.6360739155476665E9, 0.0, 2021-11-04 19:58:35.547
38.0, 1143.5753887509927, 247.05779107287526, 16.68556365231052, 937.44519284321, -0.06400000303983688, 0.20800000987946987, 0.7520000357180834, 0.0, 0.0, 0.0, 0.0, 0.0, 1.636073915548437E9, 0.0, 2021-11-04 19:58:35.548
38.0, 1144.970371434465, 245.3748360928148, 11.85735280951485, 942.931626078207, -0.06400000303983688, 0.20800000987946987, 0.7520000357180834, 0.0, 0.0, 0.0, 0.0, 0.0, 1.636073915548437E9, 0.0, 2021-11-04 19:58:35.548
39.0, 1144.9666315345094, 244.07335090823472, 20.578799506183714, 937.5798292416148, -0.06400000303983688, 0.20800000987946987, 0.7520000357180834, 0.0, 0.0, 0.0, 0.0, 0.0, 1.6360739155592513E9, 0.0, 2021-11-04 19:58:35.559
39.0, 1141.3838073769584, 242.51007272675633, 30.145463592838496, 938.0809758356772, -0.06400000303983688, 0.20800000987946987, 0.7520000357180834, 0.0, 0.0, 0.0, 0.0, 0.0, 1.6360739155592513E9, 0.0, 2021-11-04 19:58:35.559
40.0, 1144.0952348448336, 252.3011308107525, 36.06198532273993, 942.3519415850751, -0.06400000303983688, 0.20800000987946987, 0.8800000417977571, 0.0, 0.0, 0.0, 0.0, 0.0, 1.636073915560246E9, 0.0, 2021-11-04 19:58:35.560
40.0, 1140.628347585909, 243.87887611053884, 16.921177349518985, 946.4246926368214, -0.06400000303983688, 0.20800000987946987, 0.8800000417977571, 0.0, 0.0, 0.0, 0.0, 0.0, 1.636073915560246E9, 0.0, 2021-11-04 19:58:35.560
41.0, 1141.3464083774015, 243.68066141288728, 25.870757943484932, 943.7656237683259, -0.06400000303983688, 0.2240000106394291, 0.8800000417977571, 0.0, 0.0, 0.0, 0.0, 0.0, 1.636073915574868E9, 0.0, 2021-11-04 19:58:35.574
41.0, 1139.3941806005314, 245.0008460972458, 26.899230431299657, 938.3016299330629, -0.06400000303983688, 0.2240000106394291, 0.8800000417977571, 0.0, 0.0, 0.0, 0.0, 0.0, 1.636073915574868E9, 0.0, 2021-11-04 19:58:35.574
42.0, 1141.256650778465, 251.4895725203678, 39.27081948472187, 941.2823301977478, -0.06400000303983688, 0.2240000106394291, 0.8800000417977571, 0.0, 0.0, 0.0, 0.0, 0.0, 1.6360739155756652E9, 0.0, 2021-11-04 19:58:35.575
42.0, 1143.3248154539615, 246.8184374757111, 35.68799532717094, 942.1986056868918, -0.06400000303983688, 0.2240000106394291, 0.8800000417977571, 0.0, 0.0, 0.0, 0.0, 0.0, 1.6360739155756652E9, 0.0, 2021-11-04 19:58:35.575
43.0, 1142.8386284597218, 246.75485917646438, 19.15015772311017, 943.7207449688576, -0.06400000303983688, 0.2240000106394291, 0.8800000417977571, 0.0, 0.0, 0.0, 0.0, 0.0, 1.636073915604859E9, 0.0, 2021-11-04 19:58:35.604
43.0, 1149.2375972839072, 246.88201577495784, 7.784601757768542, 942.2173051866703, -0.06400000303983688, 0.2240000106394291, 0.8800000417977571, 0.0, 0.0, 0.0, 0.0, 0.0, 1.636073915604859E9, 0.0, 2021-11-04 19:58:35.604
44.0, 1153.2542498363182, 249.5298649435863, 21.97378218965605, 944.2779900622554, -0.06400000303983688, 0.2240000106394291, 0.8800000417977571, 0.0, 0.0, 0.0, 0.0, 0.0, 1.6360739156056328E9, 0.0, 2021-11-04 19:58:35.605
44.0, 1150.9803906632587, 251.5681104194373, 36.95582141214982, 935.3994675674476, -0.06400000303983688, 0.2240000106394291, 0.8800000417977571, 0.0, 0.0, 0.0, 0.0, 0.0, 1.6360739156056328E9, 0.0, 2021-11-04 19:58:35.605
45.0, 1150.737297166139, 245.51695229113102, 35.29156593186781, 932.0821763067506, -0.06400000303983688, 0.2240000106394291, 0.8800000417977571, 0.0, 0.0, 0.0, 0.0, 0.0, 1.6360739156064334E9, 0.0, 2021-11-04 19:58:35.606
45.0, 1153.8563737291843, 236.32801810000092, 17.08199304761365, 938.4362663314678, -0.06400000303983688, 0.2240000106394291, 0.8800000417977571, 0.0, 0.0, 0.0, 0.0, 0.0, 1.6360739156064334E9, 0.0, 2021-11-04 19:58:35.606
46.0, 1152.0350424507633, 237.80153868254274, 0.7386302412487566, 931.1808604174294, -0.06400000303983688, 0.2240000106394291, 0.8800000417977571, 0.0, 0.0, 0.0, 0.0, 0.0, 1.6360739156513412E9, 0.0, 2021-11-04 19:58:35.651
46.0, 1157.562614585273, 241.90794883389026, 17.717776040080935, 931.4875322137959, -0.06400000303983688, 0.2240000106394291, 0.8800000417977571, 0.0, 0.0, 0.0, 0.0, 0.0, 1.6360739156513412E9, 0.0, 2021-11-04 19:58:35.651
47.0, 1167.3536726692691, 243.1944744186476, 27.90900341933593, 929.5652236365713, -0.06400000303983688, 0.2240000106394291, 0.8800000417977571, 0.0, 0.0, 0.0, 0.0, 0.0, 1.6360739156519732E9, 0.0, 2021-11-04 19:58:35.651
47.0, 1163.5875934138894, 242.98877992108464, 28.585925311315805, 928.1253621536307, -0.06400000303983688, 0.2240000106394291, 0.8800000417977571, 0.0, 0.0, 0.0, 0.0, 0.0, 1.6360739156519732E9, 0.0, 2021-11-04 19:58:35.651
48.0, 1160.7078704480082, 244.23790650628507, 25.283593650441617, 928.7050466467626, -0.06400000303983688, 0.2240000106394291, 0.8800000417977571, 0.0, 0.0, 0.0, 0.0, 0.0, 1.6360739156527789E9, 0.0, 2021-11-04 19:58:35.652
48.0, 1166.0596672846004, 245.8198841875419, 48.42235467629507, 928.4656930495985, -0.06400000303983688, 0.2240000106394291, 0.8800000417977571, 0.0, 0.0, 0.0, 0.0, 0.0, 1.6360739156527789E9, 0.0, 2021-11-04 19:58:35.652
49.0, 1175.218682276085, 258.02317774295807, 39.476513982284814, 939.8013298152946, -0.06400000303983688, 0.2240000106394291, 0.8800000417977571, 0.0, 0.0, 0.0, 0.0, 0.0, 1.6360739156534712E9, 0.0, 2021-11-04 19:58:35.653
49.0, 1172.155704212375, 262.9673254843801, 54.83628310030326, 933.8922878853045, -0.06400000303983688, 0.2240000106394291, 0.8800000417977571, 0.0, 0.0, 0.0, 0.0, 0.0, 1.6360739156534712E9, 0.0, 2021-11-04 19:58:35.653
50.0, 1172.0135880140588, 265.95924544893205, 57.110142273362726, 931.4202140145935, -0.06400000303983688, 0.2240000106394291, 0.9280000440776348, 0.0, 0.0, 0.0, 0.0, 0.0, 1.6360739156649597E9, 0.0, 2021-11-04 19:58:35.664
50.0, 1170.4690093323588, 270.6789991930127, 63.47171209799126, 930.0140116312541, -0.06400000303983688, 0.2240000106394291, 0.9280000440776348, 0.0, 0.0, 0.0, 0.0, 0.0, 1.6360739156649597E9, 0.0, 2021-11-04 19:58:35.664
51.0, 1183.3043459802866, 288.4622234823182, 70.9776913090609, 938.0996753354557, -0.06400000303983688, 0.2240000106394291, 0.9280000440776348, 0.0, 0.0, 0.0, 0.0, 0.0, 1.6360739156658256E9, 0.0, 2021-11-04 19:58:35.665
51.0, 1178.0834456421435, 297.6287182737142, 91.16567126987502, 930.6722340234555, -0.06400000303983688, 0.2240000106394291, 0.9280000440776348, 0.0, 0.0, 0.0, 0.0, 0.0, 1.6360739156658256E9, 0.0, 2021-11-04 19:58:35.665
52.0, 1178.1320643415675, 292.7743281312287, 110.66924953879789, 934.344815779943, -0.06400000303983688, 0.2240000106394291, 0.9280000440776348, 0.0, 0.0, 0.0, 0.0, 0.0, 1.6360739156785438E9, 0.0, 2021-11-04 19:58:35.678
52.0, 1190.125923499465, 302.68132311385125, 126.82561734737828, 936.2895637569018, -0.06400000303983688, 0.2240000106394291, 0.9280000440776348, 0.0, 0.0, 0.0, 0.0, 0.0, 1.6360739156785438E9, 0.0, 2021-11-04 19:58:35.678
53.0, 1192.2913255738094, 312.27416650019586, 155.06560191279277, 930.3954814267345, -0.06400000303983688, 0.2240000106394291, 0.9280000440776348, 0.0, 0.0, 0.0, 0.0, 0.0, 1.636073915694373E9, 0.0, 2021-11-04 19:58:35.694
53.0, 1202.5386514523998, 325.53585174307227, 158.7643629689701, 939.1992059224285, -0.06400000303983688, 0.2240000106394291, 0.9280000440776348, 0.0, 0.0, 0.0, 0.0, 0.0, 1.636073915694373E9, 0.0, 2021-11-04 19:58:35.694
54.0, 1201.7495325617492, 346.4605919951573, 168.70501705119386, 934.8384825740941, -0.06400000303983688, 0.2240000106394291, 0.9280000440776348, 0.0, 0.0, 0.0, 0.0, 0.0, 1.6360739156949947E9, 0.0, 2021-11-04 19:58:35.694
54.0, 1190.1184436995536, 360.85920682456344, 191.2154748844914, 931.9438000083901, -0.06400000303983688, 0.2240000106394291, 0.9280000440776348, 0.0, 0.0, 0.0, 0.0, 0.0, 1.6360739156949947E9, 0.0, 2021-11-04 19:58:35.694
55.0, 1189.7107946043834, 357.2090644678101, 194.32333174766973, 927.699013558682, -0.06400000303983688, 0.2240000106394291, 0.9280000440776348, 0.0, 0.0, 0.0, 0.0, 0.0, 1.6360739157085187E9, 0.0, 2021-11-04 19:58:35.708
55.0, 1183.4015833791345, 350.4286258481443, 209.61578266648576, 918.1884479713626, -0.06400000303983688, 0.2240000106394291, 0.9280000440776348, 0.0, 0.0, 0.0, 0.0, 0.0, 1.6360739157085187E9, 0.0, 2021-11-04 19:58:35.708
56.0, 1177.6645768471062, 355.93001868296415, 223.85732169775292, 915.8397907991894, -0.06400000303983688, 0.2240000106394291, 0.9280000440776348, 0.0, 0.0, 0.0, 0.0, 0.0, 1.6360739157244213E9, 0.0, 2021-11-04 19:58:35.724
56.0, 1174.89331097994, 351.3224619375542, 217.47331247339025, 913.8950428222306, -0.06400000303983688, 0.2240000106394291, 0.9280000440776348, 0.0, 0.0, 0.0, 0.0, 0.0, 1.6360739157244213E9, 0.0, 2021-11-04 19:58:35.724
57.0, 1176.811879657209, 340.77594406250864, 192.36362417088822, 916.1950812949799, -0.06400000303983688, 0.2240000106394291, 0.9280000440776348, 0.0, 0.0, 0.0, 0.0, 0.0, 1.6360739157250164E9, 0.0, 2021-11-04 19:58:35.725
57.0, 1185.1368969585747, 343.6893261279911, 184.19194276770577, 921.0270320377313, -0.06400000303983688, 0.2240000106394291, 0.9280000440776348, 0.0, 0.0, 0.0, 0.0, 0.0, 1.6360739157250164E9, 0.0, 2021-11-04 19:58:35.725
58.0, 1175.929263267666, 337.8999609965831, 179.4422698239796, 912.2756661414169, -0.06400000303983688, 0.2240000106394291, 0.9280000440776348, 0.0, 0.0, 0.0, 0.0, 0.0, 1.6360739157385814E9, 0.0, 2021-11-04 19:58:35.738
58.0, 1165.1433917954564, 328.2996378103271, 168.3908654549159, 903.4420224460773, -0.06400000303983688, 0.2240000106394291, 0.9280000440776348, 0.0, 0.0, 0.0, 0.0, 0.0, 1.6360739157385814E9, 0.0, 2021-11-04 19:58:35.738
59.0, 1170.50266843196, 322.42425497993827, 180.3585453131236, 910.3832767638378, -0.06400000303983688, 0.2240000106394291, 0.9280000440776348, 0.0, 0.0, 0.0, 0.0, 0.0, 1.6360739157716987E9, 0.0, 2021-11-04 19:58:35.771
59.0, 1173.2028761999682, 304.360538193956, 166.19554418092594, 907.2941194004379, -0.06400000303983688, 0.2240000106394291, 0.9280000440776348, 0.0, 0.0, 0.0, 0.0, 0.0, 1.6360739157716987E9, 0.0, 2021-11-04 19:58:35.771
60.0, 1176.0339804664254, 302.7037625135854, 124.46574047533795, 913.6295099253766, -0.06400000303983688, 0.2240000106394291, 0.9600000455975533, 0.0, 0.0, 0.0, 0.0, 0.0, 1.6360739157724135E9, 0.0, 2021-11-04 19:58:35.772
60.0, 1173.169217100367, 287.59456669259816, 117.01959966355935, 917.6386826778762, -0.06400000303983688, 0.2240000106394291, 0.9600000455975533, 0.0, 0.0, 0.0, 0.0, 0.0, 1.6360739157724135E9, 0.0, 2021-11-04 19:58:35.772
61.0, 1178.1320643415675, 276.7563366210088, 116.08836457459256, 921.7563125290908, -0.06400000303983688, 0.2240000106394291, 0.9600000455975533, 0.0, 0.0, 0.0, 0.0, 0.0, 1.636073915773142E9, 0.0, 2021-11-04 19:58:35.773
61.0, 1177.52246064879, 269.15312001109123, 94.75971512729302, 913.3078785291873, -0.06400000303983688, 0.2240000106394291, 0.9600000455975533, 0.0, 0.0, 0.0, 0.0, 0.0, 1.636073915773142E9, 0.0, 2021-11-04 19:58:35.773
62.0, 1173.3674317980185, 262.4960980899632, 84.59840694768354, 911.6997215482406, -0.06400000303983688, 0.2240000106394291, 0.9600000455975533, 0.0, 0.0, 0.0, 0.0, 0.0, 1.6360739157853286E9, 0.0, 2021-11-04 19:58:35.785
62.0, 1172.361398709938, 257.58186954818666, 89.63979208795354, 910.6114106611349, -0.06400000303983688, 0.2240000106394291, 0.9600000455975533, 0.0, 0.0, 0.0, 0.0, 0.0, 1.6360739157853286E9, 0.0, 2021-11-04 19:58:35.785
63.0, 1174.0443536899984, 252.4544667089358, 91.15819146996364, 908.8237384823151, -0.06400000303983688, 0.2240000106394291, 0.9600000455975533, 0.0, 0.0, 0.0, 0.0, 0.0, 1.6360739157995844E9, 0.0, 2021-11-04 19:58:35.799
63.0, 1170.5550270313397, 241.99770643282682, 44.45432082330808, 909.3174052764662, -0.06400000303983688, 0.2240000106394291, 0.9600000455975533, 0.0, 0.0, 0.0, 0.0, 0.0, 1.6360739157995844E9, 0.0, 2021-11-04 19:58:35.799
64.0, 1173.060760001652, 240.10531705524772, 58.90903415204957, 917.821937775705, -0.06400000303983688, 0.2240000106394291, 0.9600000455975533, 0.0, 0.0, 0.0, 0.0, 0.0, 1.6360739158289444E9, 0.0, 2021-11-04 19:58:35.828
64.0, 1162.6488785250112, 230.78174646571279, 53.893828311469406, 909.5417992738076, -0.06400000303983688, 0.2240000106394291, 0.9600000455975533, 0.0, 0.0, 0.0, 0.0, 0.0, 1.6360739158289444E9, 0.0, 2021-11-04 19:58:35.828
65.0, 1164.4066315041855, 232.60681764408946, 25.810919544193894, 909.6801755721681, -0.06400000303983688, 0.2240000106394291, 0.9600000455975533, 0.0, 0.0, 0.0, 0.0, 0.0, 1.6360739158926573E9, 0.0, 2021-11-04 19:58:35.892
65.0, 1175.7235687701032, 240.7037010481581, 38.623816792387515, 919.2169204591773, -0.06400000303983688, 0.2240000106394291, 0.9600000455975533, 0.0, 0.0, 0.0, 0.0, 0.0, 1.6360739158926573E9, 0.0, 2021-11-04 19:58:35.892
66.0, 1169.5527338432148, 225.99093462247401, 31.13653708109632, 915.506939703133, -0.06400000303983688, 0.2240000106394291, 0.9600000455975533, 0.0, 0.0, 0.0, 0.0, 0.0, 1.6360739158933747E9, 0.0, 2021-11-04 19:58:35.893
66.0, 1180.297466415912, 230.27685997169465, 44.693674420472234, 920.8923956393264, -0.06400000303983688, 0.2240000106394291, 0.9600000455975533, 0.0, 0.0, 0.0, 0.0, 0.0, 1.6360739158933747E9, 0.0, 2021-11-04 19:58:35.893
67.0, 1179.2016757288948, 229.24464758392423, 29.18430930422619, 921.2065472356044, -0.06400000303983688, 0.2240000106394291, 0.9600000455975533, 0.0, 0.0, 0.0, 0.0, 0.0, 1.6360739158940425E9, 0.0, 2021-11-04 19:58:35.894
67.0, 1183.6222374765202, 230.4077564701438, 28.503647512290627, 924.6958738942631, -0.06400000303983688, 0.2240000106394291, 0.9600000455975533, 0.0, 0.0, 0.0, 0.0, 0.0, 1.6360739158940425E9, 0.0, 2021-11-04 19:58:35.894
68.0, 1181.0753656066954, 225.9273563232273, 32.29590606736019, 916.4007757925428, -0.06400000303983688, 0.2240000106394291, 0.9600000455975533, 0.0, 0.0, 0.0, 0.0, 0.0, 1.6360739158948324E9, 0.0, 2021-11-04 19:58:35.894
68.0, 1188.6561428168789, 226.97452831082046, 23.757714468520135, 921.8311105282046, -0.06400000303983688, 0.2240000106394291, 0.9600000455975533, 0.0, 0.0, 0.0, 0.0, 0.0, 1.6360739158948324E9, 0.0, 2021-11-04 19:58:35.894
69.0, 1194.8568969434127, 218.74300850834697, 16.34523275634274, 914.1979747186415, -0.06400000303983688, 0.2240000106394291, 0.9600000455975533, 0.0, 0.0, 0.0, 0.0, 0.0, 1.636073915906287E9, 0.0, 2021-11-04 19:58:35.906
69.0, 1191.378789984621, 216.02036134060472, 11.397345114964992, 910.8432844583876, -0.06400000303983688, 0.2240000106394291, 0.9600000455975533, 0.0, 0.0, 0.0, 0.0, 0.0, 1.636073915906287E9, 0.0, 2021-11-04 19:58:35.906
70.0, 1203.0136187467724, 221.69004967343062, 22.26923428615555, 921.2738654348068, -0.06400000303983688, 0.2240000106394291, 0.9760000463575125, 0.0, 0.0, 0.0, 0.0, 0.0, 1.6360739159069936E9, 0.0, 2021-11-04 19:58:35.906
70.0, 1206.4842459056526, 223.67967644985765, 18.215182734187692, 924.2919646990485, -0.06400000303983688, 0.2240000106394291, 0.9760000463575125, 0.0, 0.0, 0.0, 0.0, 0.0, 1.6360739159069936E9, 0.0, 2021-11-04 19:58:35.906
71.0, 1206.1326953098178, 217.22086922638118, 21.371658296789974, 916.0567049966194, -0.06400000303983688, 0.2240000106394291, 0.9760000463575125, 0.0, 0.0, 0.0, 0.0, 0.0, 1.636073915907684E9, 0.0, 2021-11-04 19:58:35.907
71.0, 1207.4154809946194, 219.85749869514257, 17.05955364787951, 918.8765895632096, -0.06400000303983688, 0.2240000106394291, 0.9760000463575125, 0.0, 0.0, 0.0, 0.0, 0.0, 1.636073915907684E9, 0.0, 2021-11-04 19:58:35.907
75.0, 1208.481352481991, 231.3689107587561, 2.9227318153716624, 922.1826611240394, -0.06400000303983688, 0.2240000106394291, 0.9760000463575125, 0.0, 0.0, 0.0, 0.0, 0.0, 1.6360739159084747E9, 0.0, 2021-11-04 19:58:35.908
75.0, 1203.428747641854, 230.76304696593434, 25.15643705194816, 916.3783363928087, -0.06400000303983688, 0.2240000106394291, 0.9760000463575125, 0.0, 0.0, 0.0, 0.0, 0.0, 1.6360739159084747E9, 0.0, 2021-11-04 19:58:35.908
76.0, 1198.9371277950704, 231.19313546083868, 32.38940356625244, 922.3696561218239, -0.06400000303983688, 0.2240000106394291, 0.9760000463575125, 0.0, 0.0, 0.0, 0.0, 0.0, 1.6360739159185376E9, 0.0, 2021-11-04 19:58:35.918
76.0, 1198.9745267946273, 234.1850554253906, 12.799807598348707, 919.6395291541703, -0.06400000303983688, 0.2240000106394291, 0.9760000463575125, 0.0, 0.0, 0.0, 0.0, 0.0, 1.6360739159185376E9, 0.0, 2021-11-04 19:58:35.918
77.0, 1199.9095017835498, 228.1077179973945, 4.534628696274012, 921.4309412329458, -0.06400000303983688, 0.2240000106394291, 0.9760000463575125, 0.0, 0.0, 0.0, 0.0, 0.0, 1.6360739159343624E9, 0.0, 2021-11-04 19:58:35.934
77.0, 1197.7927184086293, 229.9627083754167, 16.72670255182311, 921.1915876357816, -0.06400000303983688, 0.2240000106394291, 0.9760000463575125, 0.0, 0.0, 0.0, 0.0, 0.0, 1.6360739159343624E9, 0.0, 2021-11-04 19:58:35.934
78.0, 1197.0783975170925, 235.2584067126736, 26.091412040870637, 924.6210758951493, -0.06400000303983688, 0.2240000106394291, 0.9760000463575125, 0.0, 0.0, 0.0, 0.0, 0.0, 1.6360739159349277E9, 0.0, 2021-11-04 19:58:35.934
78.0, 1194.0266391532496, 228.16381649672985, 16.70800305204466, 923.3008912107907, -0.06400000303983688, 0.2240000106394291, 0.9760000463575125, 0.0, 0.0, 0.0, 0.0, 0.0, 1.6360739159349277E9, 0.0, 2021-11-04 19:58:35.934
79.0, 1194.7521797446534, 225.85629822406918, 22.78160058008507, 917.9266549744643, -0.06400000303983688, 0.2240000106394291, 0.9760000463575125, 0.0, 0.0, 0.0, 0.0, 0.0, 1.6360739159486573E9, 0.0, 2021-11-04 19:58:35.948
79.0, 1197.6917411098257, 231.8550977529958, 32.950388559605926, 919.2019608593546, -0.06400000303983688, 0.2240000106394291, 0.9760000463575125, 0.0, 0.0, 0.0, 0.0, 0.0, 1.6360739159486573E9, 0.0, 2021-11-04 19:58:35.948
80.0, 1201.4765198649839, 236.93388189282268, 8.442824149969965, 918.955127462279, -0.06400000303983688, 0.2240000106394291, 0.9920000471174717, 0.0, 0.0, 0.0, 0.0, 0.0, 1.6360739159799793E9, 0.0, 2021-11-04 19:58:35.979
80.0, 1204.4086014302447, 239.24140016548336, 24.81984605593607, 928.7835845458321, -0.06400000303983688, 0.2240000106394291, 0.9920000471174717, 0.0, 0.0, 0.0, 0.0, 0.0, 1.6360739159799793E9, 0.0, 2021-11-04 19:58:35.979
81.0, 1195.2832455383614, 231.64192345552146, 23.376244673039764, 918.8691097632982, -0.06400000303983688, 0.2400000113993883, 0.9920000471174717, 0.0, 0.0, 0.0, 0.0, 0.0, 1.6360739159960384E9, 0.0, 2021-11-04 19:58:35.996
81.0, 1191.9883936773986, 230.7443474661559, 29.15813000453636, 922.4668935206719, -0.06400000303983688, 0.2400000113993883, 0.9920000471174717, 0.0, 0.0, 0.0, 0.0, 0.0, 1.6360739159960384E9, 0.0, 2021-11-04 19:58:35.996
82.0, 1187.2499404335395, 228.10023819748312, 25.94555594259873, 919.0336653613485, -0.06400000303983688, 0.2400000113993883, 0.9920000471174717, 0.0, 0.0, 0.0, 0.0, 0.0, 1.6360739159967585E9, 0.0, 2021-11-04 19:58:35.996
82.0, 1190.511133194901, 228.48918779287487, 35.57953822845593, 922.6052698190324, -0.06400000303983688, 0.2400000113993883, 0.9920000471174717, 0.0, 0.0, 0.0, 0.0, 0.0, 1.6360739159967585E9, 0.0, 2021-11-04 19:58:35.996
83.0, 1183.7867930745706, 224.08732554502785, 9.691950735170394, 917.7583594764583, -0.06400000303983688, 0.2400000113993883, 0.9920000471174717, 0.0, 0.0, 0.0, 0.0, 0.0, 1.6360739159976423E9, 0.0, 2021-11-04 19:58:35.997
83.0, 1177.30554645136, 224.86148483585566, 7.679884559009224, 919.3328573578037, -0.06400000303983688, 0.2400000113993883, 0.9920000471174717, 0.0, 0.0, 0.0, 0.0, 0.0, 1.6360739159976423E9, 0.0, 2021-11-04 19:58:35.997
84.0, 1185.9447153490037, 222.42680996470153, 19.819599815178663, 923.4617069088854, -0.06400000303983688, 0.2400000113993883, 0.9920000471174717, 0.0, 0.0, 0.0, 0.0, 0.0, 1.6360739160096364E9, 0.0, 2021-11-04 19:58:36.009
84.0, 1178.0722259422764, 232.11689074989408, 26.74963443307206, 922.8969820155762, -0.06400000303983688, 0.2400000113993883, 0.9920000471174717, 0.0, 0.0, 0.0, 0.0, 0.0, 1.6360739160096364E9, 0.0, 2021-11-04 19:58:36.009
85.0, 1179.1119181299582, 233.36227743513882, 22.239315086510032, 923.4018685095944, -0.06400000303983688, 0.2400000113993883, 0.9920000471174717, 0.0, 0.0, 0.0, 0.0, 0.0, 1.63607391602557E9, 0.0, 2021-11-04 19:58:36.025
85.0, 1173.8162197927013, 229.38676378224045, 20.971489001531154, 922.478113220539, -0.06400000303983688, 0.2400000113993883, 0.9920000471174717, 0.0, 0.0, 0.0, 0.0, 0.0, 1.63607391602557E9, 0.0, 2021-11-04 19:58:36.025
86.0, 1174.7923336811364, 233.65772953163832, 29.906109995674342, 918.2221070709638, -0.06400000303983688, 0.2400000113993883, 0.9920000471174717, 0.0, 0.0, 0.0, 0.0, 0.0, 1.6360739160263383E9, 0.0, 2021-11-04 19:58:36.026
86.0, 1169.683630341664, 226.3312655184418, 17.347525944467634, 920.8699562395923, -0.06400000303983688, 0.2400000113993883, 0.9920000471174717, 0.0, 0.0, 0.0, 0.0, 0.0, 1.6360739160263383E9, 0.0, 2021-11-04 19:58:36.026
87.0, 1175.072826177813, 229.02773338649422, 29.711635197978467, 928.7873244457878, -0.06400000303983688, 0.2400000113993883, 0.9920000471174717, 0.0, 0.0, 0.0, 0.0, 0.0, 1.6360739160271337E9, 0.0, 2021-11-04 19:58:36.027
87.0, 1169.7210293412209, 228.08527859766036, -0.10658714873716235, 925.5149119845591, -0.06400000303983688, 0.2400000113993883, 0.9920000471174717, 0.0, 0.0, 0.0, 0.0, 0.0, 1.6360739160271337E9, 0.0, 2021-11-04 19:58:36.027
88.0, 1168.3971047569066, 230.76678686589003, 11.84987300960347, 924.2433459996246, -0.06400000303983688, 0.2400000113993883, 0.9920000471174717, 0.0, 0.0, 0.0, 0.0, 0.0, 1.6360739160385308E9, 0.0, 2021-11-04 19:58:36.038
88.0, 1171.6208985187113, 227.0755056096241, 7.635005759540945, 930.8928881208412, -0.06400000303983688, 0.2400000113993883, 0.9920000471174717, 0.0, 0.0, 0.0, 0.0, 0.0, 1.6360739160385308E9, 0.0, 2021-11-04 19:58:36.038
89.0, 1159.8589131580666, 232.24404734838754, 17.257768345531076, 927.4334806618281, -0.06400000303983688, 0.2400000113993883, 0.9920000471174717, 0.0, 0.0, 0.0, 0.0, 0.0, 1.6360739160548987E9, 0.0, 2021-11-04 19:58:36.054
89.0, 1156.5266622975469, 235.4454017104581, 24.846025355625898, 928.5517107485794, -0.06400000303983688, 0.2400000113993883, 0.9920000471174717, 0.0, 0.0, 0.0, 0.0, 0.0, 1.6360739160548987E9, 0.0, 2021-11-04 19:58:36.054
90.0, 1145.6846923260018, 228.59764489158988, 7.421831462066621, 924.6584748947062, -0.06400000303983688, 0.2400000113993883, 0.9920000471174717, 0.0, 0.0, 0.0, 0.0, 0.0, 1.6360739160556602E9, 0.0, 2021-11-04 19:58:36.055
90.0, 1147.8874933999032, 225.35889152996242, 21.56239319453016, 927.4334806618281, -0.06400000303983688, 0.2400000113993883, 0.9920000471174717, 0.0, 0.0, 0.0, 0.0, 0.0, 1.6360739160556602E9, 0.0, 2021-11-04 19:58:36.055
91.0, 1148.4372586933896, 227.38591730594635, 8.708357046823949, 924.0638308017515, -0.06400000303983688, 0.2400000113993883, 0.9920000471174717, 0.0, 0.0, 0.0, 0.0, 0.0, 1.636073916068561E9, 0.0, 2021-11-04 19:58:36.068
91.0, 1153.3028685357422, 235.4117426108569, 22.3253327854909, 931.6146888122894, -0.06400000303983688, 0.2400000113993883, 0.9920000471174717, 0.0, 0.0, 0.0, 0.0, 0.0, 1.636073916068561E9, 0.0, 2021-11-04 19:58:36.068
92.0, 1161.770002035424, 239.75750635936856, 24.6964293573983, 931.4538731141947, -0.06400000303983688, 0.2400000113993883, 0.9920000471174717, 0.0, 0.0, 0.0, 0.0, 0.0, 1.6360739161006348E9, 0.0, 2021-11-04 19:58:36.100
92.0, 1162.4319643275812, 237.895036181435, 41.54841855773702, 930.7919108220376, -0.06400000303983688, 0.2400000113993883, 0.9920000471174717, 0.0, 0.0, 0.0, 0.0, 0.0, 1.6360739161006348E9, 0.0, 2021-11-04 19:58:36.100
93.0, 1163.2510024178773, 228.65748329088092, 24.41219696076587, 926.6593213710003, -0.06400000303983688, 0.2400000113993883, 0.9920000471174717, 0.0, 0.0, 0.0, 0.0, 0.0, 1.6360739161013446E9, 0.0, 2021-11-04 19:58:36.101
93.0, 1165.0835533961654, 232.27396654803306, 29.307726002763957, 934.6776668759994, -0.06400000303983688, 0.2400000113993883, 0.9920000471174717, 0.0, 0.0, 0.0, 0.0, 0.0, 1.6360739161013446E9, 0.0, 2021-11-04 19:58:36.101
94.0, 1167.2003367710859, 234.65628281980753, 6.9431242677383125, 935.6089019649662, -0.06400000303983688, 0.2400000113993883, 0.9920000471174717, 0.0, 0.0, 0.0, 0.0, 0.0, 1.6360739161020617E9, 0.0, 2021-11-04 19:58:36.102
94.0, 1177.0474933544174, 228.64626359101385, 45.849303506780416, 940.3922340082936, -0.06400000303983688, 0.2400000113993883, 0.9920000471174717, 0.0, 0.0, 0.0, 0.0, 0.0, 1.6360739161020617E9, 0.0, 2021-11-04 19:58:36.102
95.0, 1177.5785591481254, 237.58836438506842, 58.703339654486626, 939.9210066138767, -0.06400000303983688, 0.2400000113993883, 0.9920000471174717, 0.0, 0.0, 0.0, 0.0, 0.0, 1.6360739161028788E9, 0.0, 2021-11-04 19:58:36.102
95.0, 1174.67639678251, 235.50524010974914, 24.632851058151573, 938.3801678321324, -0.06400000303983688, 0.2400000113993883, 0.9920000471174717, 0.0, 0.0, 0.0, 0.0, 0.0, 1.6360739161028788E9, 0.0, 2021-11-04 19:58:36.102
96.0, 1171.4713025204837, 234.43188882246614, 23.215428974945098, 934.2700177808292, -0.06400000303983688, 0.2400000113993883, 0.9920000471174717, 0.0, 0.0, 0.0, 0.0, 0.0, 1.6360739161137516E9, 0.0, 2021-11-04 19:58:36.113
96.0, 1171.310486822389, 233.1827622372657, 53.04113112157211, 938.9411528254859, -0.06400000303983688, 0.2400000113993883, 0.9920000471174717, 0.0, 0.0, 0.0, 0.0, 0.0, 1.6360739161137516E9, 0.0, 2021-11-04 19:58:36.113
97.0, 1168.6551578538492, 231.17817586101592, 26.626217734534293, 932.4973052018322, -0.06400000303983688, 0.2400000113993883, 0.9920000471174717, 0.0, 0.0, 0.0, 0.0, 0.0, 1.6360739161439552E9, 0.0, 2021-11-04 19:58:36.143
97.0, 1179.138097429648, 235.95402810443193, 38.75471329083666, 938.8850543261506, -0.06400000303983688, 0.2400000113993883, 0.9920000471174717, 0.0, 0.0, 0.0, 0.0, 0.0, 1.6360739161439552E9, 0.0, 2021-11-04 19:58:36.143
98.0, 1174.1191516891122, 228.94171568751335, 37.61404380435124, 938.2156122340821, -0.06400000303983688, 0.2400000113993883, 0.9920000471174717, 0.0, 0.0, 0.0, 0.0, 0.0, 1.6360739161605673E9, 0.0, 2021-11-04 19:58:36.160
98.0, 1173.5132878962904, 232.13185034971684, 23.97088876599446, 934.7861239747144, -0.06400000303983688, 0.2400000113993883, 0.9920000471174717, 0.0, 0.0, 0.0, 0.0, 0.0, 1.6360739161605673E9, 0.0, 2021-11-04 19:58:36.160
99.0, 1174.0219142902642, 239.60791036114097, 35.818891825620085, 934.9880785723217, -0.06400000303983688, 0.2400000113993883, 0.9920000471174717, 0.0, 0.0, 0.0, 0.0, 0.0, 1.6360739161612887E9, 0.0, 2021-11-04 19:58:36.161
99.0, 1178.5023144371808, 238.31390497647226, 30.156683292705566, 935.261091269087, -0.06400000303983688, 0.2400000113993883, 0.9920000471174717, 0.0, 0.0, 0.0, 0.0, 0.0, 1.6360739161612887E9, 0.0, 2021-11-04 19:58:36.161
100.0, 1181.0043075075373, 230.8902035644278, 41.72793375561014, 934.068063183222, -0.06400000303983688, 0.2400000113993883, 0.9920000471174717, 0.0, 0.0, 0.0, 0.0, 0.0, 1.6360739161620176E9, 0.0, 2021-11-04 19:58:36.162
100.0, 1187.1788823343813, 229.45034208148718, 44.256106125656515, 934.9282401730306, -0.06400000303983688, 0.2400000113993883, 0.9920000471174717, 0.0, 0.0, 0.0, 0.0, 0.0, 1.6360739161620176E9, 0.0, 2021-11-04 19:58:36.162
0.0, 1180.862191309221, 229.3643243825063, 41.18751821201295, 929.2903409898281, -0.06400000303983688, 0.2400000113993883, 0.9920000471174717, 0.0, 0.0, 0.0, 0.0, 0.0, 1.6360739161627953E9, 0.0, 2021-11-04 19:58:36.162
1.0, 1183.8204521741718, 226.46590191684663, 34.73245088849217, 926.3582594245672, -0.06400000303983688, 0.2400000113993883, 0.9920000471174717, 0.0, 0.0, 0.0, 0.0, 0.0, 1.6360739161735575E9, 0.0, 2021-11-04 19:58:36.173
1.0, 1188.0353194242343, 228.3657710943371, 28.049249667674303, 930.6965433731675, -0.06400000303983688, 0.2400000113993883, 0.9920000471174717, 0.0, 0.0, 0.0, 0.0, 0.0, 1.6360739161735575E9, 0.0, 2021-11-04 19:58:36.173
2.0, 1196.1733417278156, 235.60621740855277, 46.2438629521057, 933.8417992359027, -0.0800000037997961, 0.2400000113993883, 0.9920000471174717, 0.0, 0.0, 0.0, 0.0, 0.0, 1.6360739162053704E9, 0.0, 2021-11-04 19:58:36.205
2.0, 1192.3474240731448, 218.79910700768232, 33.13551360741258, 927.4166511120275, -0.0800000037997961, 0.2400000113993883, 0.9920000471174717, 0.0, 0.0, 0.0, 0.0, 0.0, 1.6360739162053704E9, 0.0, 2021-11-04 19:58:36.205
3.0, 1195.0139727415517, 229.68969567865133, 28.067949167452753, 929.4474167879671, -0.0800000037997961, 0.2400000113993883, 0.9920000471174717, 0.0, 0.0, 0.0, 0.0, 0.0, 1.6360739162060163E9, 0.0, 2021-11-04 19:58:36.206
3.0, 1206.529124705121, 242.58487072587013, 32.825101911090314, 935.3078400185332, -0.0800000037997961, 0.2400000113993883, 0.9920000471174717, 0.0, 0.0, 0.0, 0.0, 0.0, 1.6360739162060163E9, 0.0, 2021-11-04 19:58:36.206
4.0, 1202.7630454497412, 230.8902035644278, 54.572620153427124, 932.1401447560638, -0.0800000037997961, 0.2400000113993883, 0.9920000471174717, 0.0, 0.0, 0.0, 0.0, 0.0, 1.6360739162198677E9, 0.0, 2021-11-04 19:58:36.219
4.0, 1190.4438149956986, 224.06114624533802, 37.81038855202496, 926.2086634263396, -0.0800000037997961, 0.2400000113993883, 0.9920000471174717, 0.0, 0.0, 0.0, 0.0, 0.0, 1.6360739162198677E9, 0.0, 2021-11-04 19:58:36.219
5.0, 1198.484599900432, 233.28373953606933, 42.78445549309254, 928.5348811987787, -0.0800000037997961, 0.2400000113993883, 0.9920000471174717, 0.0, 0.0, 0.0, 0.0, 0.0, 1.6360739162355304E9, 0.0, 2021-11-04 19:58:36.235
5.0, 1204.3375433310866, 231.0397995626554, 33.651619801297784, 929.5296945869923, -0.0800000037997961, 0.2400000113993883, 0.9920000471174717, 0.0, 0.0, 0.0, 0.0, 0.0, 1.6360739162355304E9, 0.0, 2021-11-04 19:58:36.235
6.0, 1206.8283167015761, 226.06199272163212, 22.708672530949116, 928.9200908942148, -0.0800000037997961, 0.2400000113993883, 0.9920000471174717, 0.0, 0.0, 0.0, 0.0, 0.0, 1.636073916236346E9, 0.0, 2021-11-04 19:58:36.236
6.0, 1206.286031208001, 227.34103850647807, 38.49479024391621, 928.796674195677, -0.0800000037997961, 0.2400000113993883, 0.9920000471174717, 0.0, 0.0, 0.0, 0.0, 0.0, 1.636073916236346E9, 0.0, 2021-11-04 19:58:36.236
7.0, 1206.9966121995822, 234.66002271976322, 17.211019596084952, 925.1988904383034, -0.0800000037997961, 0.2400000113993883, 0.9920000471174717, 0.0, 0.0, 0.0, 0.0, 0.0, 1.636073916237011E9, 0.0, 2021-11-04 19:58:36.237
7.0, 1205.960659911856, 230.83036516513675, 50.36523270327598, 927.7943810075521, -0.0800000037997961, 0.2400000113993883, 0.9920000471174717, 0.0, 0.0, 0.0, 0.0, 0.0, 1.636073916237011E9, 0.0, 2021-11-04 19:58:36.237
8.0, 1203.3015910433605, 230.40027667023242, 55.784347739070654, 927.1959970146418, -0.0800000037997961, 0.2400000113993883, 0.9920000471174717, 0.0, 0.0, 0.0, 0.0, 0.0, 1.6360739162378147E9, 0.0, 2021-11-04 19:58:36.237
8.0, 1208.6197287803516, 226.5556595157832, 28.91316655743867, 930.232795778662, -0.0800000037997961, 0.2400000113993883, 0.9920000471174717, 0.0, 0.0, 0.0, 0.0, 0.0, 1.6360739162378147E9, 0.0, 2021-11-04 19:58:36.237
9.0, 1208.9338803766295, 226.4023236175999, 30.293189641088247, 927.0688404161483, -0.0800000037997961, 0.2400000113993883, 0.9920000471174717, 0.0, 0.0, 0.0, 0.0, 0.0, 1.6360739162485597E9, 0.0, 2021-11-04 19:58:36.248
9.0, 1219.3420219533145, 233.69512853119522, 31.179545930586755, 930.4085710765794, -0.0800000037997961, 0.2400000113993883, 0.9920000471174717, 0.0, 0.0, 0.0, 0.0, 0.0, 1.6360739162485597E9, 0.0, 2021-11-04 19:58:36.248
10.0, 1220.9950577337295, 240.4119888516143, 46.31118115130812, 935.6893098140135, -0.0800000037997961, 0.2400000113993883, 0.9920000471174717, 0.0, 0.0, 0.0, 0.0, 0.0, 1.6360739162634888E9, 0.0, 2021-11-04 19:58:36.263
10.0, 1222.6518334141, 232.6666560433805, 54.35196605604142, 933.5949658388272, -0.0800000037997961, 0.2400000113993883, 0.9920000471174717, 0.0, 0.0, 0.0, 0.0, 0.0, 1.6360739162634888E9, 0.0, 2021-11-04 19:58:36.263
11.0, 1210.205446361564, 236.24948020093143, 43.43519808538258, 925.9917492289096, -0.0800000037997961, 0.2400000113993883, 0.9920000471174717, 0.0, 0.0, 0.0, 0.0, 0.0, 1.6360739162791967E9, 0.0, 2021-11-04 19:58:36.279
11.0, 1210.6804136559367, 237.58088458515704, 43.685771382413805, 922.7342963675037, -0.0800000037997961, 0.2400000113993883, 0.9920000471174717, 0.0, 0.0, 0.0, 0.0, 0.0, 1.6360739162791967E9, 0.0, 2021-11-04 19:58:36.279
12.0, 1217.2588976779953, 234.42814892251045, 23.082662526518106, 923.1382055627182, -0.06400000303983688, 0.2400000113993883, 0.9920000471174717, 0.0, 0.0, 0.0, 0.0, 0.0, 1.636073916279939E9, 0.0, 2021-11-04 19:58:36.279
12.0, 1212.7897172309458, 236.08118470292538, 31.882647122256458, 922.3752659717575, -0.06400000303983688, 0.2400000113993883, 0.9920000471174717, 0.0, 0.0, 0.0, 0.0, 0.0, 1.636073916279939E9, 0.0, 2021-11-04 19:58:36.279
13.0, 1217.2813370777294, 235.27710621245205, 55.66841084044427, 928.0599139044061, -0.06400000303983688, 0.2400000113993883, 0.9920000471174717, 0.0, 0.0, 0.0, 0.0, 0.0, 1.63607391630959E9, 0.0, 2021-11-04 19:58:36.309
13.0, 1211.9744190406054, 232.41608274634928, 29.81074254680425, 921.6534652803093, -0.06400000303983688, 0.2400000113993883, 0.9920000471174717, 0.0, 0.0, 0.0, 0.0, 0.0, 1.63607391630959E9, 0.0, 2021-11-04 19:58:36.309
14.0, 1206.768478302285, 228.97537478711456, 33.69275870081037, 918.2651159204543, -0.06400000303983688, 0.2400000113993883, 0.9920000471174717, 0.0, 0.0, 0.0, 0.0, 0.0, 1.6360739163103063E9, 0.0, 2021-11-04 19:58:36.310
14.0, 1212.232472137548, 236.39907619915903, 32.56704881414771, 918.8634999133646, -0.06400000303983688, 0.2400000113993883, 0.9920000471174717, 0.0, 0.0, 0.0, 0.0, 0.0, 1.6360739163103063E9, 0.0, 2021-11-04 19:58:36.310
15.0, 1214.8803213061765, 235.5239396095276, 23.606248520314693, 923.9909027526155, -0.06400000303983688, 0.2400000113993883, 0.9920000471174717, 0.0, 0.0, 0.0, 0.0, 0.0, 1.6360739163243258E9, 0.0, 2021-11-04 19:58:36.324
15.0, 1208.5374509813264, 232.0009538512677, 40.099207324907184, 917.8051082259044, -0.06400000303983688, 0.2400000113993883, 0.9920000471174717, 0.0, 0.0, 0.0, 0.0, 0.0, 1.6360739163243258E9, 0.0, 2021-11-04 19:58:36.324
16.0, 1215.284230501391, 240.5989838493988, 50.70930349919945, 926.3507796246558, -0.06400000303983688, 0.2400000113993883, 0.9920000471174717, 0.0, 0.0, 0.0, 0.0, 0.0, 1.6360739163250413E9, 0.0, 2021-11-04 19:58:36.325
16.0, 1217.7862235717475, 243.39268911629915, 49.50879561342299, 927.7195830084383, -0.06400000303983688, 0.2400000113993883, 0.9920000471174717, 0.0, 0.0, 0.0, 0.0, 0.0, 1.6360739163250413E9, 0.0, 2021-11-04 19:58:36.325
17.0, 1211.4171739472076, 233.67268913146108, 53.26739506889135, 923.5047157583758, -0.06400000303983688, 0.2400000113993883, 0.9920000471174717, 0.0, 0.0, 0.0, 0.0, 0.0, 1.6360739163391883E9, 0.0, 2021-11-04 19:58:36.339
17.0, 1212.2960504367948, 240.3371908525005, 54.512781754136086, 923.8600062541664, -0.06400000303983688, 0.2400000113993883, 0.9920000471174717, 0.0, 0.0, 0.0, 0.0, 0.0, 1.6360739163391883E9, 0.0, 2021-11-04 19:58:36.339
18.0, 1201.4092016657814, 237.74918008316308, 37.0923277605325, 920.9915029881522, -0.06400000303983688, 0.2400000113993883, 0.9920000471174717, 0.0, 0.0, 0.0, 0.0, 0.0, 1.6360739163399088E9, 0.0, 2021-11-04 19:58:36.339
18.0, 1202.1833609566092, 229.37554408237338, 24.93017310462892, 919.9144118009135, -0.06400000303983688, 0.2400000113993883, 0.9920000471174717, 0.0, 0.0, 0.0, 0.0, 0.0, 1.6360739163399088E9, 0.0, 2021-11-04 19:58:36.339
19.0, 1204.0533109344542, 235.0714117148891, 29.100161555223167, 918.4334114184603, -0.06400000303983688, 0.2400000113993883, 0.9920000471174717, 0.0, 0.0, 0.0, 0.0, 0.0, 1.636073916370344E9, 0.0, 2021-11-04 19:58:36.370
19.0, 1193.0467853648588, 235.6660558078438, 42.496483196504414, 919.9817300001159, -0.06400000303983688, 0.2400000113993883, 0.9920000471174717, 0.0, 0.0, 0.0, 0.0, 0.0, 1.636073916370344E9, 0.0, 2021-11-04 19:58:36.370
20.0, 1190.0922643998638, 231.23427436035126, 41.39321270957589, 917.9734037239105, -0.06400000303983688, 0.2400000113993883, 0.9920000471174717, 0.0, 0.0, 0.0, 0.0, 0.0, 1.6360739163710449E9, 0.0, 2021-11-04 19:58:36.371
20.0, 1190.6382897933945, 239.53685226198286, 43.14722578879446, 921.8404602780938, -0.06400000303983688, 0.2400000113993883, 0.9920000471174717, 0.0, 0.0, 0.0, 0.0, 0.0, 1.6360739163710449E9, 0.0, 2021-11-04 19:58:36.371
21.0, 1191.3862697845325, 234.84701771754771, 41.3894728096202, 922.8128342665732, -0.06400000303983688, 0.2400000113993883, 0.9920000471174717, 0.0, 0.0, 0.0, 0.0, 0.0, 1.6360739163843365E9, 0.0, 2021-11-04 19:58:36.384
21.0, 1199.2400596914813, 238.06333167944103, 62.172096863389015, 930.7676014723256, -0.06400000303983688, 0.2400000113993883, 0.9920000471174717, 0.0, 0.0, 0.0, 0.0, 0.0, 1.6360739163843365E9, 0.0, 2021-11-04 19:58:36.384
22.0, 1196.8502636197954, 236.34671759977937, 67.4042169013992, 927.3605526126921, -0.0800000037997961, 0.2400000113993883, 0.9920000471174717, 0.0, 0.0, 0.0, 0.0, 0.0, 1.6360739163852084E9, 0.0, 2021-11-04 19:58:36.385
22.0, 1190.5298326946795, 229.4802612811327, 42.088834101334214, 918.4221917185932, -0.0800000037997961, 0.2400000113993883, 0.9920000471174717, 0.0, 0.0, 0.0, 0.0, 0.0, 1.6360739163852084E9, 0.0, 2021-11-04 19:58:36.385
23.0, 1196.408955425024, 233.67268913146108, 34.9044862864539, 922.3977053714916, -0.0800000037997961, 0.2400000113993883, 0.9920000471174717, 0.0, 0.0, 0.0, 0.0, 0.0, 1.636073916431232E9, 0.0, 2021-11-04 19:58:36.431
23.0, 1198.458420600742, 236.73192729521543, 48.64113882370293, 923.5982132572681, -0.0800000037997961, 0.2400000113993883, 0.9920000471174717, 0.0, 0.0, 0.0, 0.0, 0.0, 1.636073916431232E9, 0.0, 2021-11-04 19:58:36.431
24.0, 1195.5936572346836, 233.1079642381519, 52.8036474743858, 924.4359508473426, -0.0800000037997961, 0.2400000113993883, 0.9920000471174717, 0.0, 0.0, 0.0, 0.0, 0.0, 1.6360739164319408E9, 0.0, 2021-11-04 19:58:36.431
24.0, 1193.6040304582566, 235.65109620802104, 53.23747586924583, 927.4091713121161, -0.0800000037997961, 0.2400000113993883, 0.9920000471174717, 0.0, 0.0, 0.0, 0.0, 0.0, 1.6360739164319408E9, 0.0, 2021-11-04 19:58:36.431
25.0, 1187.8034456269816, 239.54059216193855, 60.560199982486665, 925.2811682373285, -0.0800000037997961, 0.2400000113993883, 0.9920000471174717, 0.0, 0.0, 0.0, 0.0, 0.0, 1.6360739164326727E9, 0.0, 2021-11-04 19:58:36.432
25.0, 1185.3949500555173, 234.1887953253463, 49.19464401714504, 918.5493483170867, -0.0800000037997961, 0.2400000113993883, 0.9920000471174717, 0.0, 0.0, 0.0, 0.0, 0.0, 1.6360739164326727E9, 0.0, 2021-11-04 19:58:36.432
26.0, 1183.86533097364, 237.90251598134637, 23.157460525631905, 919.8695330014452, -0.0800000037997961, 0.2400000113993883, 0.9920000471174717, 0.0, 0.0, 0.0, 0.0, 0.0, 1.6360739164334495E9, 0.0, 2021-11-04 19:58:36.433
26.0, 1192.0631916765124, 234.90311621688306, 37.657052653841674, 928.796674195677, -0.0800000037997961, 0.2400000113993883, 0.9920000471174717, 0.0, 0.0, 0.0, 0.0, 0.0, 1.6360739164334495E9, 0.0, 2021-11-04 19:58:36.433
27.0, 1185.7053617518395, 232.01591345109046, 60.00295488908887, 926.7659085197374, -0.0800000037997961, 0.2400000113993883, 0.9920000471174717, 0.0, 0.0, 0.0, 0.0, 0.0, 1.6360739164443803E9, 0.0, 2021-11-04 19:58:36.444
27.0, 1186.651556440629, 229.8841704763472, 42.67225849442184, 928.3965049004182, -0.0800000037997961, 0.2400000113993883, 0.9920000471174717, 0.0, 0.0, 0.0, 0.0, 0.0, 1.6360739164443803E9, 0.0, 2021-11-04 19:58:36.444
28.0, 1179.4073702264577, 226.06199272163212, 36.875413563102484, 921.597366780974, -0.0800000037997961, 0.2400000113993883, 0.9920000471174717, 0.0, 0.0, 0.0, 0.0, 0.0, 1.6360739164448843E9, 0.0, 2021-11-04 19:58:36.444
28.0, 1170.0725799370557, 234.65628281980753, 47.01802224293351, 916.6494791395962, -0.0800000037997961, 0.2400000113993883, 0.9920000471174717, 0.0, 0.0, 0.0, 0.0, 0.0, 1.6360739164448843E9, 0.0, 2021-11-04 19:58:36.444
29.0, 1169.706069741398, 239.17034206632525, 36.056375472806394, 916.7093175388873, -0.0800000037997961, 0.2400000113993883, 0.9920000471174717, 0.0, 0.0, 0.0, 0.0, 0.0, 1.636073916459395E9, 0.0, 2021-11-04 19:58:36.459
29.0, 1175.820806168951, 238.2578064771369, 50.499869101680815, 924.720183243975, -0.0800000037997961, 0.2400000113993883, 0.9920000471174717, 0.0, 0.0, 0.0, 0.0, 0.0, 1.636073916459395E9, 0.0, 2021-11-04 19:58:36.459
30.0, 1179.6055849241093, 233.93822202831507, 44.34025387465954, 926.6163125215098, -0.0800000037997961, 0.2400000113993883, 0.9920000471174717, 0.0, 0.0, 0.0, 0.0, 0.0, 1.6360739164752762E9, 0.0, 2021-11-04 19:58:36.475
30.0, 1189.8940497022122, 234.84327781759202, 70.92720265965909, 932.9105641469359, -0.0800000037997961, 0.2400000113993883, 0.9920000471174717, 0.0, 0.0, 0.0, 0.0, 0.0, 1.6360739164752762E9, 0.0, 2021-11-04 19:58:36.475
31.0, 1188.3345114206895, 230.49377416912466, 49.92392450850457, 932.8507257476449, -0.0800000037997961, 0.2400000113993883, 0.9920000471174717, 0.0, 0.0, 0.0, 0.0, 0.0, 1.6360739164898603E9, 0.0, 2021-11-04 19:58:36.489
31.0, 1187.9941805247217, 234.7759596183896, 42.99388989061117, 931.1266318680719, -0.0800000037997961, 0.2400000113993883, 0.9920000471174717, 0.0, 0.0, 0.0, 0.0, 0.0, 1.6360739164898603E9, 0.0, 2021-11-04 19:58:36.489
32.0, 1198.6865544980392, 250.16938783600926, 39.31756823416799, 927.5101486109197, -0.0800000037997961, 0.2400000113993883, 0.9920000471174717, 0.0, 0.0, 0.0, 0.0, 0.0, 1.6360739164906497E9, 0.0, 2021-11-04 19:58:36.490
32.0, 1190.4737341953442, 245.8909422867, 41.75598300527781, 913.2760893795639, -0.0800000037997961, 0.2400000113993883, 0.9920000471174717, 0.0, 0.0, 0.0, 0.0, 0.0, 1.6360739164906497E9, 0.0, 2021-11-04 19:58:36.490
33.0, 1192.792472167872, 242.01266603264958, 46.19524425268173, 915.6845849510282, -0.0800000037997961, 0.2400000113993883, 0.9920000471174717, 0.0, 0.0, 0.0, 0.0, 0.0, 1.6360739164913757E9, 0.0, 2021-11-04 19:58:36.491
33.0, 1199.8646229840815, 237.58836438506842, 57.44112341944128, 916.29044874385, -0.0800000037997961, 0.2400000113993883, 0.9920000471174717, 0.0, 0.0, 0.0, 0.0, 0.0, 1.6360739164913757E9, 0.0, 2021-11-04 19:58:36.491
34.0, 1202.2731185555458, 238.82627127040178, 57.22420922201127, 917.5732344286516, -0.0800000037997961, 0.2400000113993883, 0.9920000471174717, 0.0, 0.0, 0.0, 0.0, 0.0, 1.6360739165360656E9, 0.0, 2021-11-04 19:58:36.536
34.0, 1197.0933571169153, 230.1422235732898, 44.37391297426075, 910.3178285146132, -0.0800000037997961, 0.2400000113993883, 0.9920000471174717, 0.0, 0.0, 0.0, 0.0, 0.0, 1.6360739165360656E9, 0.0, 2021-11-04 19:58:36.536
35.0, 1201.1100096693262, 243.66570181306452, 28.019330468028784, 919.4244849067181, -0.0800000037997961, 0.2400000113993883, 0.9920000471174717, 0.0, 0.0, 0.0, 0.0, 0.0, 1.6360739165368032E9, 0.0, 2021-11-04 19:58:36.536
35.0, 1201.1511485688388, 239.83978415839374, 36.68841856531799, 919.1739116096869, -0.0800000037997961, 0.2400000113993883, 0.9920000471174717, 0.0, 0.0, 0.0, 0.0, 0.0, 1.6360739165368032E9, 0.0, 2021-11-04 19:58:36.536
36.0, 1197.4187284130603, 241.50403963867575, 42.818114592693746, 914.1175668695942, -0.0800000037997961, 0.2400000113993883, 0.9920000471174717, 0.0, 0.0, 0.0, 0.0, 0.0, 1.636073916537574E9, 0.0, 2021-11-04 19:58:36.537
36.0, 1192.6615756694227, 247.33454366959631, 65.85589831974357, 914.5326957646757, -0.0800000037997961, 0.2400000113993883, 0.9920000471174717, 0.0, 0.0, 0.0, 0.0, 0.0, 1.636073916537574E9, 0.0, 2021-11-04 19:58:36.537
37.0, 1191.7677395800129, 244.86994959879667, 54.61001915298402, 910.2131113158539, -0.0800000037997961, 0.2400000113993883, 0.9920000471174717, 0.0, 0.0, 0.0, 0.0, 0.0, 1.6360739165499063E9, 0.0, 2021-11-04 19:58:36.549
37.0, 1184.482414466329, 240.632642949, 63.65309724584222, 907.3595676496625, -0.0800000037997961, 0.2400000113993883, 0.9920000471174717, 0.0, 0.0, 0.0, 0.0, 0.0, 1.6360739165499063E9, 0.0, 2021-11-04 19:58:36.549
38.0, 1180.6901559112594, 237.40136938728392, 43.03502879012376, 909.6109874229878, -0.0800000037997961, 0.2400000113993883, 0.9920000471174717, 0.0, 0.0, 0.0, 0.0, 0.0, 1.6360739165506668E9, 0.0, 2021-11-04 19:58:36.550
38.0, 1178.1545037413016, 246.68380107730627, 59.744901792146266, 912.6403063870966, -0.0800000037997961, 0.2400000113993883, 0.9920000471174717, 0.0, 0.0, 0.0, 0.0, 0.0, 1.6360739165506668E9, 0.0, 2021-11-04 19:58:36.550
39.0, 1167.7501020645723, 241.47038053907454, 48.914151520468295, 908.3581209378317, -0.0800000037997961, 0.2400000113993883, 0.9920000471174717, 0.0, 0.0, 0.0, 0.0, 0.0, 1.6360739165514567E9, 0.0, 2021-11-04 19:58:36.551
39.0, 1171.261868122965, 243.94245440978557, 62.34787216130644, 911.0620686057955, -0.0800000037997961, 0.2400000113993883, 0.9920000471174717, 0.0, 0.0, 0.0, 0.0, 0.0, 1.6360739165514567E9, 0.0, 2021-11-04 19:58:36.551
40.0, 1171.3553656218573, 250.68175412993878, 83.62416300922632, 916.2754891440272, -0.0800000037997961, 0.2400000113993883, 0.9920000471174717, 0.0, 0.0, 0.0, 0.0, 0.0, 1.63607391657993E9, 0.0, 2021-11-04 19:58:36.579
40.0, 1161.4296711394563, 243.62456291355193, 67.09006530512124, 911.6380131989717, -0.0800000037997961, 0.2400000113993883, 0.9920000471174717, 0.0, 0.0, 0.0, 0.0, 0.0, 1.63607391657993E9, 0.0, 2021-11-04 19:58:36.579
41.0, 1174.665177082643, 245.84232358727604, 70.590611663647, 915.2245772564784, -0.0800000037997961, 0.2400000113993883, 0.9920000471174717, 0.0, 0.0, 0.0, 0.0, 0.0, 1.636073916580641E9, 0.0, 2021-11-04 19:58:36.580
41.0, 1174.6950962822884, 242.562431326136, 71.58168515190482, 916.9860701356083, -0.0800000037997961, 0.2400000113993883, 0.9920000471174717, 0.0, 0.0, 0.0, 0.0, 0.0, 1.636073916580641E9, 0.0, 2021-11-04 19:58:36.580
42.0, 1170.7906407285482, 250.76403192896396, 80.20589444972575, 916.2380901444703, -0.0800000037997961, 0.2400000113993883, 0.9920000471174717, 0.0, 0.0, 0.0, 0.0, 0.0, 1.6360739165814323E9, 0.0, 2021-11-04 19:58:36.581
42.0, 1167.6528646657243, 246.73241977673024, 83.06691791582853, 912.1840385925025, -0.0800000037997961, 0.2400000113993883, 0.9920000471174717, 0.0, 0.0, 0.0, 0.0, 0.0, 1.6360739165814323E9, 0.0, 2021-11-04 19:58:36.581
43.0, 1164.8441997990012, 250.84256982803345, 81.04737193975598, 915.1871782569215, -0.0800000037997961, 0.2400000113993883, 0.9920000471174717, 0.0, 0.0, 0.0, 0.0, 0.0, 1.6360739165935876E9, 0.0, 2021-11-04 19:58:36.593
43.0, 1159.806554558687, 254.98637897893786, 72.27356664370745, 914.5626149643213, -0.0800000037997961, 0.2400000113993883, 0.9920000471174717, 0.0, 0.0, 0.0, 0.0, 0.0, 1.6360739165935876E9, 0.0, 2021-11-04 19:58:36.593
44.0, 1164.556227502413, 263.33383568003774, 93.26188519503921, 924.2078169500455, -0.0800000037997961, 0.2400000113993883, 0.9920000471174717, 0.0, 0.0, 0.0, 0.0, 0.0, 1.6360739166091945E9, 0.0, 2021-11-04 19:58:36.609
44.0, 1162.9592902213335, 276.3599072257057, 100.09094251412898, 916.3914260426536, -0.0800000037997961, 0.2400000113993883, 0.9920000471174717, 0.0, 0.0, 0.0, 0.0, 0.0, 1.6360739166091945E9, 0.0, 2021-11-04 19:58:36.609
45.0, 1171.0898327250034, 289.924524364993, 119.83013448026031, 924.3424533484504, -0.0800000037997961, 0.2400000113993883, 0.9920000471174717, 0.0, 0.0, 0.0, 0.0, 0.0, 1.6360739166099908E9, 0.0, 2021-11-04 19:58:36.609
45.0, 1168.2175895590335, 296.55910688638687, 149.4052633298561, 916.3241078434512, -0.0800000037997961, 0.2400000113993883, 0.9920000471174717, 0.0, 0.0, 0.0, 0.0, 0.0, 1.6360739166099908E9, 0.0, 2021-11-04 19:58:36.609
46.0, 1165.3640458928421, 316.24968015309423, 175.53594432026148, 921.7020839797333, -0.0800000037997961, 0.2400000113993883, 0.9920000471174717, 0.0, 0.0, 0.0, 0.0, 0.0, 1.6360739166235795E9, 0.0, 2021-11-04 19:58:36.623
46.0, 1172.2118027117103, 339.43705987837166, 217.39290462434292, 923.792688054964, -0.0800000037997961, 0.2400000113993883, 0.9920000471174717, 0.0, 0.0, 0.0, 0.0, 0.0, 1.6360739166235795E9, 0.0, 2021-11-04 19:58:36.623
47.0, 1170.2595749348402, 347.0477562882006, 252.0804767133668, 925.082953539677, -0.0800000037997961, 0.2400000113993883, 0.9920000471174717, 0.0, 0.0, 0.0, 0.0, 0.0, 1.636073916639305E9, 0.0, 2021-11-04 19:58:36.639
47.0, 1152.4389516459778, 354.04510910529643, 262.413820290938, 914.5887942640111, -0.0800000037997961, 0.2400000113993883, 0.9920000471174717, 0.0, 0.0, 0.0, 0.0, 0.0, 1.636073916639305E9, 0.0, 2021-11-04 19:58:36.639
48.0, 1149.6115872794762, 376.555566938594, 289.3560595717281, 919.4843233060092, -0.0800000037997961, 0.2400000113993883, 0.9920000471174717, 0.0, 0.0, 0.0, 0.0, 0.0, 1.6360739166399827E9, 0.0, 2021-11-04 19:58:36.639
48.0, 1157.551394885406, 386.20824872422963, 285.67973791528493, 927.614865809679, -0.0800000037997961, 0.2400000113993883, 0.9920000471174717, 0.0, 0.0, 0.0, 0.0, 0.0, 1.6360739166399827E9, 0.0, 2021-11-04 19:58:36.639
49.0, 1147.9361120993271, 378.89674431085587, 279.1797917922959, 917.689171327278, -0.0800000037997961, 0.2400000113993883, 0.9920000471174717, 0.0, 0.0, 0.0, 0.0, 0.0, 1.6360739166535697E9, 0.0, 2021-11-04 19:58:36.653
49.0, 1128.9374203244224, 372.57257348578423, 281.7341434620321, 901.6300409175456, -0.0800000037997961, 0.2400000113993883, 0.9920000471174717, 0.0, 0.0, 0.0, 0.0, 0.0, 1.6360739166535697E9, 0.0, 2021-11-04 19:58:36.653
50.0, 1130.2763045085594, 371.7423156956211, 289.1017463747412, 907.5727419471368, -0.0800000037997961, 0.2400000113993883, 0.9920000471174717, 0.0, 0.0, 0.0, 0.0, 0.0, 1.63607391668634E9, 0.0, 2021-11-04 19:58:36.686
50.0, 1124.3261236790568, 369.67415102012455, 273.40912616066635, 905.6055545704439, -0.0800000037997961, 0.2400000113993883, 0.9920000471174717, 0.0, 0.0, 0.0, 0.0, 0.0, 1.63607391668634E9, 0.0, 2021-11-04 19:58:36.686
51.0, 1118.364723149687, 363.81746768951416, 261.13477450609207, 904.2704102862626, -0.0800000037997961, 0.2400000113993883, 0.9920000471174717, 0.0, 0.0, 0.0, 0.0, 0.0, 1.6360739166870196E9, 0.0, 2021-11-04 19:58:36.687
51.0, 1120.4254080252722, 347.863054478541, 234.02797962725163, 909.5324495239183, -0.0800000037997961, 0.2400000113993883, 0.9920000471174717, 0.0, 0.0, 0.0, 0.0, 0.0, 1.6360739166870196E9, 0.0, 2021-11-04 19:58:36.687
52.0, 1122.2803984032944, 337.346455803141, 218.36901851277798, 908.6049543349072, -0.0800000037997961, 0.2400000113993883, 0.9920000471174717, 0.0, 0.0, 0.0, 0.0, 0.0, 1.6360739166877596E9, 0.0, 2021-11-04 19:58:36.687
52.0, 1119.4044153373688, 327.91442811489105, 219.85749869514257, 902.1985057108104, -0.0800000037997961, 0.2400000113993883, 0.9920000471174717, 0.0, 0.0, 0.0, 0.0, 0.0, 1.6360739166877596E9, 0.0, 2021-11-04 19:58:36.687
53.0, 1116.8014449682087, 323.76313916407526, 208.6153594283387, 901.5963818179443, -0.0800000037997961, 0.2400000113993883, 0.9920000471174717, 0.0, 0.0, 0.0, 0.0, 0.0, 1.6360739166885383E9, 0.0, 2021-11-04 19:58:36.688
53.0, 1131.8321028901264, 315.12771016638726, 178.20623288862407, 906.7574437567964, -0.0800000037997961, 0.2400000113993883, 0.9920000471174717, 0.0, 0.0, 0.0, 0.0, 0.0, 1.6360739166885383E9, 0.0, 2021-11-04 19:58:36.688
54.0, 1129.315150219947, 300.42242354061455, 170.14300858415663, 899.4908181428909, -0.0800000037997961, 0.2400000113993883, 0.9920000471174717, 0.0, 0.0, 0.0, 0.0, 0.0, 1.6360739166985784E9, 0.0, 2021-11-04 19:58:36.698
54.0, 1125.4593133656308, 289.19898377358913, 130.89275854919106, 900.0069243367761, -0.0800000037997961, 0.2400000113993883, 0.9920000471174717, 0.0, 0.0, 0.0, 0.0, 0.0, 1.6360739166985784E9, 0.0, 2021-11-04 19:58:36.698
55.0, 1139.8915872946382, 284.6213462278247, 122.93051154352725, 896.8915876736864, -0.0800000037997961, 0.2400000113993883, 0.9920000471174717, 0.0, 0.0, 0.0, 0.0, 0.0, 1.6360739167135377E9, 0.0, 2021-11-04 19:58:36.713
55.0, 1145.1237073326483, 282.26894915569574, 115.70876472909003, 899.7750505395234, -0.0800000037997961, 0.2400000113993883, 0.9920000471174717, 0.0, 0.0, 0.0, 0.0, 0.0, 1.6360739167135377E9, 0.0, 2021-11-04 19:58:36.713
56.0, 1147.9697711989284, 270.3536278968677, 104.13751426618546, 903.7730035921559, -0.0800000037997961, 0.2400000113993883, 0.9920000471174717, 0.0, 0.0, 0.0, 0.0, 0.0, 1.636073916729303E9, 0.0, 2021-11-04 19:58:36.729
56.0, 1141.3015295779333, 262.2305651931092, 95.13931497279555, 895.1936730938032, -0.0800000037997961, 0.2400000113993883, 0.9920000471174717, 0.0, 0.0, 0.0, 0.0, 0.0, 1.636073916729303E9, 0.0, 2021-11-04 19:58:36.729
57.0, 1143.257497254759, 256.239245464094, 87.17332806717604, 897.306716568768, -0.0800000037997961, 0.2400000113993883, 0.9920000471174717, 0.0, 0.0, 0.0, 0.0, 0.0, 1.6360739167299852E9, 0.0, 2021-11-04 19:58:36.729
57.0, 1144.9928108341992, 254.26083838753402, 80.38914954755455, 897.1085018711165, -0.0800000037997961, 0.2400000113993883, 0.9920000471174717, 0.0, 0.0, 0.0, 0.0, 0.0, 1.6360739167299852E9, 0.0, 2021-11-04 19:58:36.729
58.0, 1152.0537419505417, 248.4901727559045, 52.17908418178558, 907.3520878497511, -0.0800000037997961, 0.2400000113993883, 0.9920000471174717, 0.0, 0.0, 0.0, 0.0, 0.0, 1.636073916777031E9, 0.0, 2021-11-04 19:58:36.777
58.0, 1156.1564122019336, 242.2594994297251, 45.271488963626325, 906.7088250573725, -0.0800000037997961, 0.2400000113993883, 0.9920000471174717, 0.0, 0.0, 0.0, 0.0, 0.0, 1.636073916777031E9, 0.0, 2021-11-04 19:58:36.777
59.0, 1150.3670470705256, 239.2227006657049, 61.723308868706226, 901.3009297214448, -0.0800000037997961, 0.2400000113993883, 0.9920000471174717, 0.0, 0.0, 0.0, 0.0, 0.0, 1.6360739167776902E9, 0.0, 2021-11-04 19:58:36.777
59.0, 1145.9464853229001, 241.02159254439175, 50.26425540447235, 906.4806911600754, -0.0800000037997961, 0.2400000113993883, 0.9920000471174717, 0.0, 0.0, 0.0, 0.0, 0.0, 1.6360739167776902E9, 0.0, 2021-11-04 19:58:36.777
60.0, 1146.212018219754, 242.4838934270665, 48.66357822343707, 905.1156276762486, -0.0800000037997961, 0.2400000113993883, 0.9920000471174717, 0.0, 0.0, 0.0, 0.0, 0.0, 1.6360739167784936E9, 0.0, 2021-11-04 19:58:36.778
60.0, 1141.5595826748759, 237.1881950898096, 48.17739122919738, 905.930925866589, -0.0800000037997961, 0.2400000113993883, 0.9920000471174717, 0.0, 0.0, 0.0, 0.0, 0.0, 1.6360739167784936E9, 0.0, 2021-11-04 19:58:36.778
61.0, 1141.5184437753633, 241.7097341362387, 40.28246242273599, 904.5322032831609, -0.0800000037997961, 0.2400000113993883, 0.9920000471174717, 0.0, 0.0, 0.0, 0.0, 0.0, 1.6360739167793343E9, 0.0, 2021-11-04 19:58:36.779
61.0, 1136.4022606359795, 234.76473991852254, 30.401646739803255, 904.4574052840471, -0.0800000037997961, 0.2400000113993883, 0.9920000471174717, 0.0, 0.0, 0.0, 0.0, 0.0, 1.6360739167793343E9, 0.0, 2021-11-04 19:58:36.779
62.0, 1146.586008215323, 242.98504002112895, 25.648233896121383, 915.3928727544844, -0.0800000037997961, 0.2400000113993883, 0.9920000471174717, 0.0, 0.0, 0.0, 0.0, 0.0, 1.636073916789256E9, 0.0, 2021-11-04 19:58:36.789
62.0, 1142.292603066191, 235.34442441165447, 34.32480179332197, 909.4426919249818, -0.0800000037997961, 0.2400000113993883, 0.9920000471174717, 0.0, 0.0, 0.0, 0.0, 0.0, 1.636073916789256E9, 0.0, 2021-11-04 19:58:36.789
63.0, 1138.4143268121406, 231.9672947516665, 28.61397456098348, 912.1167203933, -0.0800000037997961, 0.2400000113993883, 0.9920000471174717, 0.0, 0.0, 0.0, 0.0, 0.0, 1.6360739167899663E9, 0.0, 2021-11-04 19:58:36.789
63.0, 1135.396227547899, 234.27481302432716, 21.122954949736595, 907.9392521427944, -0.0800000037997961, 0.2400000113993883, 0.9920000471174717, 0.0, 0.0, 0.0, 0.0, 0.0, 1.6360739167899663E9, 0.0, 2021-11-04 19:58:36.789
64.0, 1139.1772664031014, 234.08781802654266, 27.095575178973377, 915.0450620586053, -0.0800000037997961, 0.2400000113993883, 0.9920000471174717, 0.0, 0.0, 0.0, 0.0, 0.0, 1.6360739168036764E9, 0.0, 2021-11-04 19:58:36.803
64.0, 1149.1702790847048, 236.20834130141884, 36.95395146217197, 914.8767665605992, -0.0800000037997961, 0.2400000113993883, 0.9920000471174717, 0.0, 0.0, 0.0, 0.0, 0.0, 1.6360739168036764E9, 0.0, 2021-11-04 19:58:36.803
65.0, 1148.8449077885598, 236.86282379366457, 13.568357039242983, 919.8171744020656, -0.0800000037997961, 0.2400000113993883, 0.9920000471174717, 0.0, 0.0, 0.0, 0.0, 0.0, 1.6360739168191993E9, 0.0, 2021-11-04 19:58:36.819
65.0, 1151.8031686535105, 231.57834515627474, 15.759938413277268, 913.0255160825327, -0.0800000037997961, 0.2400000113993883, 0.9920000471174717, 0.0, 0.0, 0.0, 0.0, 0.0, 1.6360739168191993E9, 0.0, 2021-11-04 19:58:36.819
66.0, 1155.1877781134099, 225.4449092289433, 9.824717183597386, 913.7061778744683, -0.0800000037997961, 0.2400000113993883, 0.9920000471174717, 0.0, 0.0, 0.0, 0.0, 0.0, 1.6360739168199253E9, 0.0, 2021-11-04 19:58:36.819
66.0, 1158.5200289739296, 226.24898771941662, 10.019191981293261, 916.6382594397292, -0.0800000037997961, 0.2400000113993883, 0.9920000471174717, 0.0, 0.0, 0.0, 0.0, 0.0, 1.6360739168199253E9, 0.0, 2021-11-04 19:58:36.819
67.0, 1152.8279012413695, 234.10277762636542, 6.724340120330453, 913.2349504800513, -0.0800000037997961, 0.2400000113993883, 0.9920000471174717, 0.0, 0.0, 0.0, 0.0, 0.0, 1.6360739168336408E9, 0.0, 2021-11-04 19:58:36.833
67.0, 1154.6941113192588, 228.403170093894, 18.84909577667713, 915.63970615156, -0.0800000037997961, 0.2400000113993883, 0.9920000471174717, 0.0, 0.0, 0.0, 0.0, 0.0, 1.6360739168336408E9, 0.0, 2021-11-04 19:58:36.833
68.0, 1157.4504175866023, 228.11519779730588, 3.657622156664729, 913.5790212759748, -0.0800000037997961, 0.2400000113993883, 0.9920000471174717, 0.0, 0.0, 0.0, 0.0, 0.0, 1.6360739168804147E9, 0.0, 2021-11-04 19:58:36.880
68.0, 1162.4918027268723, 227.45697540510446, 8.534451698884368, 917.4198985304683, -0.0800000037997961, 0.2400000113993883, 0.9920000471174717, 0.0, 0.0, 0.0, 0.0, 0.0, 1.6360739168804147E9, 0.0, 2021-11-04 19:58:36.880
69.0, 1157.839367181994, 226.8885106118396, 11.975159658119082, 906.6153275584802, -0.0800000037997961, 0.2400000113993883, 0.9920000471174717, 0.0, 0.0, 0.0, 0.0, 0.0, 1.636073916881524E9, 0.0, 2021-11-04 19:58:36.881
69.0, 1158.1834379779175, 224.71936863753945, 8.919661394320428, 906.42459266074, -0.0800000037997961, 0.2400000113993883, 0.9920000471174717, 0.0, 0.0, 0.0, 0.0, 0.0, 1.636073916881524E9, 0.0, 2021-11-04 19:58:36.881
70.0, 1168.2288092589006, 227.6963290022686, 10.83449017163366, 912.3598138904199, -0.0800000037997961, 0.2400000113993883, 0.9920000471174717, 0.0, 0.0, 0.0, 0.0, 0.0, 1.6360739168818007E9, 0.0, 2021-11-04 19:58:36.881
70.0, 1164.2458158060908, 227.80104620102793, 16.47799920476973, 912.2812759913504, -0.0800000037997961, 0.2400000113993883, 0.9920000471174717, 0.0, 0.0, 0.0, 0.0, 0.0, 1.6360739168818007E9, 0.0, 2021-11-04 19:58:36.881
71.0, 1154.5445153210312, 221.19638287927955, -1.9410080770030618, 901.0316569246352, -0.0800000037997961, 0.2400000113993883, 0.9920000471174717, 0.0, 0.0, 0.0, 0.0, 0.0, 1.6360739168946564E9, 0.0, 2021-11-04 19:58:36.894
71.0, 1156.7248769951984, 226.26768721919507, 2.617929968982935, 910.4075861135498, -0.0800000037997961, 0.2400000113993883, 0.9920000471174717, 0.0, 0.0, 0.0, 0.0, 0.0, 1.6360739168946564E9, 0.0, 2021-11-04 19:58:36.894
72.0, 1165.4164044922218, 230.74808736611158, 16.5640169037506, 911.6155737992376, -0.0800000037997961, 0.2400000113993883, 0.9920000471174717, 0.0, 0.0, 0.0, 0.0, 0.0, 1.636073916895388E9, 0.0, 2021-11-04 19:58:36.895
72.0, 1156.0741344029084, 224.7343282373622, 11.070103868842125, 902.9951044013724, -0.0800000037997961, 0.2400000113993883, 0.9920000471174717, 0.0, 0.0, 0.0, 0.0, 0.0, 1.636073916895388E9, 0.0, 2021-11-04 19:58:36.895
73.0, 1157.6972509836778, 222.01916086953133, 4.502839546650648, 903.096081700176, -0.0800000037997961, 0.2400000113993883, 0.9920000471174717, 0.0, 0.0, 0.0, 0.0, 0.0, 1.6360739169096665E9, 0.0, 2021-11-04 19:58:36.909
73.0, 1162.0691940318793, 228.48918779287487, 9.510565587319434, 908.2384441392496, -0.0800000037997961, 0.2400000113993883, 0.9920000471174717, 0.0, 0.0, 0.0, 0.0, 0.0, 1.6360739169096665E9, 0.0, 2021-11-04 19:58:36.909
74.0, 1169.7098096413538, 228.71358179021627, 28.853328158147633, 908.668532634154, -0.0800000037997961, 0.2400000113993883, 0.9920000471174717, 0.0, 0.0, 0.0, 0.0, 0.0, 1.6360739169104369E9, 0.0, 2021-11-04 19:58:36.910
74.0, 1153.5272625330836, 224.1845629438758, 20.13562136143446, 898.1818531583995, -0.0800000037997961, 0.2400000113993883, 0.9920000471174717, 0.0, 0.0, 0.0, 0.0, 0.0, 1.6360739169104369E9, 0.0, 2021-11-04 19:58:36.910
75.0, 1151.7508100541309, 223.35804505366832, 7.8687495067715645, 902.4715184075758, -0.0800000037997961, 0.2400000113993883, 0.9920000471174717, 0.0, 0.0, 0.0, 0.0, 0.0, 1.6360739169255316E9, 0.0, 2021-11-04 19:58:36.925
75.0, 1156.8221143940464, 228.08153869770467, 9.24129279050976, 900.7848235275596, -0.0800000037997961, 0.2400000113993883, 0.9920000471174717, 0.0, 0.0, 0.0, 0.0, 0.0, 1.6360739169255316E9, 0.0, 2021-11-04 19:58:36.925
76.0, 1164.821760399267, 224.67822973802686, 9.862116183154285, 904.7304179808125, -0.0800000037997961, 0.2400000113993883, 0.9920000471174717, 0.0, 0.0, 0.0, 0.0, 0.0, 1.6360739169399185E9, 0.0, 2021-11-04 19:58:36.939
76.0, 1165.2144498946145, 226.8511116122827, 25.236844900995493, 903.5224302951247, -0.0800000037997961, 0.2400000113993883, 0.9920000471174717, 0.0, 0.0, 0.0, 0.0, 0.0, 1.6360739169399185E9, 0.0, 2021-11-04 19:58:36.939
77.0, 1167.0470008729026, 229.88043057639152, 13.931127334944904, 902.1087481118739, -0.0800000037997961, 0.2400000113993883, 0.9920000471174717, 0.0, 0.0, 0.0, 0.0, 0.0, 1.6360739169406126E9, 0.0, 2021-11-04 19:58:36.940
77.0, 1161.8634995343164, 223.67219664994627, 11.421654464676976, 896.4801986785606, -0.0800000037997961, 0.2400000113993883, 0.9920000471174717, 0.0, 0.0, 0.0, 0.0, 0.0, 1.6360739169406126E9, 0.0, 2021-11-04 19:58:36.940
78.0, 1170.5699866311625, 232.84243134129792, 17.484032292850316, 910.9199524074793, -0.0800000037997961, 0.2400000113993883, 0.9920000471174717, 0.0, 0.0, 0.0, 0.0, 0.0, 1.6360739169414732E9, 0.0, 2021-11-04 19:58:36.941
78.0, 1173.8610985921696, 238.8935894696042, 16.582716403529048, 908.4067396372557, -0.0800000037997961, 0.2400000113993883, 0.9920000471174717, 0.0, 0.0, 0.0, 0.0, 0.0, 1.6360739169414732E9, 0.0, 2021-11-04 19:58:36.941
79.0, 1170.0052617378533, 235.12003041431308, 11.29823776613921, 898.9971513487399, -0.0800000037997961, 0.2400000113993883, 0.9920000471174717, 0.0, 0.0, 0.0, 0.0, 0.0, 1.6360739169863112E9, 0.0, 2021-11-04 19:58:36.986
79.0, 1159.6793979601935, 231.54094615671784, 24.58984220866114, 905.2166049750522, -0.0800000037997961, 0.2400000113993883, 0.9920000471174717, 0.0, 0.0, 0.0, 0.0, 0.0, 1.6360739169863112E9, 0.0, 2021-11-04 19:58:36.986
80.0, 1161.590486837551, 228.4779680930078, 25.02367060352117, 906.267516862601, -0.0800000037997961, 0.2400000113993883, 0.9920000471174717, 0.0, 0.0, 0.0, 0.0, 0.0, 1.6360739169869726E9, 0.0, 2021-11-04 19:58:36.986
80.0, 1154.413618822582, 225.82263912446797, 24.61228160839528, 899.8124495390803, -0.0800000037997961, 0.2400000113993883, 0.9920000471174717, 0.0, 0.0, 0.0, 0.0, 0.0, 1.6360739169869726E9, 0.0, 2021-11-04 19:58:36.986
81.0, 1156.1451925020665, 230.0001073749736, 13.856329335831106, 899.2140655461699, -0.0800000037997961, 0.2240000106394291, 0.9920000471174717, 0.0, 0.0, 0.0, 0.0, 0.0, 1.6360739169877572E9, 0.0, 2021-11-04 19:58:36.987
81.0, 1159.7167969597504, 232.75267374236137, 21.250111548230052, 900.3659547325224, -0.0800000037997961, 0.2240000106394291, 0.9920000471174717, 0.0, 0.0, 0.0, 0.0, 0.0, 1.6360739169877572E9, 0.0, 2021-11-04 19:58:36.987
82.0, 1158.7780820708722, 238.3363443762064, 26.744024583138525, 905.8636076673865, -0.0800000037997961, 0.2240000106394291, 0.9920000471174717, 0.0, 0.0, 0.0, 0.0, 0.0, 1.6360739169883695E9, 0.0, 2021-11-04 19:58:36.988
82.0, 1152.1434995494783, 228.53032669238746, 19.462439369410276, 897.2992367688566, -0.0800000037997961, 0.2240000106394291, 0.9920000471174717, 0.0, 0.0, 0.0, 0.0, 0.0, 1.6360739169883695E9, 0.0, 2021-11-04 19:58:36.988
83.0, 1156.0105561036617, 229.68221587873995, 25.274243900552392, 905.1792059754953, -0.0800000037997961, 0.2240000106394291, 0.9920000471174717, 0.0, 0.0, 0.0, 0.0, 0.0, 1.6360739169992037E9, 0.0, 2021-11-04 19:58:36.999
83.0, 1160.63681234885, 233.4408153342083, 22.757291230373085, 907.2024918515235, -0.0800000037997961, 0.2240000106394291, 0.9920000471174717, 0.0, 0.0, 0.0, 0.0, 0.0, 1.6360739169992037E9, 0.0, 2021-11-04 19:58:36.999
84.0, 1153.7254772307351, 224.91384343523532, 21.422146946191788, 899.3412221446633, -0.0800000037997961, 0.2240000106394291, 0.9920000471174717, 0.0, 0.0, 0.0, 0.0, 0.0, 1.6360739169999063E9, 0.0, 2021-11-04 19:58:36.999
84.0, 1153.6843383312225, 228.49292769283056, 31.695652124471962, 895.9266934851184, -0.0800000037997961, 0.2240000106394291, 0.9920000471174717, 0.0, 0.0, 0.0, 0.0, 0.0, 1.6360739169999063E9, 0.0, 2021-11-04 19:58:36.999
85.0, 1152.31553494744, 224.27806044276804, 33.12055400758982, 901.2934499215335, -0.0800000037997961, 0.2240000106394291, 0.9920000471174717, 0.0, 0.0, 0.0, 0.0, 0.0, 1.6360739170299504E9, 0.0, 2021-11-04 19:58:37.029
85.0, 1153.5758812325075, 233.1528430376202, 31.288003029301763, 902.8642079029232, -0.0800000037997961, 0.2240000106394291, 0.9920000471174717, 0.0, 0.0, 0.0, 0.0, 0.0, 1.6360739170299504E9, 0.0, 2021-11-04 19:58:37.029
86.0, 1159.828993958421, 235.0377526152879, 26.788903382606804, 898.9971513487399, -0.0800000037997961, 0.2240000106394291, 0.9920000471174717, 0.0, 0.0, 0.0, 0.0, 0.0, 1.6360739170308092E9, 0.0, 2021-11-04 19:58:37.030
86.0, 1146.9300790112466, 229.93278917577118, 27.641600572504103, 900.5716492300853, -0.0800000037997961, 0.2240000106394291, 0.9920000471174717, 0.0, 0.0, 0.0, 0.0, 0.0, 1.6360739170308092E9, 0.0, 2021-11-04 19:58:37.030
87.0, 1156.597720396705, 232.87983034085482, 14.854882624000311, 903.2344579985365, -0.0800000037997961, 0.2240000106394291, 0.9920000471174717, 0.0, 0.0, 0.0, 0.0, 0.0, 1.636073917031403E9, 0.0, 2021-11-04 19:58:37.031
87.0, 1160.588193649426, 233.09674453828484, 29.982777944765985, 905.5644156709313, -0.0800000037997961, 0.2240000106394291, 0.9920000471174717, 0.0, 0.0, 0.0, 0.0, 0.0, 1.636073917031403E9, 0.0, 2021-11-04 19:58:37.031
88.0, 1154.2154041249305, 229.70839517842978, 29.287156553007662, 901.5926419179887, -0.0800000037997961, 0.2240000106394291, 0.9920000471174717, 0.0, 0.0, 0.0, 0.0, 0.0, 1.6360739170434985E9, 0.0, 2021-11-04 19:58:37.043
88.0, 1152.5885476442054, 234.22993422485888, 33.72267790045589, 903.1147811999545, -0.0800000037997961, 0.2240000106394291, 0.9920000471174717, 0.0, 0.0, 0.0, 0.0, 0.0, 1.6360739170434985E9, 0.0, 2021-11-04 19:58:37.043
89.0, 1149.8845999762416, 233.0743051385507, 27.862254669889808, 898.0359970601276, -0.0800000037997961, 0.2240000106394291, 0.9920000471174717, 0.0, 0.0, 0.0, 0.0, 0.0, 1.6360739170589793E9, 0.0, 2021-11-04 19:58:37.058
89.0, 1152.0200828509405, 236.82168489415199, 40.66393221821636, 903.0399832008407, -0.0800000037997961, 0.2240000106394291, 0.9920000471174717, 0.0, 0.0, 0.0, 0.0, 0.0, 1.6360739170589793E9, 0.0, 2021-11-04 19:58:37.058
90.0, 1157.6748115839437, 232.5207999451086, 21.220192348584533, 908.7059316337109, -0.0800000037997961, 0.2240000106394291, 0.9920000471174717, 0.0, 0.0, 0.0, 0.0, 0.0, 1.6360739170905526E9, 0.0, 2021-11-04 19:58:37.090
90.0, 1158.2283167773858, 236.91892229299992, 32.29403611738235, 913.6912182746455, -0.0800000037997961, 0.2240000106394291, 0.9920000471174717, 0.0, 0.0, 0.0, 0.0, 0.0, 1.6360739170905526E9, 0.0, 2021-11-04 19:58:37.090
91.0, 1167.1292786719278, 243.60586341377348, 51.704116887412965, 912.756243285723, -0.0800000037997961, 0.2240000106394291, 0.9920000471174717, 0.0, 0.0, 0.0, 0.0, 0.0, 1.6360739170912304E9, 0.0, 2021-11-04 19:58:37.091
91.0, 1171.4264237210155, 230.89768336433917, 35.46547127980739, 911.3687404021621, -0.0800000037997961, 0.2240000106394291, 0.9920000471174717, 0.0, 0.0, 0.0, 0.0, 0.0, 1.6360739170912304E9, 0.0, 2021-11-04 19:58:37.091
92.0, 1167.3274933695793, 235.482800710015, 28.415759863331914, 909.644646522589, -0.06400000303983688, 0.2240000106394291, 0.9920000471174717, 0.0, 0.0, 0.0, 0.0, 0.0, 1.6360739171055753E9, 0.0, 2021-11-04 19:58:37.105
92.0, 1161.6952040363103, 232.13559024967253, 36.97265096195042, 903.5560893947259, -0.06400000303983688, 0.2240000106394291, 0.9920000471174717, 0.0, 0.0, 0.0, 0.0, 0.0, 1.6360739171055753E9, 0.0, 2021-11-04 19:58:37.105
93.0, 1171.8639920158312, 237.8538972819224, 29.178699454292655, 912.6515260869637, -0.06400000303983688, 0.2240000106394291, 0.9920000471174717, 0.0, 0.0, 0.0, 0.0, 0.0, 1.6360739171063533E9, 0.0, 2021-11-04 19:58:37.106
93.0, 1166.186823883094, 233.5156133333221, 33.33746820501983, 909.8690405199304, -0.06400000303983688, 0.2240000106394291, 0.9920000471174717, 0.0, 0.0, 0.0, 0.0, 0.0, 1.6360739171063533E9, 0.0, 2021-11-04 19:58:37.106
94.0, 1165.6594979893416, 231.30159255955368, 27.33118887618184, 904.5396830830723, -0.06400000303983688, 0.2240000106394291, 0.9920000471174717, 0.0, 0.0, 0.0, 0.0, 0.0, 1.63607391710705E9, 0.0, 2021-11-04 19:58:37.107
94.0, 1166.1419450836256, 234.35335092339665, 33.75259710010141, 902.0563895124942, -0.06400000303983688, 0.2240000106394291, 0.9920000471174717, 0.0, 0.0, 0.0, 0.0, 0.0, 1.63607391710705E9, 0.0, 2021-11-04 19:58:37.107
95.0, 1154.7801290182397, 229.41668298188597, 28.079168867319822, 887.4221609858796, -0.06400000303983688, 0.2240000106394291, 0.9920000471174717, 0.0, 0.0, 0.0, 0.0, 0.0, 1.6360739171078491E9, 0.0, 2021-11-04 19:58:37.107
95.0, 1164.3692325046286, 236.60103079676628, 43.80544818099588, 898.2977900570258, -0.06400000303983688, 0.2240000106394291, 0.9920000471174717, 0.0, 0.0, 0.0, 0.0, 0.0, 1.6360739171078491E9, 0.0, 2021-11-04 19:58:37.107
96.0, 1161.1865776423365, 231.93737555202097, 33.32250860519707, 892.3438693275675, -0.06400000303983688, 0.2240000106394291, 0.9920000471174717, 0.0, 0.0, 0.0, 0.0, 0.0, 1.6360739171185727E9, 0.0, 2021-11-04 19:58:37.118
96.0, 1166.0110485851765, 231.9598149517551, 31.639553625136614, 895.0216376958415, -0.06400000303983688, 0.2240000106394291, 0.9920000471174717, 0.0, 0.0, 0.0, 0.0, 0.0, 1.6360739171185727E9, 0.0, 2021-11-04 19:58:37.118
97.0, 1167.5743267666548, 232.2964059477672, 31.40020002797246, 899.296343345195, -0.06400000303983688, 0.2240000106394291, 0.9920000471174717, 0.0, 0.0, 0.0, 0.0, 0.0, 1.636073917133518E9, 0.0, 2021-11-04 19:58:37.133
97.0, 1173.4310100972652, 232.38990344665945, 35.84320117533207, 894.7523648990318, -0.06400000303983688, 0.2240000106394291, 0.9920000471174717, 0.0, 0.0, 0.0, 0.0, 0.0, 1.636073917133518E9, 0.0, 2021-11-04 19:58:37.133
98.0, 1176.3705714624375, 239.26757946517318, 44.38139277417213, 893.7051929114386, -0.06400000303983688, 0.2240000106394291, 0.9920000471174717, 0.0, 0.0, 0.0, 0.0, 0.0, 1.636073917149232E9, 0.0, 2021-11-04 19:58:37.149
98.0, 1167.8211601637304, 233.91952252853662, 32.21175831835717, 886.9210143918172, -0.06400000303983688, 0.2240000106394291, 0.9920000471174717, 0.0, 0.0, 0.0, 0.0, 0.0, 1.636073917149232E9, 0.0, 2021-11-04 19:58:37.149
99.0, 1171.8714718157426, 238.8150515705347, 35.7571834763512, 895.1300947945565, -0.06400000303983688, 0.2240000106394291, 0.9920000471174717, 0.0, 0.0, 0.0, 0.0, 0.0, 1.636073917149943E9, 0.0, 2021-11-04 19:58:37.149
99.0, 1166.837566475384, 232.24030744843185, 39.96457092650235, 891.6819070354104, -0.06400000303983688, 0.2240000106394291, 0.9920000471174717, 0.0, 0.0, 0.0, 0.0, 0.0, 1.636073917149943E9, 0.0, 2021-11-04 19:58:37.149
100.0, 1164.5113487029448, 234.98539401590824, 21.897114240564406, 885.8551429044455, -0.06400000303983688, 0.2240000106394291, 0.9920000471174717, 0.0, 0.0, 0.0, 0.0, 0.0, 1.6360739171643465E9, 0.0, 2021-11-04 19:58:37.164
100.0, 1169.0777665488422, 230.35913777071983, 27.121754478663206, 890.3729420509189, -0.06400000303983688, 0.2240000106394291, 0.9920000471174717, 0.0, 0.0, 0.0, 0.0, 0.0, 1.6360739171643465E9, 0.0, 2021-11-04 19:58:37.164
0.0, 1163.6810909127817, 233.24260063655674, 47.083470492158085, 890.6160355480388, -0.06400000303983688, 0.2240000106394291, 0.9920000471174717, 0.0, 0.0, 0.0, 0.0, 0.0, 1.6360739171649084E9, 0.0, 2021-11-04 19:58:37.164
1.0, 1170.0613602371886, 241.8892493341118, 52.46892642835155, 896.6410143766552, -0.06400000303983688, 0.2240000106394291, 0.9920000471174717, 0.0, 0.0, 0.0, 0.0, 0.0, 1.6360739171946695E9, 0.0, 2021-11-04 19:58:37.194
1.0, 1170.2446153350174, 242.0762443318963, 42.76762594329193, 895.7920570867136, -0.06400000303983688, 0.2240000106394291, 0.9920000471174717, 0.0, 0.0, 0.0, 0.0, 0.0, 1.6360739171946695E9, 0.0, 2021-11-04 19:58:37.194
2.0, 1171.3067469224334, 240.23621355369687, 38.76967289065942, 895.0702563952655, -0.0800000037997961, 0.2240000106394291, 0.9920000471174717, 0.0, 0.0, 0.0, 0.0, 0.0, 1.6360739171953695E9, 0.0, 2021-11-04 19:58:37.195
2.0, 1162.940590721555, 239.98938015662134, 36.78752591414377, 889.2696715639904, -0.0800000037997961, 0.2240000106394291, 0.9920000471174717, 0.0, 0.0, 0.0, 0.0, 0.0, 1.6360739171953695E9, 0.0, 2021-11-04 19:58:37.195
3.0, 1164.6721644010395, 241.58631743770093, 23.039653677027673, 887.4932190850377, -0.0800000037997961, 0.2240000106394291, 0.9920000471174717, 0.0, 0.0, 0.0, 0.0, 0.0, 1.636073917209238E9, 0.0, 2021-11-04 19:58:37.209
3.0, 1161.3810524400324, 245.95452058594674, 44.84701031865552, 884.160968224518, -0.0800000037997961, 0.2240000106394291, 0.9920000471174717, 0.0, 0.0, 0.0, 0.0, 0.0, 1.636073917209238E9, 0.0, 2021-11-04 19:58:37.209
4.0, 1158.3292940761894, 243.32163101714104, 53.168287720065564, 881.7300332533196, -0.0800000037997961, 0.2240000106394291, 0.9920000471174717, 0.0, 0.0, 0.0, 0.0, 0.0, 1.6360739172099588E9, 0.0, 2021-11-04 19:58:37.209
4.0, 1159.5372817618772, 246.68006117735058, 55.25515189534053, 879.7815453764051, -0.0800000037997961, 0.2240000106394291, 0.9920000471174717, 0.0, 0.0, 0.0, 0.0, 0.0, 1.6360739172099588E9, 0.0, 2021-11-04 19:58:37.209
5.0, 1157.4878165861592, 244.36506310477853, 53.25804531900212, 878.6333960900083, -0.0800000037997961, 0.2240000106394291, 0.9920000471174717, 0.0, 0.0, 0.0, 0.0, 0.0, 1.636073917224903E9, 0.0, 2021-11-04 19:58:37.224
5.0, 1162.5105022266507, 243.1159365195781, 53.65821461426094, 887.755012081936, -0.0800000037997961, 0.2240000106394291, 0.9920000471174717, 0.0, 0.0, 0.0, 0.0, 0.0, 1.636073917224903E9, 0.0, 2021-11-04 19:58:37.224
6.0, 1166.620652277954, 252.54048440791667, 37.60656400443986, 889.2135730646551, -0.0800000037997961, 0.2240000106394291, 0.9920000471174717, 0.0, 0.0, 0.0, 0.0, 0.0, 1.6360739172256105E9, 0.0, 2021-11-04 19:58:37.225
6.0, 1169.754688440822, 251.11184262484312, 33.350557854864746, 894.0193445077166, -0.0800000037997961, 0.2240000106394291, 0.9920000471174717, 0.0, 0.0, 0.0, 0.0, 0.0, 1.6360739172256105E9, 0.0, 2021-11-04 19:58:37.225
7.0, 1163.8867854103446, 241.27216584142298, 34.72310113860294, 886.4273475976661, -0.0800000037997961, 0.2240000106394291, 0.9920000471174717, 0.0, 0.0, 0.0, 0.0, 0.0, 1.6360739172385988E9, 0.0, 2021-11-04 19:58:37.238
7.0, 1160.2216834537685, 241.4516810392961, 38.57145819300786, 890.7282325467095, -0.0800000037997961, 0.2240000106394291, 0.9920000471174717, 0.0, 0.0, 0.0, 0.0, 0.0, 1.6360739172385988E9, 0.0, 2021-11-04 19:58:37.238
8.0, 1149.9593979753554, 234.6675025196746, 39.087564386893064, 872.7206142600626, -0.0800000037997961, 0.2240000106394291, 0.9920000471174717, 0.0, 0.0, 0.0, 0.0, 0.0, 1.6360739172548943E9, 0.0, 2021-11-04 19:58:37.254
8.0, 1156.6126799965277, 241.88550943415612, 52.49510572804138, 879.2243002830073, -0.0800000037997961, 0.2240000106394291, 0.9920000471174717, 0.0, 0.0, 0.0, 0.0, 0.0, 1.6360739172548943E9, 0.0, 2021-11-04 19:58:37.254
9.0, 1157.1362659903243, 244.08831050805748, 47.917468182276934, 874.9608143335208, -0.0800000037997961, 0.2240000106394291, 0.9920000471174717, 0.0, 0.0, 0.0, 0.0, 0.0, 1.6360739172556653E9, 0.0, 2021-11-04 19:58:37.255
9.0, 1158.44149107486, 229.75327397789806, 31.97801457112655, 880.3350505698472, -0.0800000037997961, 0.2240000106394291, 0.9920000471174717, 0.0, 0.0, 0.0, 0.0, 0.0, 1.6360739172556653E9, 0.0, 2021-11-04 19:58:37.255
10.0, 1165.1695710951462, 244.1930277068168, 16.3601923561655, 892.2316723288968, -0.0800000037997961, 0.2240000106394291, 0.9920000471174717, 0.0, 0.0, 0.0, 0.0, 0.0, 1.6360739172685452E9, 0.0, 2021-11-04 19:58:37.268
10.0, 1163.2397827180102, 241.2272870419547, 45.62116960948333, 888.502992073074, -0.0800000037997961, 0.2240000106394291, 0.9920000471174717, 0.0, 0.0, 0.0, 0.0, 0.0, 1.6360739172685452E9, 0.0, 2021-11-04 19:58:37.268
11.0, 1159.0249154679477, 245.6366290897131, 38.623816792387515, 889.2098331646994, -0.0800000037997961, 0.2240000106394291, 0.9920000471174717, 0.0, 0.0, 0.0, 0.0, 0.0, 1.6360739173006473E9, 0.0, 2021-11-04 19:58:37.300
11.0, 1169.1862236475572, 247.54023816715926, 52.40908802906051, 896.7494714753702, -0.0800000037997961, 0.2240000106394291, 0.9920000471174717, 0.0, 0.0, 0.0, 0.0, 0.0, 1.6360739173006473E9, 0.0, 2021-11-04 19:58:37.300
12.0, 1172.4773356085643, 249.40644824504852, 55.535644392017275, 897.5161509662867, -0.06400000303983688, 0.2240000106394291, 0.9920000471174717, 0.0, 0.0, 0.0, 0.0, 0.0, 1.636073917301318E9, 0.0, 2021-11-04 19:58:37.301
12.0, 1156.2386900009587, 240.9243551455438, 45.29579831333831, 891.132141741924, -0.06400000303983688, 0.2240000106394291, 0.9920000471174717, 0.0, 0.0, 0.0, 0.0, 0.0, 1.636073917301318E9, 0.0, 2021-11-04 19:58:37.301
13.0, 1171.7480551172048, 243.56846441421658, 33.9601615476422, 894.1315415063873, -0.06400000303983688, 0.2240000106394291, 0.9920000471174717, 0.0, 0.0, 0.0, 0.0, 0.0, 1.6360739173020391E9, 0.0, 2021-11-04 19:58:37.302
13.0, 1167.742622264661, 242.02014583256096, 43.17153513850644, 889.4828458614647, -0.06400000303983688, 0.2240000106394291, 0.9920000471174717, 0.0, 0.0, 0.0, 0.0, 0.0, 1.6360739173020391E9, 0.0, 2021-11-04 19:58:37.302
14.0, 1153.6170201320201, 231.42126935813576, 47.535998386796564, 882.2237000474706, -0.06400000303983688, 0.2240000106394291, 0.9920000471174717, 0.0, 0.0, 0.0, 0.0, 0.0, 1.6360739173028245E9, 0.0, 2021-11-04 19:58:37.302
14.0, 1151.1599058611318, 244.226686806418, 51.960300034377724, 887.7737115817145, -0.06400000303983688, 0.2240000106394291, 0.9920000471174717, 0.0, 0.0, 0.0, 0.0, 0.0, 1.6360739173028245E9, 0.0, 2021-11-04 19:58:37.302
15.0, 1150.7036380665377, 240.8233778467402, 55.35612919414416, 890.4963587494567, -0.06400000303983688, 0.2240000106394291, 0.9920000471174717, 0.0, 0.0, 0.0, 0.0, 0.0, 1.6360739173135872E9, 0.0, 2021-11-04 19:58:37.313
15.0, 1147.6070009032264, 234.94799501635134, 41.60451705707237, 890.3879016507417, -0.06400000303983688, 0.2240000106394291, 0.9920000471174717, 0.0, 0.0, 0.0, 0.0, 0.0, 1.6360739173135872E9, 0.0, 2021-11-04 19:58:37.313
16.0, 1154.353780423291, 245.96200038585812, 46.320530901197344, 897.5198908662423, -0.06400000303983688, 0.2240000106394291, 0.9920000471174717, 0.0, 0.0, 0.0, 0.0, 0.0, 1.6360739173286104E9, 0.0, 2021-11-04 19:58:37.328
16.0, 1155.0232225153595, 243.13463601935655, 39.59993068082258, 897.0561432717368, -0.06400000303983688, 0.2240000106394291, 0.9920000471174717, 0.0, 0.0, 0.0, 0.0, 0.0, 1.6360739173286104E9, 0.0, 2021-11-04 19:58:37.328
17.0, 1156.537881997414, 248.68838745355606, 49.088056868407875, 901.0802756240591, -0.06400000303983688, 0.2240000106394291, 0.9920000471174717, 0.0, 0.0, 0.0, 0.0, 0.0, 1.6360739173443017E9, 0.0, 2021-11-04 19:58:37.344
17.0, 1159.6644383603707, 242.97382032126188, 57.84316266467795, 902.3144426094368, -0.06400000303983688, 0.2240000106394291, 0.9920000471174717, 0.0, 0.0, 0.0, 0.0, 0.0, 1.6360739173443017E9, 0.0, 2021-11-04 19:58:37.344
18.0, 1149.2862159833312, 235.25466681271791, 55.80117728887126, 889.8343964572996, -0.06400000303983688, 0.2240000106394291, 0.9920000471174717, 0.0, 0.0, 0.0, 0.0, 0.0, 1.636073917344902E9, 0.0, 2021-11-04 19:58:37.344
18.0, 1160.0272086560726, 234.54408582113683, 43.69512113230303, 896.921506873332, -0.06400000303983688, 0.2240000106394291, 0.9920000471174717, 0.0, 0.0, 0.0, 0.0, 0.0, 1.636073917344902E9, 0.0, 2021-11-04 19:58:37.344
19.0, 1151.1038073617965, 234.80213891807944, 46.40654860017821, 891.0947427423671, -0.06400000303983688, 0.2240000106394291, 0.9920000471174717, 0.0, 0.0, 0.0, 0.0, 0.0, 1.6360739173585923E9, 0.0, 2021-11-04 19:58:37.358
19.0, 1157.3344806879759, 237.16575569007546, 46.97875329339877, 895.8967742854729, -0.06400000303983688, 0.2240000106394291, 0.9920000471174717, 0.0, 0.0, 0.0, 0.0, 0.0, 1.6360739173585923E9, 0.0, 2021-11-04 19:58:37.358
20.0, 1171.8265930162743, 241.96030743326992, 38.82577138999477, 896.2296253815293, -0.06400000303983688, 0.2240000106394291, 0.9920000471174717, 0.0, 0.0, 0.0, 0.0, 0.0, 1.6360739173743107E9, 0.0, 2021-11-04 19:58:37.374
20.0, 1170.3306330339983, 238.57569797337055, 39.65976908011362, 892.4298870265484, -0.06400000303983688, 0.2240000106394291, 0.9920000471174717, 0.0, 0.0, 0.0, 0.0, 0.0, 1.6360739173743107E9, 0.0, 2021-11-04 19:58:37.374
21.0, 1173.988255190663, 241.38062294013798, 62.05055011482909, 895.3283094922081, -0.06400000303983688, 0.2240000106394291, 0.9920000471174717, 0.0, 0.0, 0.0, 0.0, 0.0, 1.6360739173749197E9, 0.0, 2021-11-04 19:58:37.374
21.0, 1173.6105252951384, 240.19507465418428, 48.654228473547846, 894.9244002969936, -0.06400000303983688, 0.2240000106394291, 0.9920000471174717, 0.0, 0.0, 0.0, 0.0, 0.0, 1.6360739173749197E9, 0.0, 2021-11-04 19:58:37.374
22.0, 1168.5840997546911, 238.06707157939672, 55.71889948984608, 893.9408066086471, -0.0800000037997961, 0.2240000106394291, 0.9920000471174717, 0.0, 0.0, 0.0, 0.0, 0.0, 1.6360739174212368E9, 0.0, 2021-11-04 19:58:37.421
22.0, 1178.8763044327497, 243.38146941643208, 53.474959516432136, 898.8363356506452, -0.0800000037997961, 0.2240000106394291, 0.9920000471174717, 0.0, 0.0, 0.0, 0.0, 0.0, 1.6360739174212368E9, 0.0, 2021-11-04 19:58:37.421
23.0, 1172.7279089055955, 242.80178492330015, 51.63866863818839, 891.6482479358092, -0.0800000037997961, 0.2240000106394291, 0.9920000471174717, 0.0, 0.0, 0.0, 0.0, 0.0, 1.63607391742201E9, 0.0, 2021-11-04 19:58:37.422
23.0, 1180.4321028143167, 234.40196962282062, 46.21581370243803, 891.2779978401959, -0.0800000037997961, 0.2240000106394291, 0.9920000471174717, 0.0, 0.0, 0.0, 0.0, 0.0, 1.63607391742201E9, 0.0, 2021-11-04 19:58:37.422
24.0, 1179.5644460245967, 230.2955594714731, 46.245732902083546, 895.47416559048, -0.0800000037997961, 0.2240000106394291, 0.9920000471174717, 0.0, 0.0, 0.0, 0.0, 0.0, 1.636073917422717E9, 0.0, 2021-11-04 19:58:37.422
24.0, 1182.6049846885726, 243.7853786116466, 48.732766372617334, 901.491664619185, -0.0800000037997961, 0.2240000106394291, 0.9920000471174717, 0.0, 0.0, 0.0, 0.0, 0.0, 1.636073917422717E9, 0.0, 2021-11-04 19:58:37.422
25.0, 1173.8162197927013, 237.42380878701806, 58.119915261399, 899.0943887475878, -0.0800000037997961, 0.2240000106394291, 0.9920000471174717, 0.0, 0.0, 0.0, 0.0, 0.0, 1.6360739174234676E9, 0.0, 2021-11-04 19:58:37.423
25.0, 1159.6045999610797, 227.65519010275602, 59.514897944871336, 892.7290790230036, -0.0800000037997961, 0.2240000106394291, 0.9920000471174717, 0.0, 0.0, 0.0, 0.0, 0.0, 1.6360739174234676E9, 0.0, 2021-11-04 19:58:37.423
26.0, 1163.7596288118511, 240.29231205303222, 50.281084954272956, 899.344962044619, -0.0800000037997961, 0.2240000106394291, 0.9920000471174717, 0.0, 0.0, 0.0, 0.0, 0.0, 1.6360739174343576E9, 0.0, 2021-11-04 19:58:37.434
26.0, 1166.5084552792832, 238.21292767766863, 45.22848011413589, 905.665392969735, -0.0800000037997961, 0.2240000106394291, 0.9920000471174717, 0.0, 0.0, 0.0, 0.0, 0.0, 1.6360739174343576E9, 0.0, 2021-11-04 19:58:37.434
27.0, 1161.3997519398108, 234.32343172375113, 51.36939584137872, 898.6381209529936, -0.0800000037997961, 0.2240000106394291, 0.9920000471174717, 0.0, 0.0, 0.0, 0.0, 0.0, 1.6360739174349816E9, 0.0, 2021-11-04 19:58:37.434
27.0, 1163.2098635183647, 234.23741402477026, 50.8944285470061, 896.6933729760349, -0.0800000037997961, 0.2240000106394291, 0.9920000471174717, 0.0, 0.0, 0.0, 0.0, 0.0, 1.6360739174349816E9, 0.0, 2021-11-04 19:58:37.434
28.0, 1156.549101697281, 237.43876838684082, 39.62610998051241, 889.4604064617306, -0.0800000037997961, 0.2240000106394291, 0.9920000471174717, 0.0, 0.0, 0.0, 0.0, 0.0, 1.636073917448578E9, 0.0, 2021-11-04 19:58:37.448
28.0, 1161.2127569420263, 237.83893768209964, 45.97646010527387, 895.8855545856059, -0.0800000037997961, 0.2240000106394291, 0.9920000471174717, 0.0, 0.0, 0.0, 0.0, 0.0, 1.636073917448578E9, 0.0, 2021-11-04 19:58:37.448
29.0, 1159.4699635626748, 235.25092691276222, 56.80721037695184, 893.3611221155152, -0.0800000037997961, 0.2240000106394291, 0.9920000471174717, 0.0, 0.0, 0.0, 0.0, 0.0, 1.6360739174643905E9, 0.0, 2021-11-04 19:58:37.464
29.0, 1159.7504560593516, 230.91264296416193, 44.40570212388411, 892.7739578224719, -0.0800000037997961, 0.2240000106394291, 0.9920000471174717, 0.0, 0.0, 0.0, 0.0, 0.0, 1.6360739174643905E9, 0.0, 2021-11-04 19:58:37.464
30.0, 1163.8643460106105, 235.2247476130724, 43.24633313762024, 894.4905719021335, -0.0800000037997961, 0.2240000106394291, 0.9920000471174717, 0.0, 0.0, 0.0, 0.0, 0.0, 1.6360739174649813E9, 0.0, 2021-11-04 19:58:37.464
30.0, 1164.847939698957, 236.04378570336848, 32.93916885973886, 892.4298870265484, -0.0800000037997961, 0.2240000106394291, 0.9920000471174717, 0.0, 0.0, 0.0, 0.0, 0.0, 1.6360739174649813E9, 0.0, 2021-11-04 19:58:37.464
31.0, 1161.31373424083, 240.40450905170292, 47.59957668604329, 894.9655391965061, -0.0800000037997961, 0.2240000106394291, 0.9920000471174717, 0.0, 0.0, 0.0, 0.0, 0.0, 1.6360739174785814E9, 0.0, 2021-11-04 19:58:37.478
31.0, 1164.37671230454, 247.02413197327405, 59.01375135080889, 897.2917569689453, -0.0800000037997961, 0.2240000106394291, 0.9920000471174717, 0.0, 0.0, 0.0, 0.0, 0.0, 1.6360739174785814E9, 0.0, 2021-11-04 19:58:37.478
32.0, 1164.761921999976, 242.98130012117326, 49.59294336242601, 890.5113183492795, -0.0800000037997961, 0.2240000106394291, 0.9920000471174717, 0.0, 0.0, 0.0, 0.0, 0.0, 1.6360739174943318E9, 0.0, 2021-11-04 19:58:37.494
32.0, 1168.3858850570396, 238.3700034758076, 43.17901493841782, 897.5685095656663, -0.0800000037997961, 0.2240000106394291, 0.9920000471174717, 0.0, 0.0, 0.0, 0.0, 0.0, 1.6360739174943318E9, 0.0, 2021-11-04 19:58:37.494
33.0, 1161.5755272377282, 240.88321624603122, 51.904201535042375, 888.2748581757769, -0.0800000037997961, 0.2240000106394291, 0.9920000471174717, 0.0, 0.0, 0.0, 0.0, 0.0, 1.6360739174949565E9, 0.0, 2021-11-04 19:58:37.494
33.0, 1158.1834379779175, 241.006632944569, 43.29495183704421, 886.8424764927477, -0.0800000037997961, 0.2240000106394291, 0.9920000471174717, 0.0, 0.0, 0.0, 0.0, 0.0, 1.6360739174949565E9, 0.0, 2021-11-04 19:58:37.494
34.0, 1159.3577665640041, 246.29111158195883, 34.00504034711048, 888.1364818774164, -0.0800000037997961, 0.2240000106394291, 0.9920000471174717, 0.0, 0.0, 0.0, 0.0, 0.0, 1.636073917523898E9, 0.0, 2021-11-04 19:58:37.523
34.0, 1170.4503098325804, 245.10556329600513, 54.59692950313911, 892.0446773311123, -0.0800000037997961, 0.2240000106394291, 0.9920000471174717, 0.0, 0.0, 0.0, 0.0, 0.0, 1.636073917523898E9, 0.0, 2021-11-04 19:58:37.523
35.0, 1166.8749654749408, 240.4493878511712, 67.91845314530656, 890.0400909548625, -0.0800000037997961, 0.2240000106394291, 0.9920000471174717, 0.0, 0.0, 0.0, 0.0, 0.0, 1.6360739175405514E9, 0.0, 2021-11-04 19:58:37.540
35.0, 1167.5070085674524, 241.16370874270797, 62.16648701345548, 889.9690328557044, -0.0800000037997961, 0.2240000106394291, 0.9920000471174717, 0.0, 0.0, 0.0, 0.0, 0.0, 1.6360739175405514E9, 0.0, 2021-11-04 19:58:37.540
36.0, 1166.4673163797706, 239.01700616814196, 57.573889867868274, 882.653788542375, -0.0800000037997961, 0.2240000106394291, 0.9920000471174717, 0.0, 0.0, 0.0, 0.0, 0.0, 1.636073917541292E9, 0.0, 2021-11-04 19:58:37.541
36.0, 1169.9828223381191, 238.35504387598485, 54.79888410074636, 883.7944580288604, -0.0800000037997961, 0.2240000106394291, 0.9920000471174717, 0.0, 0.0, 0.0, 0.0, 0.0, 1.636073917541292E9, 0.0, 2021-11-04 19:58:37.541
37.0, 1170.4166507329792, 234.3757903231308, 55.887194987852126, 881.4158816570416, -0.0800000037997961, 0.2240000106394291, 0.9920000471174717, 0.0, 0.0, 0.0, 0.0, 0.0, 1.6360739175420437E9, 0.0, 2021-11-04 19:58:37.542
37.0, 1165.3640458928421, 229.6971754785627, 42.288918748963624, 881.640275654383, -0.0800000037997961, 0.2240000106394291, 0.9920000471174717, 0.0, 0.0, 0.0, 0.0, 0.0, 1.6360739175420437E9, 0.0, 2021-11-04 19:58:37.542
38.0, 1164.3505330048501, 230.5124736689031, 37.65892260381952, 878.4613606920466, -0.0800000037997961, 0.2240000106394291, 0.9920000471174717, 0.0, 0.0, 0.0, 0.0, 0.0, 1.6360739175427303E9, 0.0, 2021-11-04 19:58:37.542
38.0, 1176.8567584566772, 244.3388838050887, 50.79345124820247, 889.5539039606228, -0.0800000037997961, 0.2240000106394291, 0.9920000471174717, 0.0, 0.0, 0.0, 0.0, 0.0, 1.6360739175427303E9, 0.0, 2021-11-04 19:58:37.542
39.0, 1166.4972355794162, 236.7057479955256, 50.363362753298134, 880.5856238668784, -0.0800000037997961, 0.2240000106394291, 0.9920000471174717, 0.0, 0.0, 0.0, 0.0, 0.0, 1.6360739175534537E9, 0.0, 2021-11-04 19:58:37.553
39.0, 1169.85192583967, 240.61020354926586, 55.902154587674886, 881.9843464503065, -0.0800000037997961, 0.2240000106394291, 0.9920000471174717, 0.0, 0.0, 0.0, 0.0, 0.0, 1.6360739175534537E9, 0.0, 2021-11-04 19:58:37.553
40.0, 1172.686770006083, 241.04777184408158, 51.459153440315276, 883.7757585290819, -0.0800000037997961, 0.2240000106394291, 0.9920000471174717, 0.0, 0.0, 0.0, 0.0, 0.0, 1.636073917568464E9, 0.0, 2021-11-04 19:58:37.568
40.0, 1164.5263083027676, 242.0089261326939, 56.60899567930028, 877.8704564990476, -0.0800000037997961, 0.2240000106394291, 0.9920000471174717, 0.0, 0.0, 0.0, 0.0, 0.0, 1.636073917568464E9, 0.0, 2021-11-04 19:58:37.568
41.0, 1160.9060851456597, 238.7439934713766, 51.58257013885304, 878.577297590673, -0.0800000037997961, 0.2400000113993883, 0.9920000471174717, 0.0, 0.0, 0.0, 0.0, 0.0, 1.6360739175842452E9, 0.0, 2021-11-04 19:58:37.584
41.0, 1177.4364429498091, 240.99167334474623, 47.56591758644208, 888.5964895719662, -0.0800000037997961, 0.2400000113993883, 0.9920000471174717, 0.0, 0.0, 0.0, 0.0, 0.0, 1.6360739175842452E9, 0.0, 2021-11-04 19:58:37.584
42.0, 1180.3273856155574, 248.62106925435364, 49.129195767920464, 887.9307873798534, -0.0800000037997961, 0.2400000113993883, 0.9920000471174717, 0.0, 0.0, 0.0, 0.0, 0.0, 1.636073917584838E9, 0.0, 2021-11-04 19:58:37.584
42.0, 1167.742622264661, 248.01520546153188, 56.09288948541507, 881.7337731532753, -0.0800000037997961, 0.2400000113993883, 0.9920000471174717, 0.0, 0.0, 0.0, 0.0, 0.0, 1.636073917584838E9, 0.0, 2021-11-04 19:58:37.584
43.0, 1172.8962044036016, 243.25805271789432, 50.99540584580973, 884.0300717260689, -0.0800000037997961, 0.2400000113993883, 0.9920000471174717, 0.0, 0.0, 0.0, 0.0, 0.0, 1.6360739175984256E9, 0.0, 2021-11-04 19:58:37.598
43.0, 1173.1168585009873, 234.891896517016, 50.01181215746328, 883.6710413303226, -0.0800000037997961, 0.2400000113993883, 0.9920000471174717, 0.0, 0.0, 0.0, 0.0, 0.0, 1.6360739175984256E9, 0.0, 2021-11-04 19:58:37.598
44.0, 1174.24256838765, 239.69018816016614, 40.44888797076419, 876.5427920147777, -0.0800000037997961, 0.2400000113993883, 0.9920000471174717, 0.0, 0.0, 0.0, 0.0, 0.0, 1.6360739176138837E9, 0.0, 2021-11-04 19:58:37.613
44.0, 1169.5302944434807, 240.53540555015206, 33.372997254598886, 879.8825226752087, -0.0800000037997961, 0.2400000113993883, 0.9920000471174717, 0.0, 0.0, 0.0, 0.0, 0.0, 1.6360739176138837E9, 0.0, 2021-11-04 19:58:37.613
45.0, 1175.4542959732935, 240.67752174846828, 50.24368595471606, 881.6739347539842, -0.0800000037997961, 0.2400000113993883, 0.9920000471174717, 0.0, 0.0, 0.0, 0.0, 0.0, 1.6360739176455135E9, 0.0, 2021-11-04 19:58:37.645
45.0, 1184.9461620608345, 243.57220431417227, 50.04921115702018, 884.7107335180044, -0.0800000037997961, 0.2400000113993883, 0.9920000471174717, 0.0, 0.0, 0.0, 0.0, 0.0, 1.6360739176455135E9, 0.0, 2021-11-04 19:58:37.645
46.0, 1186.6365968408063, 240.80093844700605, 42.662908744532615, 887.440860485658, -0.0800000037997961, 0.2400000113993883, 0.9920000471174717, 0.0, 0.0, 0.0, 0.0, 0.0, 1.6360739176462364E9, 0.0, 2021-11-04 19:58:37.646
46.0, 1181.9804213959724, 239.1105036670342, 38.616336992476135, 877.298251805827, -0.0800000037997961, 0.2400000113993883, 0.9920000471174717, 0.0, 0.0, 0.0, 0.0, 0.0, 1.6360739176462364E9, 0.0, 2021-11-04 19:58:37.646
47.0, 1172.6456311065704, 240.5204459503293, 40.34043087204918, 877.1561356075108, -0.0800000037997961, 0.2400000113993883, 0.9920000471174717, 0.0, 0.0, 0.0, 0.0, 0.0, 1.636073917647092E9, 0.0, 2021-11-04 19:58:37.647
47.0, 1168.0006753616035, 234.0728584267199, 44.09155052760616, 876.4941733153537, -0.0800000037997961, 0.2400000113993883, 0.9920000471174717, 0.0, 0.0, 0.0, 0.0, 0.0, 1.636073917647092E9, 0.0, 2021-11-04 19:58:37.647
48.0, 1164.0438612084836, 230.39279687032104, 40.1122969747521, 868.4122495111078, -0.0800000037997961, 0.2400000113993883, 0.9920000471174717, 0.0, 0.0, 0.0, 0.0, 0.0, 1.6360739176477413E9, 0.0, 2021-11-04 19:58:37.647
48.0, 1173.6890631942078, 238.50089997425675, 54.23789910739288, 873.2965588532388, -0.0800000037997961, 0.2400000113993883, 0.9920000471174717, 0.0, 0.0, 0.0, 0.0, 0.0, 1.6360739176477413E9, 0.0, 2021-11-04 19:58:37.647
49.0, 1172.4511563088745, 240.56906464975327, 61.29883022373542, 879.3327573817223, -0.0800000037997961, 0.2400000113993883, 0.9920000471174717, 0.0, 0.0, 0.0, 0.0, 0.0, 1.6360739176584775E9, 0.0, 2021-11-04 19:58:37.658
49.0, 1170.805600328371, 240.98419354483485, 39.78318577865139, 872.0212529683486, -0.0800000037997961, 0.2400000113993883, 0.9920000471174717, 0.0, 0.0, 0.0, 0.0, 0.0, 1.6360739176584775E9, 0.0, 2021-11-04 19:58:37.658
50.0, 1172.335219410248, 236.24574030097574, 42.83494414249435, 876.2024611188099, -0.0800000037997961, 0.2400000113993883, 0.9920000471174717, 0.0, 0.0, 0.0, 0.0, 0.0, 1.6360739176743228E9, 0.0, 2021-11-04 19:58:37.674
50.0, 1164.8778588986024, 246.1938741831109, 59.552296944428235, 876.6400294136256, -0.0800000037997961, 0.2400000113993883, 0.9920000471174717, 0.0, 0.0, 0.0, 0.0, 0.0, 1.6360739176743228E9, 0.0, 2021-11-04 19:58:37.674
51.0, 1161.0033225445077, 241.10387034341693, 49.495705963578075, 871.9202756695449, -0.0800000037997961, 0.2400000113993883, 0.9920000471174717, 0.0, 0.0, 0.0, 0.0, 0.0, 1.6360739176749043E9, 0.0, 2021-11-04 19:58:37.674
51.0, 1166.13820518367, 244.81385109946132, 53.572196915280074, 878.6146965902299, -0.0800000037997961, 0.2400000113993883, 0.9920000471174717, 0.0, 0.0, 0.0, 0.0, 0.0, 1.6360739176749043E9, 0.0, 2021-11-04 19:58:37.674
52.0, 1167.7725414643064, 242.079984231852, 63.3445554994978, 880.5220455676317, -0.06400000303983688, 0.2400000113993883, 0.9920000471174717, 0.0, 0.0, 0.0, 0.0, 0.0, 1.6360739176884725E9, 0.0, 2021-11-04 19:58:37.688
52.0, 1166.512195179239, 240.6700419485569, 58.45650625741109, 878.3753429930657, -0.06400000303983688, 0.2400000113993883, 0.9920000471174717, 0.0, 0.0, 0.0, 0.0, 0.0, 1.6360739176884725E9, 0.0, 2021-11-04 19:58:37.688
53.0, 1167.4920489676297, 242.14356253109872, 46.56736429827288, 883.2372129354626, -0.06400000303983688, 0.2400000113993883, 0.9920000471174717, 0.0, 0.0, 0.0, 0.0, 0.0, 1.636073917704354E9, 0.0, 2021-11-04 19:58:37.704
53.0, 1167.5705868666992, 250.4536202326417, 58.90529425209388, 879.3065780820325, -0.06400000303983688, 0.2400000113993883, 0.9920000471174717, 0.0, 0.0, 0.0, 0.0, 0.0, 1.636073917704354E9, 0.0, 2021-11-04 19:58:37.704
54.0, 1167.5705868666992, 243.7816387116909, 58.733258854132146, 885.6195292072371, -0.06400000303983688, 0.2400000113993883, 0.9920000471174717, 0.0, 0.0, 0.0, 0.0, 0.0, 1.636073917704921E9, 0.0, 2021-11-04 19:58:37.704
54.0, 1175.6001520715654, 240.28857215307653, 53.68439391395077, 889.7558585582301, -0.06400000303983688, 0.2400000113993883, 0.9920000471174717, 0.0, 0.0, 0.0, 0.0, 0.0, 1.636073917704921E9, 0.0, 2021-11-04 19:58:37.704
55.0, 1165.9960889853537, 239.86596345808357, 58.5275643565692, 881.5953968549147, -0.06400000303983688, 0.2400000113993883, 0.9920000471174717, 0.0, 0.0, 0.0, 0.0, 0.0, 1.636073917718512E9, 0.0, 2021-11-04 19:58:37.718
55.0, 1161.3286938406527, 236.97876069229096, 44.52537892246619, 877.298251805827, -0.06400000303983688, 0.2400000113993883, 0.9920000471174717, 0.0, 0.0, 0.0, 0.0, 0.0, 1.636073917718512E9, 0.0, 2021-11-04 19:58:37.718
56.0, 1164.4402906037867, 239.24140016548336, 56.27614458324388, 882.2610990470275, -0.06400000303983688, 0.2400000113993883, 0.9920000471174717, 0.0, 0.0, 0.0, 0.0, 0.0, 1.6360739177343688E9, 0.0, 2021-11-04 19:58:37.734
56.0, 1167.3125337697566, 242.64096922520548, 56.97924577491358, 888.3683556746691, -0.06400000303983688, 0.2400000113993883, 0.9920000471174717, 0.0, 0.0, 0.0, 0.0, 0.0, 1.6360739177343688E9, 0.0, 2021-11-04 19:58:37.734
57.0, 1163.8007677113637, 242.10242363158613, 60.98093872750178, 875.1739886309952, -0.06400000303983688, 0.2400000113993883, 0.9920000471174717, 0.0, 0.0, 0.0, 0.0, 0.0, 1.6360739177348955E9, 0.0, 2021-11-04 19:58:37.734
57.0, 1161.3922721398994, 240.4830469507724, 50.61393605032936, 871.5874245734885, -0.06400000303983688, 0.2400000113993883, 0.9920000471174717, 0.0, 0.0, 0.0, 0.0, 0.0, 1.6360739177348955E9, 0.0, 2021-11-04 19:58:37.734
58.0, 1161.2314564418048, 246.06297768466175, 41.454921058844775, 875.0318724326789, -0.06400000303983688, 0.2400000113993883, 0.9920000471174717, 0.0, 0.0, 0.0, 0.0, 0.0, 1.6360739177484746E9, 0.0, 2021-11-04 19:58:37.748
58.0, 1166.594472978264, 239.12920316681266, 60.10206223791465, 874.9682941334322, -0.06400000303983688, 0.2400000113993883, 0.9920000471174717, 0.0, 0.0, 0.0, 0.0, 0.0, 1.6360739177484746E9, 0.0, 2021-11-04 19:58:37.748
59.0, 1165.9736495856196, 237.62202348466963, 51.44793374044821, 872.2194676660001, -0.06400000303983688, 0.2400000113993883, 0.9920000471174717, 0.0, 0.0, 0.0, 0.0, 0.0, 1.6360739177642908E9, 0.0, 2021-11-04 19:58:37.764
59.0, 1158.0899404790252, 240.75979954749346, 48.20170057890937, 866.3403449356556, -0.06400000303983688, 0.2400000113993883, 0.9920000471174717, 0.0, 0.0, 0.0, 0.0, 0.0, 1.6360739177642908E9, 0.0, 2021-11-04 19:58:37.764
60.0, 1161.9083783337846, 246.2275332827121, 56.2312657837756, 871.8305180706084, -0.06400000303983688, 0.2400000113993883, 0.9920000471174717, 0.0, 0.0, 0.0, 0.0, 0.0, 1.6360739177649455E9, 0.0, 2021-11-04 19:58:37.764
60.0, 1158.430271374993, 244.36880300473422, 62.11412841407582, 871.9726342689246, -0.06400000303983688, 0.2400000113993883, 0.9920000471174717, 0.0, 0.0, 0.0, 0.0, 0.0, 1.6360739177649455E9, 0.0, 2021-11-04 19:58:37.764
61.0, 1150.2698096716776, 247.0054324734956, 50.13148895604536, 867.4473553225398, -0.06400000303983688, 0.2240000106394291, 0.9920000471174717, 0.0, 0.0, 0.0, 0.0, 0.0, 1.6360739177785296E9, 0.0, 2021-11-04 19:58:37.778
61.0, 1158.0749808792025, 242.45397422742099, 48.6355289737694, 870.0952044911683, -0.06400000303983688, 0.2240000106394291, 0.9920000471174717, 0.0, 0.0, 0.0, 0.0, 0.0, 1.6360739177785296E9, 0.0, 2021-11-04 19:58:37.778
62.0, 1164.9937957972288, 236.10362410265952, 64.84799528168514, 871.6435230728239, -0.06400000303983688, 0.2240000106394291, 0.9920000471174717, 0.0, 0.0, 0.0, 0.0, 0.0, 1.6360739177942464E9, 0.0, 2021-11-04 19:58:37.794
62.0, 1161.0407215440646, 241.705994236283, 56.25744508346543, 872.2119878660887, -0.06400000303983688, 0.2240000106394291, 0.9920000471174717, 0.0, 0.0, 0.0, 0.0, 0.0, 1.6360739177942464E9, 0.0, 2021-11-04 19:58:37.794
63.0, 1166.2990208817646, 244.9709268976003, 59.65327424323186, 874.8635769346729, -0.06400000303983688, 0.2240000106394291, 0.9920000471174717, 0.0, 0.0, 0.0, 0.0, 0.0, 1.6360739177948728E9, 0.0, 2021-11-04 19:58:37.794
63.0, 1157.985223280266, 246.8184374757111, 49.73879946069792, 871.6136038731784, -0.06400000303983688, 0.2240000106394291, 0.9920000471174717, 0.0, 0.0, 0.0, 0.0, 0.0, 1.6360739177948728E9, 0.0, 2021-11-04 19:58:37.794
64.0, 1148.7140112901106, 242.79804502334446, 47.16948819113895, 868.0980979148299, -0.06400000303983688, 0.2240000106394291, 0.9920000471174717, 0.0, 0.0, 0.0, 0.0, 0.0, 1.6360739178085268E9, 0.0, 2021-11-04 19:58:37.808
64.0, 1155.801121706143, 242.81300462316722, 46.290611701551825, 875.102930531837, -0.06400000303983688, 0.2240000106394291, 0.9920000471174717, 0.0, 0.0, 0.0, 0.0, 0.0, 1.6360739178085268E9, 0.0, 2021-11-04 19:58:37.808
65.0, 1159.806554558687, 240.80093844700605, 55.550603991840035, 876.3445773171261, -0.06400000303983688, 0.2240000106394291, 0.9920000471174717, 0.0, 0.0, 0.0, 0.0, 0.0, 1.6360739178242943E9, 0.0, 2021-11-04 19:58:37.824
65.0, 1148.515796592459, 242.9326814217493, 64.51888408558443, 872.9412683574483, -0.06400000303983688, 0.2240000106394291, 0.9920000471174717, 0.0, 0.0, 0.0, 0.0, 0.0, 1.6360739178242943E9, 0.0, 2021-11-04 19:58:37.824
66.0, 1151.7208908544853, 241.96030743326992, 41.855090354103595, 874.6541425371543, -0.06400000303983688, 0.2240000106394291, 0.9920000471174717, 0.0, 0.0, 0.0, 0.0, 0.0, 1.636073917824983E9, 0.0, 2021-11-04 19:58:37.824
66.0, 1145.9689247226343, 239.39099616371095, 52.08745663287118, 873.221760854125, -0.06400000303983688, 0.2240000106394291, 0.9920000471174717, 0.0, 0.0, 0.0, 0.0, 0.0, 1.636073917824983E9, 0.0, 2021-11-04 19:58:37.824
67.0, 1148.0670085977763, 245.43841439206153, 58.02641776250675, 871.3667704761028, -0.06400000303983688, 0.2240000106394291, 0.9920000471174717, 0.0, 0.0, 0.0, 0.0, 0.0, 1.6360739178385465E9, 0.0, 2021-11-04 19:58:37.838
67.0, 1149.4769508810714, 249.47002654429525, 54.11448240885511, 871.5388058740646, -0.06400000303983688, 0.2240000106394291, 0.9920000471174717, 0.0, 0.0, 0.0, 0.0, 0.0, 1.6360739178385465E9, 0.0, 2021-11-04 19:58:37.838
68.0, 1146.6570663144812, 239.75002655945718, 36.76508651440963, 867.1519032260403, -0.06400000303983688, 0.2240000106394291, 0.9920000471174717, 0.0, 0.0, 0.0, 0.0, 0.0, 1.6360739178542492E9, 0.0, 2021-11-04 19:58:37.854
68.0, 1157.5439150854945, 248.8641627514735, 73.53204297879711, 875.2674861298874, -0.06400000303983688, 0.2240000106394291, 0.9920000471174717, 0.0, 0.0, 0.0, 0.0, 0.0, 1.6360739178542492E9, 0.0, 2021-11-04 19:58:37.854
69.0, 1151.616173655726, 246.82965717557818, 61.130534725729376, 865.394150246866, -0.06400000303983688, 0.2240000106394291, 0.9920000471174717, 0.0, 0.0, 0.0, 0.0, 0.0, 1.6360739178549075E9, 0.0, 2021-11-04 19:58:37.854
69.0, 1162.5740805258974, 249.0810769489035, 56.99794527469203, 873.8425842467695, -0.06400000303983688, 0.2240000106394291, 0.9920000471174717, 0.0, 0.0, 0.0, 0.0, 0.0, 1.6360739178549075E9, 0.0, 2021-11-04 19:58:37.854
70.0, 1161.253895841539, 242.4090954279527, 47.72299338458106, 870.5402525858954, -0.06400000303983688, 0.2240000106394291, 0.9920000471174717, 0.0, 0.0, 0.0, 0.0, 0.0, 1.6360739178685145E9, 0.0, 2021-11-04 19:58:37.868
70.0, 1158.2096172776073, 238.3026852766052, 28.76544050918892, 860.6556970030069, -0.06400000303983688, 0.2240000106394291, 0.9920000471174717, 0.0, 0.0, 0.0, 0.0, 0.0, 1.6360739178685145E9, 0.0, 2021-11-04 19:58:37.868
71.0, 1162.6787977246568, 241.24972644168884, 35.841331225354224, 866.4226227346808, -0.06400000303983688, 0.2400000113993883, 0.9920000471174717, 0.0, 0.0, 0.0, 0.0, 0.0, 1.6360739178843098E9, 0.0, 2021-11-04 19:58:37.884
71.0, 1161.0332417441532, 243.10097691975534, 53.130888720508665, 864.6760894553736, -0.06400000303983688, 0.2400000113993883, 0.9920000471174717, 0.0, 0.0, 0.0, 0.0, 0.0, 1.6360739178843098E9, 0.0, 2021-11-04 19:58:37.884
72.0, 1163.3482398167253, 236.7805459946394, 51.533951439429075, 861.5083941929042, -0.06400000303983688, 0.2400000113993883, 0.9920000471174717, 0.0, 0.0, 0.0, 0.0, 0.0, 1.6360739178848844E9, 0.0, 2021-11-04 19:58:37.884
