%OpenBCI Raw EEG Data
%Number of channels = 4
%Sample Rate = 200 Hz
%Board = OpenBCI_GUI$BoardGanglionBLE
Sample Index, EXG Channel 0, EXG Channel 1, EXG Channel 2, EXG Channel 3, Accel Channel 0, Accel Channel 1, Accel Channel 2, Other, Other, Other, Other, Other, Timestamp, Timestamp (Formatted)
38.0, 187.8028106689453, 209.13894653320312, 171.71002197265625, -17.824363708496094, 0.0, 0.0, 0.0, 0.0, 0.0, 0.0, 0.0, 0.0, 1.6024560371370516E9, 2020-10-11 17:40:37.137
38.0, 26.089542388916016, 33.89097213745117, 20.105701446533203, 225.69921875, 0.0, 0.0, 0.0, 0.0, 0.0, 0.0, 0.0, 0.0, 1.6024560371370516E9, 2020-10-11 17:40:37.137
0.0, 348.88592529296875, 366.3138427734375, -738.906982421875, -401.3716735839844, 0.0, 0.0, 0.0, 0.0, 0.0, 0.0, 0.0, 0.0, 1.6024560371584575E9, 2020-10-11 17:40:37.158
1.0, 106.51795959472656, 590.1861572265625, -964.1686401367188, -590.9976806640625, 0.0, 0.03200000151991844, 0.0, 0.0, 0.0, 0.0, 0.0, 0.0, 1.6024560371717901E9, 2020-10-11 17:40:37.171
1.0, 171.0648956298828, 663.5031127929688, -903.0736694335938, -607.868408203125, 0.0, 0.03200000151991844, 0.0, 0.0, 0.0, 0.0, 0.0, 0.0, 1.6024560371717901E9, 2020-10-11 17:40:37.171
2.0, 333.61590576171875, 844.31982421875, -744.8010864257812, -578.51953125, 0.0, 0.03200000151991844, 0.0, 0.0, 0.0, 0.0, 0.0, 0.0, 1.6024560371885483E9, 2020-10-11 17:40:37.188
2.0, 140.94747924804688, 644.654052734375, -931.3135986328125, -777.932861328125, 0.0, 0.03200000151991844, 0.0, 0.0, 0.0, 0.0, 0.0, 0.0, 1.6024560371885483E9, 2020-10-11 17:40:37.188
3.0, 78.82774353027344, 559.6236572265625, -991.7691040039062, -869.343505859375, 0.0, 0.03200000151991844, 0.0, 0.0, 0.0, 0.0, 0.0, 0.0, 1.602456037189282E9, 2020-10-11 17:40:37.189
3.0, 268.4331970214844, 776.96044921875, -825.586669921875, -1050.3546142578125, 0.0, 0.03200000151991844, 0.0, 0.0, 0.0, 0.0, 0.0, 0.0, 1.602456037189282E9, 2020-10-11 17:40:37.189
4.0, 205.70758056640625, 720.2037353515625, -887.2501220703125, -1129.3731689453125, 0.0, 0.03200000151991844, 0.0, 0.0, 0.0, 0.0, 0.0, 0.0, 1.6024560372023296E9, 2020-10-11 17:40:37.202
4.0, 5.065694332122803, 496.9466857910156, -1067.509521484375, -1200.5902099609375, 0.0, 0.03200000151991844, 0.0, 0.0, 0.0, 0.0, 0.0, 0.0, 1.6024560372023296E9, 2020-10-11 17:40:37.202
5.0, 160.93350219726562, 677.0415649414062, -917.2179565429688, -1384.4698486328125, 0.0, 0.03200000151991844, 0.0, 0.0, 0.0, 0.0, 0.0, 0.0, 1.6024560372173467E9, 2020-10-11 17:40:37.217
5.0, 248.76132202148438, 767.745361328125, -857.5291137695312, -1454.174072265625, 0.0, 0.03200000151991844, 0.0, 0.0, 0.0, 0.0, 0.0, 0.0, 1.6024560372173467E9, 2020-10-11 17:40:37.217
6.0, 8.884132385253906, 994.5459594726562, -1075.228759765625, -1644.8809814453125, 0.0, 0.03200000151991844, 0.0, 0.0, 0.0, 0.0, 0.0, 0.0, 1.6024560372180712E9, 2020-10-11 17:40:37.218
6.0, 80.17784881591797, 1065.5853271484375, -1014.0103149414062, -1668.1356201171875, 0.0, 0.03200000151991844, 0.0, 0.0, 0.0, 0.0, 0.0, 0.0, 1.6024560372180712E9, 2020-10-11 17:40:37.218
7.0, 243.5965118408203, 1246.8546142578125, -863.9580078125, -1633.1170654296875, 0.0, 0.03200000151991844, 0.0, 0.0, 0.0, 0.0, 0.0, 0.0, 1.6024560372316144E9, 2020-10-11 17:40:37.231
7.0, 51.7920036315918, 1041.6126708984375, -1036.9471435546875, -1824.646728515625, 0.0, 0.03200000151991844, 0.0, 0.0, 0.0, 0.0, 0.0, 0.0, 1.6024560372316144E9, 2020-10-11 17:40:37.231
8.0, -47.07973098754883, 929.0864868164062, -1139.85791015625, -1953.5797119140625, 0.0, 0.03200000151991844, 0.0, 0.0, 0.0, 0.0, 0.0, 0.0, 1.6024560372473297E9, 2020-10-11 17:40:37.247
8.0, 159.6993408203125, 1150.391357421875, -959.172119140625, -2119.376953125, 0.0, 0.03200000151991844, 0.0, 0.0, 0.0, 0.0, 0.0, 0.0, 1.6024560372473297E9, 2020-10-11 17:40:37.247
9.0, 120.34062957763672, 1117.293212890625, -982.6250610351562, -2172.934326171875, 0.0, 0.03200000151991844, 0.0, 0.0, 0.0, 0.0, 0.0, 0.0, 1.6024560372480807E9, 2020-10-11 17:40:37.248
9.0, -70.6897201538086, 910.7684936523438, -1144.0054931640625, -2237.90185546875, 0.0, 0.03200000151991844, 0.0, 0.0, 0.0, 0.0, 0.0, 0.0, 1.6024560372480807E9, 2020-10-11 17:40:37.248
10.0, 83.04634857177734, 1076.7901611328125, -1008.2059936523438, -2430.0205078125, 0.0, 0.03200000151991844, 0.5120000243186951, 0.0, 0.0, 0.0, 0.0, 0.0, 1.6024560372616143E9, 2020-10-11 17:40:37.261
10.0, 172.3252410888672, 1173.76953125, -939.1860961914062, -2492.03173828125, 0.0, 0.03200000151991844, 0.5120000243186951, 0.0, 0.0, 0.0, 0.0, 0.0, 1.6024560372616143E9, 2020-10-11 17:40:37.261
11.0, 409.15252685546875, 1388.8043212890625, -1175.409423828125, -2687.9931640625, 0.0, 0.01600000075995922, 0.5120000243186951, 0.0, 0.0, 0.0, 0.0, 0.0, 1.602456037277337E9, 2020-10-11 17:40:37.277
11.0, 489.4519348144531, 1474.9566650390625, -1101.452880859375, -2712.426025390625, 0.0, 0.01600000075995922, 0.5120000243186951, 0.0, 0.0, 0.0, 0.0, 0.0, 1.602456037277337E9, 2020-10-11 17:40:37.277
12.0, 663.6414794921875, 1658.731689453125, -946.7481689453125, -2670.140869140625, 0.0, 0.01600000075995922, 0.5120000243186951, 0.0, 0.0, 0.0, 0.0, 0.0, 1.6024560372780747E9, 2020-10-11 17:40:37.278
12.0, 478.617431640625, 1462.768310546875, -1107.369384765625, -2851.6474609375, 0.0, 0.01600000075995922, 0.5120000243186951, 0.0, 0.0, 0.0, 0.0, 0.0, 1.6024560372780747E9, 2020-10-11 17:40:37.278
13.0, 418.6331787109375, 1393.490478515625, -1150.9691162109375, -2958.25341796875, 0.0, 0.01600000075995922, 0.5120000243186951, 0.0, 0.0, 0.0, 0.0, 0.0, 1.6024560372916136E9, 2020-10-11 17:40:37.291
13.0, 611.8925170898438, 1602.0833740234375, -987.8272705078125, -3130.72998046875, 0.0, 0.01600000075995922, 0.5120000243186951, 0.0, 0.0, 0.0, 0.0, 0.0, 1.6024560372916136E9, 2020-10-11 17:40:37.291
14.0, 555.240478515625, 1547.9969482421875, -1043.7275390625, -3192.103759765625, 0.0, 0.01600000075995922, 0.5120000243186951, 0.0, 0.0, 0.0, 0.0, 0.0, 1.6024560373073473E9, 2020-10-11 17:40:37.307
14.0, 382.5094909667969, 1354.674072265625, -1201.326904296875, -3259.132080078125, 0.0, 0.01600000075995922, 0.5120000243186951, 0.0, 0.0, 0.0, 0.0, 0.0, 1.6024560373073473E9, 2020-10-11 17:40:37.307
15.0, 541.1149291992188, 1526.473876953125, -1054.382568359375, -3453.950927734375, 0.0, 0.01600000075995922, 0.5120000243186951, 0.0, 0.0, 0.0, 0.0, 0.0, 1.6024560373081892E9, 2020-10-11 17:40:37.308
15.0, 619.3798217773438, 1626.6732177734375, -986.3873901367188, -3497.333740234375, 0.0, 0.01600000075995922, 0.5120000243186951, 0.0, 0.0, 0.0, 0.0, 0.0, 1.6024560373081892E9, 2020-10-11 17:40:37.308
16.0, 376.9407653808594, 1847.5198974609375, -1195.1822509765625, -3699.709228515625, 0.0, 0.01600000075995922, 0.5120000243186951, 0.0, 0.0, 0.0, 0.0, 0.0, 1.602456037321627E9, 2020-10-11 17:40:37.321
16.0, 459.5514221191406, 1925.5865478515625, -1113.611328125, -3721.67724609375, 0.0, 0.01600000075995922, 0.5120000243186951, 0.0, 0.0, 0.0, 0.0, 0.0, 1.602456037321627E9, 2020-10-11 17:40:37.321
17.0, 628.8118286132812, 2120.973876953125, -960.1257934570312, -3671.418701171875, 0.0, 0.01600000075995922, 0.5120000243186951, 0.0, 0.0, 0.0, 0.0, 0.0, 1.6024560373373382E9, 2020-10-11 17:40:37.337
17.0, 434.71099853515625, 1911.6180419921875, -1150.161376953125, -3862.56298828125, 0.0, 0.01600000075995922, 0.5120000243186951, 0.0, 0.0, 0.0, 0.0, 0.0, 1.6024560373373382E9, 2020-10-11 17:40:37.337
18.0, 377.0716857910156, 1842.6954345703125, -1206.981689453125, -3978.0400390625, 0.0, 0.01600000075995922, 0.5120000243186951, 0.0, 0.0, 0.0, 0.0, 0.0, 1.602456037338071E9, 2020-10-11 17:40:37.338
18.0, 588.2077026367188, 2072.785400390625, -1007.0278930664062, -4127.5126953125, 0.0, 0.01600000075995922, 0.5120000243186951, 0.0, 0.0, 0.0, 0.0, 0.0, 1.602456037338071E9, 2020-10-11 17:40:37.338
19.0, 525.964599609375, 2009.8240966796875, -1066.5408935546875, -4183.908203125, 0.0, 0.01600000075995922, 0.5120000243186951, 0.0, 0.0, 0.0, 0.0, 0.0, 1.602456037351602E9, 2020-10-11 17:40:37.351
19.0, 330.4800109863281, 1794.884521484375, -1241.2503662109375, -4273.1552734375, 0.0, 0.01600000075995922, 0.5120000243186951, 0.0, 0.0, 0.0, 0.0, 0.0, 1.602456037351602E9, 2020-10-11 17:40:37.351
20.0, 499.9423522949219, 1982.89306640625, -1074.1217041015625, -4457.55859375, 0.0, 0.01600000075995922, 0.7520000338554382, 0.0, 0.0, 0.0, 0.0, 0.0, 1.6024560373673646E9, 2020-10-11 17:40:37.367
20.0, 587.3849487304688, 2085.26171875, -989.7532958984375, -4495.4326171875, 0.0, 0.01600000075995922, 0.7520000338554382, 0.0, 0.0, 0.0, 0.0, 0.0, 1.6024560373673646E9, 2020-10-11 17:40:37.367
21.0, 355.7131042480469, 2314.369873046875, -1220.8529052734375, -4697.228515625, 0.0, 0.01600000075995922, 0.7520000338554382, 0.0, 0.0, 0.0, 0.0, 0.0, 1.6024560373680613E9, 2020-10-11 17:40:37.368
21.0, 426.3074645996094, 2386.837890625, -1139.225830078125, -4724.8251953125, 0.0, 0.01600000075995922, 0.7520000338554382, 0.0, 0.0, 0.0, 0.0, 0.0, 1.6024560373680613E9, 2020-10-11 17:40:37.368
22.0, 593.65673828125, 2578.062744140625, -994.18505859375, -4677.84619140625, 0.0, 0.01600000075995922, 0.7520000338554382, 0.0, 0.0, 0.0, 0.0, 0.0, 1.602456037381595E9, 2020-10-11 17:40:37.381
22.0, 401.2127380371094, 2367.693359375, -1180.5517578125, -4855.92333984375, 0.0, 0.01600000075995922, 0.7520000338554382, 0.0, 0.0, 0.0, 0.0, 0.0, 1.602456037381595E9, 2020-10-11 17:40:37.381
23.0, 355.8066101074219, 2308.591552734375, -1229.7015380859375, -4978.9697265625, 0.0, 0.01600000075995922, 0.7520000338554382, 0.0, 0.0, 0.0, 0.0, 0.0, 1.6024560373973365E9, 2020-10-11 17:40:37.397
23.0, 551.4071044921875, 2525.367431640625, -1037.7847900390625, -5140.04345703125, 0.0, 0.01600000075995922, 0.7520000338554382, 0.0, 0.0, 0.0, 0.0, 0.0, 1.6024560373973365E9, 2020-10-11 17:40:37.397
24.0, 493.44989013671875, 2473.005126953125, -1076.829345703125, -5176.3115234375, 0.0, 0.01600000075995922, 0.7520000338554382, 0.0, 0.0, 0.0, 0.0, 0.0, 1.6024560373980708E9, 2020-10-11 17:40:37.398
24.0, 328.7671203613281, 2278.406982421875, -1235.2628173828125, -5260.38232421875, 0.0, 0.01600000075995922, 0.7520000338554382, 0.0, 0.0, 0.0, 0.0, 0.0, 1.6024560373980708E9, 2020-10-11 17:40:37.398
25.0, 503.9103698730469, 2465.981689453125, -1079.1219482421875, -5445.59716796875, 0.0, 0.01600000075995922, 0.7520000338554382, 0.0, 0.0, 0.0, 0.0, 0.0, 1.6024560374117267E9, 2020-10-11 17:40:37.411
25.0, 575.9483032226562, 2561.722900390625, -1007.869384765625, -5481.029296875, 0.0, 0.01600000075995922, 0.7520000338554382, 0.0, 0.0, 0.0, 0.0, 0.0, 1.6024560374117267E9, 2020-10-11 17:40:37.411
26.0, 332.08441162109375, 2787.1474609375, -1235.7041015625, -5688.72265625, 0.0, 0.01600000075995922, 0.7520000338554382, 0.0, 0.0, 0.0, 0.0, 0.0, 1.6024560374593618E9, 2020-10-11 17:40:37.459
26.0, 412.7764892578125, 2865.22900390625, -1161.1641845703125, -5724.29638671875, 0.0, 0.01600000075995922, 0.7520000338554382, 0.0, 0.0, 0.0, 0.0, 0.0, 1.6024560374593618E9, 2020-10-11 17:40:37.459
27.0, 603.3880004882812, 3080.011474609375, -986.23779296875, -5648.57666015625, 0.0, 0.01600000075995922, 0.7520000338554382, 0.0, 0.0, 0.0, 0.0, 0.0, 1.6024560374601047E9, 2020-10-11 17:40:37.460
27.0, 414.014404296875, 2878.569091796875, -1149.8734130859375, -5816.9111328125, 0.0, 0.01600000075995922, 0.7520000338554382, 0.0, 0.0, 0.0, 0.0, 0.0, 1.6024560374601047E9, 2020-10-11 17:40:37.460
28.0, 367.30303955078125, 2817.45166015625, -1187.627685546875, -5945.60498046875, 0.0, 0.01600000075995922, 0.7520000338554382, 0.0, 0.0, 0.0, 0.0, 0.0, 1.602456037460896E9, 2020-10-11 17:40:37.460
28.0, 571.8756103515625, 3044.71044921875, -1014.23095703125, -6105.7177734375, 0.0, 0.01600000075995922, 0.7520000338554382, 0.0, 0.0, 0.0, 0.0, 0.0, 1.602456037460896E9, 2020-10-11 17:40:37.460
29.0, 505.0547790527344, 2982.64306640625, -1074.38720703125, -6141.27490234375, 0.0, 0.01600000075995922, 0.7520000338554382, 0.0, 0.0, 0.0, 0.0, 0.0, 1.602456037461589E9, 2020-10-11 17:40:37.461
29.0, 330.27056884765625, 2778.556884765625, -1231.8519287109375, -6239.87548828125, 0.0, 0.01600000075995922, 0.7520000338554382, 0.0, 0.0, 0.0, 0.0, 0.0, 1.602456037461589E9, 2020-10-11 17:40:37.461
30.0, 495.71624755859375, 2968.59619140625, -1071.720703125, -6426.544921875, 0.0, 0.01600000075995922, 0.8960000276565552, 0.0, 0.0, 0.0, 0.0, 0.0, 1.602456037472328E9, 2020-10-11 17:40:37.472
30.0, 573.7754516601562, 3053.301025390625, -1004.9559936523438, -6454.79248046875, 0.0, 0.01600000075995922, 0.8960000276565552, 0.0, 0.0, 0.0, 0.0, 0.0, 1.602456037472328E9, 2020-10-11 17:40:37.472
31.0, 335.6373291015625, 3283.80419921875, -1206.1551513671875, -6657.34716796875, 0.0, 0.01600000075995922, 0.8960000276565552, 0.0, 0.0, 0.0, 0.0, 0.0, 1.602456037473039E9, 2020-10-11 17:40:37.473
31.0, 436.6146240234375, 3385.5107421875, -1126.6112060546875, -6689.611328125, 0.0, 0.01600000075995922, 0.8960000276565552, 0.0, 0.0, 0.0, 0.0, 0.0, 1.602456037473039E9, 2020-10-11 17:40:37.473
32.0, 597.5350341796875, 3562.538818359375, -978.8215942382812, -6624.4228515625, -0.01600000075995922, 0.01600000075995922, 0.8960000276565552, 0.0, 0.0, 0.0, 0.0, 0.0, 1.6024560374873238E9, 2020-10-11 17:40:37.487
32.0, 413.4758605957031, 3366.743896484375, -1159.3726806640625, -6796.048828125, -0.01600000075995922, 0.01600000075995922, 0.8960000276565552, 0.0, 0.0, 0.0, 0.0, 0.0, 1.6024560374873238E9, 2020-10-11 17:40:37.487
33.0, 368.3277893066406, 3309.276611328125, -1193.3834228515625, -6937.9296875, -0.01600000075995922, 0.01600000075995922, 0.8960000276565552, 0.0, 0.0, 0.0, 0.0, 0.0, 1.602456037488061E9, 2020-10-11 17:40:37.488
33.0, 573.83154296875, 3537.05908203125, -1014.466552734375, -7088.57666015625, -0.01600000075995922, 0.01600000075995922, 0.8960000276565552, 0.0, 0.0, 0.0, 0.0, 0.0, 1.602456037488061E9, 2020-10-11 17:40:37.488
34.0, 509.7857666015625, 3477.916259765625, -1065.62841796875, -7108.515625, -0.01600000075995922, 0.01600000075995922, 0.8960000276565552, 0.0, 0.0, 0.0, 0.0, 0.0, 1.6024560375016077E9, 2020-10-11 17:40:37.501
34.0, 342.2793884277344, 3283.6845703125, -1210.2353515625, -7214.296875, -0.01600000075995922, 0.01600000075995922, 0.8960000276565552, 0.0, 0.0, 0.0, 0.0, 0.0, 1.6024560375016077E9, 2020-10-11 17:40:37.501
35.0, 501.5505065917969, 3465.181884765625, -1055.665283203125, -7407.29443359375, -0.01600000075995922, 0.01600000075995922, 0.8960000276565552, 0.0, 0.0, 0.0, 0.0, 0.0, 1.602456037517301E9, 2020-10-11 17:40:37.517
35.0, 587.9721069335938, 3556.076416015625, -989.9515380859375, -7421.64453125, -0.01600000075995922, 0.01600000075995922, 0.8960000276565552, 0.0, 0.0, 0.0, 0.0, 0.0, 1.602456037517301E9, 2020-10-11 17:40:37.517
36.0, 357.1454772949219, 3784.302001953125, -1214.5101318359375, -7633.953125, -0.01600000075995922, 0.01600000075995922, 0.8960000276565552, 0.0, 0.0, 0.0, 0.0, 0.0, 1.6024560375180311E9, 2020-10-11 17:40:37.518
36.0, 429.3068542480469, 3861.22412109375, -1141.103271484375, -7682.12646484375, -0.01600000075995922, 0.01600000075995922, 0.8960000276565552, 0.0, 0.0, 0.0, 0.0, 0.0, 1.6024560375180311E9, 2020-10-11 17:40:37.518
37.0, 589.9430541992188, 4044.524169921875, -1003.5460815429688, -7620.3828125, -0.01600000075995922, 0.01600000075995922, 0.8960000276565552, 0.0, 0.0, 0.0, 0.0, 0.0, 1.602456037531568E9, 2020-10-11 17:40:37.531
37.0, 406.2391662597656, 3846.638671875, -1165.46875, -7777.89404296875, -0.01600000075995922, 0.01600000075995922, 0.8960000276565552, 0.0, 0.0, 0.0, 0.0, 0.0, 1.602456037531568E9, 2020-10-11 17:40:37.531
38.0, 357.1641845703125, 3784.6982421875, -1204.9471435546875, -7923.2529296875, -0.01600000075995922, 0.01600000075995922, 0.8960000276565552, 0.0, 0.0, 0.0, 0.0, 0.0, 1.6024560375473003E9, 2020-10-11 17:40:37.547
38.0, 560.7344360351562, 4009.7431640625, -1013.9317626953125, -8076.82080078125, -0.01600000075995922, 0.01600000075995922, 0.8960000276565552, 0.0, 0.0, 0.0, 0.0, 0.0, 1.6024560375473003E9, 2020-10-11 17:40:37.547
39.0, 506.6704406738281, 3959.7294921875, -1069.398193359375, -8090.17041015625, -0.01600000075995922, 0.01600000075995922, 0.8960000276565552, 0.0, 0.0, 0.0, 0.0, 0.0, 1.6024560375480292E9, 2020-10-11 17:40:37.548
39.0, 321.923095703125, 3752.52783203125, -1242.009521484375, -8214.08984375, -0.01600000075995922, 0.01600000075995922, 0.8960000276565552, 0.0, 0.0, 0.0, 0.0, 0.0, 1.6024560375480292E9, 2020-10-11 17:40:37.548
40.0, 500.8773193359375, 3946.12353515625, -1062.95068359375, -8395.00390625, -0.01600000075995922, 0.01600000075995922, 0.9600000381469727, 0.0, 0.0, 0.0, 0.0, 0.0, 1.6024560375616183E9, 2020-10-11 17:40:37.561
40.0, 573.99609375, 4036.804931640625, -1009.8627319335938, -8406.5751953125, -0.01600000075995922, 0.01600000075995922, 0.9600000381469727, 0.0, 0.0, 0.0, 0.0, 0.0, 1.6024560375616183E9, 2020-10-11 17:40:37.561
41.0, 351.8236083984375, 4275.56591796875, -1219.3607177734375, -8619.4189453125, -0.01600000075995922, 0.03200000151991844, 0.9600000381469727, 0.0, 0.0, 0.0, 0.0, 0.0, 1.6024560375773828E9, 2020-10-11 17:40:37.577
41.0, 426.5206298828125, 4360.0390625, -1137.954345703125, -8666.5, -0.01600000075995922, 0.03200000151991844, 0.9600000381469727, 0.0, 0.0, 0.0, 0.0, 0.0, 1.6024560375773828E9, 2020-10-11 17:40:37.577
42.0, 596.9703369140625, 4545.470703125, -974.0494384765625, -8583.9775390625, -0.01600000075995922, 0.03200000151991844, 0.9600000381469727, 0.0, 0.0, 0.0, 0.0, 0.0, 1.6024560375780988E9, 2020-10-11 17:40:37.578
42.0, 397.63739013671875, 4330.0185546875, -1171.1458740234375, -8755.9580078125, -0.01600000075995922, 0.03200000151991844, 0.9600000381469727, 0.0, 0.0, 0.0, 0.0, 0.0, 1.6024560375780988E9, 2020-10-11 17:40:37.578
43.0, 357.9607849121094, 4287.3203125, -1193.1029052734375, -8900.0791015625, -0.01600000075995922, 0.03200000151991844, 0.9600000381469727, 0.0, 0.0, 0.0, 0.0, 0.0, 1.6024560375916147E9, 2020-10-11 17:40:37.591
43.0, 571.4305419921875, 4517.6044921875, -999.3348999023438, -9048.86328125, -0.01600000075995922, 0.03200000151991844, 0.9600000381469727, 0.0, 0.0, 0.0, 0.0, 0.0, 1.6024560375916147E9, 2020-10-11 17:40:37.591
44.0, 502.45556640625, 4451.5732421875, -1071.9412841796875, -9066.05078125, -0.01600000075995922, 0.03200000151991844, 0.9600000381469727, 0.0, 0.0, 0.0, 0.0, 0.0, 1.6024560376073468E9, 2020-10-11 17:40:37.607
44.0, 343.02362060546875, 4267.02001953125, -1220.60986328125, -9179.5771484375, -0.01600000075995922, 0.03200000151991844, 0.9600000381469727, 0.0, 0.0, 0.0, 0.0, 0.0, 1.6024560376073468E9, 2020-10-11 17:40:37.607
45.0, 505.84765625, 4446.9619140625, -1059.749267578125, -9375.9775390625, -0.01600000075995922, 0.03200000151991844, 0.9600000381469727, 0.0, 0.0, 0.0, 0.0, 0.0, 1.602456037608112E9, 2020-10-11 17:40:37.608
45.0, 559.3319702148438, 4519.8974609375, -1005.3673706054688, -9387.6953125, -0.01600000075995922, 0.03200000151991844, 0.9600000381469727, 0.0, 0.0, 0.0, 0.0, 0.0, 1.602456037608112E9, 2020-10-11 17:40:37.608
46.0, 329.4889221191406, 4756.986328125, -1199.8421630859375, -9596.296875, -0.01600000075995922, 0.03200000151991844, 0.9600000381469727, 0.0, 0.0, 0.0, 0.0, 0.0, 1.6024560376216788E9, 2020-10-11 17:40:37.621
46.0, 414.47442626953125, 4842.2412109375, -1116.1768798828125, -9653.607421875, -0.01600000075995922, 0.03200000151991844, 0.9600000381469727, 0.0, 0.0, 0.0, 0.0, 0.0, 1.6024560376216788E9, 2020-10-11 17:40:37.621
47.0, 582.0106811523438, 5035.8408203125, -966.71923828125, -9570.751953125, -0.01600000075995922, 0.03200000151991844, 0.9600000381469727, 0.0, 0.0, 0.0, 0.0, 0.0, 1.6024560376373916E9, 2020-10-11 17:40:37.637
47.0, 380.2281494140625, 4819.57373046875, -1142.191650390625, -9734.931640625, -0.01600000075995922, 0.03200000151991844, 0.9600000381469727, 0.0, 0.0, 0.0, 0.0, 0.0, 1.6024560376373916E9, 2020-10-11 17:40:37.637
48.0, 349.1346130371094, 4781.83056640625, -1164.6422119140625, -9883.73828125, -0.01600000075995922, 0.03200000151991844, 0.9600000381469727, 0.0, 0.0, 0.0, 0.0, 0.0, 1.602456037638066E9, 2020-10-11 17:40:37.638
48.0, 545.8720703125, 5001.833984375, -982.7073364257812, -10038.75, -0.01600000075995922, 0.03200000151991844, 0.9600000381469727, 0.0, 0.0, 0.0, 0.0, 0.0, 1.602456037638066E9, 2020-10-11 17:40:37.638
49.0, 471.46673583984375, 4927.67529296875, -1060.7291259765625, -10041.9189453125, -0.01600000075995922, 0.03200000151991844, 0.9600000381469727, 0.0, 0.0, 0.0, 0.0, 0.0, 1.6024560376516776E9, 2020-10-11 17:40:37.651
49.0, 304.4241027832031, 4731.7607421875, -1210.7476806640625, -10175.5029296875, -0.01600000075995922, 0.03200000151991844, 0.9600000381469727, 0.0, 0.0, 0.0, 0.0, 0.0, 1.6024560376516776E9, 2020-10-11 17:40:37.651
50.0, 467.4613037109375, 4905.76708984375, -1063.93798828125, -10376.7099609375, -0.01600000075995922, 0.03200000151991844, 0.9920000433921814, 0.0, 0.0, 0.0, 0.0, 0.0, 1.6024560376673577E9, 2020-10-11 17:40:37.667
50.0, 551.7511596679688, 5005.125, -995.804443359375, -10362.314453125, -0.01600000075995922, 0.03200000151991844, 0.9920000433921814, 0.0, 0.0, 0.0, 0.0, 0.0, 1.6024560376673577E9, 2020-10-11 17:40:37.667
51.0, 312.9136962890625, 5232.58740234375, -1200.668701171875, -10584.205078125, -0.01600000075995922, 0.03200000151991844, 0.9920000433921814, 0.0, 0.0, 0.0, 0.0, 0.0, 1.6024560376680825E9, 2020-10-11 17:40:37.668
51.0, 401.8036193847656, 5331.01416015625, -1115.503662109375, -10639.3798828125, -0.01600000075995922, 0.03200000151991844, 0.9920000433921814, 0.0, 0.0, 0.0, 0.0, 0.0, 1.6024560376680825E9, 2020-10-11 17:40:37.668
52.0, 568.864990234375, 5514.14208984375, -968.4994506835938, -10550.0947265625, -0.01600000075995922, 0.03200000151991844, 0.9920000433921814, 0.0, 0.0, 0.0, 0.0, 0.0, 1.6024560376816823E9, 2020-10-11 17:40:37.681
52.0, 379.0874938964844, 5306.53271484375, -1148.0670166015625, -10703.671875, -0.01600000075995922, 0.03200000151991844, 0.9920000433921814, 0.0, 0.0, 0.0, 0.0, 0.0, 1.6024560376816823E9, 2020-10-11 17:40:37.681
53.0, 348.4539489746094, 5261.1416015625, -1170.843017578125, -10875.453125, -0.01600000075995922, 0.03200000151991844, 0.9920000433921814, 0.0, 0.0, 0.0, 0.0, 0.0, 1.602456037697314E9, 2020-10-11 17:40:37.697
53.0, 543.7515258789062, 5481.62744140625, -1002.7681274414062, -11029.484375, -0.01600000075995922, 0.03200000151991844, 0.9920000433921814, 0.0, 0.0, 0.0, 0.0, 0.0, 1.602456037697314E9, 2020-10-11 17:40:37.697
54.0, 477.58148193359375, 5409.0771484375, -1070.98388671875, -11022.98828125, -0.01600000075995922, 0.03200000151991844, 0.9920000433921814, 0.0, 0.0, 0.0, 0.0, 0.0, 1.602456037698064E9, 2020-10-11 17:40:37.698
54.0, 308.6240234375, 5227.3515625, -1210.57568359375, -11156.7666015625, -0.01600000075995922, 0.03200000151991844, 0.9920000433921814, 0.0, 0.0, 0.0, 0.0, 0.0, 1.602456037698064E9, 2020-10-11 17:40:37.698
55.0, 487.267822265625, 5419.65380859375, -1040.8328857421875, -11346.0166015625, -0.01600000075995922, 0.03200000151991844, 0.9920000433921814, 0.0, 0.0, 0.0, 0.0, 0.0, 1.602456037711668E9, 2020-10-11 17:40:37.711
55.0, 576.9843139648438, 5515.806640625, -979.9360961914062, -11324.2841796875, -0.01600000075995922, 0.03200000151991844, 0.9920000433921814, 0.0, 0.0, 0.0, 0.0, 0.0, 1.602456037711668E9, 2020-10-11 17:40:37.711
56.0, 820.5509033203125, 5742.19921875, -1198.7501220703125, -11557.30859375, -0.01600000075995922, 0.03200000151991844, 0.9920000433921814, 0.0, 0.0, 0.0, 0.0, 0.0, 1.602456037727316E9, 2020-10-11 17:40:37.727
56.0, 911.2509155273438, 5834.42919921875, -1096.1796875, -11610.3515625, -0.01600000075995922, 0.03200000151991844, 0.9920000433921814, 0.0, 0.0, 0.0, 0.0, 0.0, 1.602456037727316E9, 2020-10-11 17:40:37.727
57.0, 1082.18310546875, 6025.90087890625, -951.5988159179688, -11518.560546875, -0.01600000075995922, 0.03200000151991844, 0.9920000433921814, 0.0, 0.0, 0.0, 0.0, 0.0, 1.6024560377280445E9, 2020-10-11 17:40:37.728
57.0, 895.677978515625, 5815.65478515625, -1133.7730712890625, -11669.9384765625, -0.01600000075995922, 0.03200000151991844, 0.9920000433921814, 0.0, 0.0, 0.0, 0.0, 0.0, 1.6024560377280445E9, 2020-10-11 17:40:37.728
58.0, 844.3328857421875, 5757.69384765625, -1176.912841796875, -11856.814453125, -0.01600000075995922, 0.03200000151991844, 0.9920000433921814, 0.0, 0.0, 0.0, 0.0, 0.0, 1.6024560377416947E9, 2020-10-11 17:40:37.741
58.0, 1047.2972412109375, 5986.16064453125, -988.866943359375, -12000.826171875, -0.01600000075995922, 0.03200000151991844, 0.9920000433921814, 0.0, 0.0, 0.0, 0.0, 0.0, 1.6024560377416947E9, 2020-10-11 17:40:37.741
59.0, 986.5426025390625, 5924.912109375, -1039.385498046875, -11975.724609375, -0.01600000075995922, 0.03200000151991844, 0.9920000433921814, 0.0, 0.0, 0.0, 0.0, 0.0, 1.6024560377572775E9, 2020-10-11 17:40:37.757
59.0, 825.9588012695312, 5734.55517578125, -1202.3330078125, -12125.9658203125, -0.01600000075995922, 0.03200000151991844, 0.9920000433921814, 0.0, 0.0, 0.0, 0.0, 0.0, 1.6024560377572775E9, 2020-10-11 17:40:37.757
60.0, 1003.2337646484375, 5933.30810546875, -1029.2989501953125, -12313.1474609375, -0.01600000075995922, 0.03200000151991844, 0.9920000433921814, 0.0, 0.0, 0.0, 0.0, 0.0, 1.6024560377580109E9, 2020-10-11 17:40:37.758
60.0, 1070.144287109375, 6008.08740234375, -972.18701171875, -12300.9365234375, -0.01600000075995922, 0.03200000151991844, 0.9920000433921814, 0.0, 0.0, 0.0, 0.0, 0.0, 1.6024560377580109E9, 2020-10-11 17:40:37.758
61.0, 841.2362670898438, 6244.35400390625, -1193.072998046875, -12527.7783203125, -0.01600000075995922, 0.03200000151991844, 0.9920000433921814, 0.0, 0.0, 0.0, 0.0, 0.0, 1.60245603777168E9, 2020-10-11 17:40:37.771
61.0, 924.8043212890625, 6336.91650390625, -1109.4039306640625, -12597.5234375, -0.01600000075995922, 0.03200000151991844, 0.9920000433921814, 0.0, 0.0, 0.0, 0.0, 0.0, 1.60245603777168E9, 2020-10-11 17:40:37.771
62.0, 1088.510986328125, 6515.60498046875, -949.9906616210938, -12495.1044921875, -0.01600000075995922, 0.03200000151991844, 0.9920000433921814, 0.0, 0.0, 0.0, 0.0, 0.0, 1.6024560377873127E9, 2020-10-11 17:40:37.787
62.0, 882.1806640625, 6291.85791015625, -1140.3665771484375, -12650.5146484375, -0.01600000075995922, 0.03200000151991844, 0.9920000433921814, 0.0, 0.0, 0.0, 0.0, 0.0, 1.6024560377873127E9, 2020-10-11 17:40:37.787
63.0, 840.970703125, 6246.0107421875, -1178.5322265625, -12845.19140625, -0.01600000075995922, 0.03200000151991844, 0.9920000433921814, 0.0, 0.0, 0.0, 0.0, 0.0, 1.6024560377880445E9, 2020-10-11 17:40:37.788
63.0, 1056.048583984375, 6484.859375, -978.208251953125, -12974.0498046875, -0.01600000075995922, 0.03200000151991844, 0.9920000433921814, 0.0, 0.0, 0.0, 0.0, 0.0, 1.6024560377880445E9, 2020-10-11 17:40:37.788
64.0, 981.643310546875, 6399.634765625, -1055.9981689453125, -12964.7373046875, -0.01600000075995922, 0.03200000151991844, 0.9920000433921814, 0.0, 0.0, 0.0, 0.0, 0.0, 1.6024560378016698E9, 2020-10-11 17:40:37.801
64.0, 821.239013671875, 6218.5859375, -1204.5357666015625, -13112.04296875, -0.01600000075995922, 0.03200000151991844, 0.9920000433921814, 0.0, 0.0, 0.0, 0.0, 0.0, 1.6024560378016698E9, 2020-10-11 17:40:37.801
65.0, 997.287353515625, 6411.30322265625, -1038.8394775390625, -13304.138671875, -0.01600000075995922, 0.03200000151991844, 0.9920000433921814, 0.0, 0.0, 0.0, 0.0, 0.0, 1.602456037817977E9, 2020-10-11 17:40:37.817
65.0, 1053.722412109375, 6477.27490234375, -990.1048583984375, -13282.7578125, -0.01600000075995922, 0.03200000151991844, 0.9920000433921814, 0.0, 0.0, 0.0, 0.0, 0.0, 1.602456037817977E9, 2020-10-11 17:40:37.817
66.0, 814.817626953125, 6707.4677734375, -1212.8907470703125, -13523.77734375, -0.01600000075995922, 0.03200000151991844, 0.9920000433921814, 0.0, 0.0, 0.0, 0.0, 0.0, 1.6024560378186867E9, 2020-10-11 17:40:37.818
66.0, 917.97900390625, 6814.52978515625, -1113.3382568359375, -13585.4404296875, -0.01600000075995922, 0.03200000151991844, 0.9920000433921814, 0.0, 0.0, 0.0, 0.0, 0.0, 1.6024560378186867E9, 2020-10-11 17:40:37.818
67.0, 1089.124267578125, 7000.720703125, -955.7538452148438, -13475.736328125, -0.01600000075995922, 0.03200000151991844, 0.9920000433921814, 0.0, 0.0, 0.0, 0.0, 0.0, 1.6024560378316479E9, 2020-10-11 17:40:37.831
67.0, 895.3451538085938, 6787.4228515625, -1154.002197265625, -13630.1513671875, -0.01600000075995922, 0.03200000151991844, 0.9920000433921814, 0.0, 0.0, 0.0, 0.0, 0.0, 1.6024560378316479E9, 2020-10-11 17:40:37.831
68.0, 859.0307006835938, 6747.708984375, -1175.42431640625, -13821.185546875, -0.01600000075995922, 0.03200000151991844, 0.9920000433921814, 0.0, 0.0, 0.0, 0.0, 0.0, 1.6024560378473315E9, 2020-10-11 17:40:37.847
68.0, 1060.7197265625, 6971.1865234375, -985.4935302734375, -13962.134765625, -0.01600000075995922, 0.03200000151991844, 0.9920000433921814, 0.0, 0.0, 0.0, 0.0, 0.0, 1.6024560378473315E9, 2020-10-11 17:40:37.847
69.0, 986.561279296875, 6887.26708984375, -1061.3873291015625, -13931.4453125, -0.01600000075995922, 0.03200000151991844, 0.9920000433921814, 0.0, 0.0, 0.0, 0.0, 0.0, 1.6024560378480513E9, 2020-10-11 17:40:37.848
69.0, 823.0715942382812, 6705.3505859375, -1200.1002197265625, -14095.322265625, -0.01600000075995922, 0.03200000151991844, 0.9920000433921814, 0.0, 0.0, 0.0, 0.0, 0.0, 1.6024560378480513E9, 2020-10-11 17:40:37.848
70.0, 993.9364013671875, 6894.37255859375, -1050.956787109375, -14291.453125, -0.01600000075995922, 0.03200000151991844, 1.0080000162124634, 0.0, 0.0, 0.0, 0.0, 0.0, 1.602456037861701E9, 2020-10-11 17:40:37.861
70.0, 1069.4935302734375, 6983.29248046875, -986.4659423828125, -14260.5400390625, -0.01600000075995922, 0.03200000151991844, 1.0080000162124634, 0.0, 0.0, 0.0, 0.0, 0.0, 1.602456037861701E9, 2020-10-11 17:40:37.861
71.0, 1312.704833984375, 7201.65234375, -1222.4835205078125, -14016.9931640625, -0.01600000075995922, 0.03200000151991844, 1.0080000162124634, 0.0, 0.0, 0.0, 0.0, 0.0, 1.6024560378937232E9, 2020-10-11 17:40:37.893
71.0, 1410.978271484375, 7307.65234375, -1127.755615234375, -14077.1982421875, -0.01600000075995922, 0.03200000151991844, 1.0080000162124634, 0.0, 0.0, 0.0, 0.0, 0.0, 1.6024560378937232E9, 2020-10-11 17:40:37.893
72.0, 1580.7958984375, 7494.87939453125, -953.337890625, -13963.185546875, 0.0, 0.03200000151991844, 1.0080000162124634, 0.0, 0.0, 0.0, 0.0, 0.0, 1.6024560378944364E9, 2020-10-11 17:40:37.894
72.0, 1372.40869140625, 7272.53076171875, -1137.7523193359375, -14112.93359375, 0.0, 0.03200000151991844, 1.0080000162124634, 0.0, 0.0, 0.0, 0.0, 0.0, 1.6024560378944364E9, 2020-10-11 17:40:37.894
73.0, 1357.60986328125, 7246.86376953125, -1152.5137939453125, -14313.1865234375, 0.0, 0.03200000151991844, 1.0080000162124634, 0.0, 0.0, 0.0, 0.0, 0.0, 1.602456037895203E9, 2020-10-11 17:40:37.895
73.0, 1550.678466796875, 7463.47509765625, -985.5047607421875, -14448.974609375, 0.0, 0.03200000151991844, 1.0080000162124634, 0.0, 0.0, 0.0, 0.0, 0.0, 1.602456037895203E9, 2020-10-11 17:40:37.895
74.0, 1487.6798095703125, 7395.162109375, -1058.5113525390625, -14410.158203125, 0.0, 0.03200000151991844, 1.0080000162124634, 0.0, 0.0, 0.0, 0.0, 0.0, 1.602456037895954E9, 2020-10-11 17:40:37.895
74.0, 1323.0120849609375, 7208.70556640625, -1201.38671875, -14591.017578125, 0.0, 0.03200000151991844, 1.0080000162124634, 0.0, 0.0, 0.0, 0.0, 0.0, 1.602456037895954E9, 2020-10-11 17:40:37.895
75.0, 1491.4346923828125, 7398.11669921875, -1045.7919921875, -14783.3349609375, 0.0, 0.03200000151991844, 1.0080000162124634, 0.0, 0.0, 0.0, 0.0, 0.0, 1.6024560379066381E9, 2020-10-11 17:40:37.906
75.0, 1549.0703125, 7465.96240234375, -996.1260986328125, -14743.486328125, 0.0, 0.03200000151991844, 1.0080000162124634, 0.0, 0.0, 0.0, 0.0, 0.0, 1.6024560379066381E9, 2020-10-11 17:40:37.906
76.0, 1316.2652587890625, 7698.04736328125, -1198.910888671875, -14499.8984375, 0.0, 0.03200000151991844, 1.0080000162124634, 0.0, 0.0, 0.0, 0.0, 0.0, 1.6024560379216561E9, 2020-10-11 17:40:37.921
76.0, 1412.799560546875, 7798.61328125, -1111.0345458984375, -14573.2041015625, 0.0, 0.03200000151991844, 1.0080000162124634, 0.0, 0.0, 0.0, 0.0, 0.0, 1.6024560379216561E9, 2020-10-11 17:40:37.921
77.0, 1573.60400390625, 7981.04931640625, -968.1478881835938, -14459.5205078125, 0.0, 0.03200000151991844, 1.0080000162124634, 0.0, 0.0, 0.0, 0.0, 0.0, 1.6024560379372787E9, 2020-10-11 17:40:37.937
77.0, 1375.4678955078125, 7764.48291015625, -1156.3359375, -14607.6298828125, 0.0, 0.03200000151991844, 1.0080000162124634, 0.0, 0.0, 0.0, 0.0, 0.0, 1.6024560379372787E9, 2020-10-11 17:40:37.937
78.0, 1351.192138671875, 7726.642578125, -1184.6395263671875, -14813.0068359375, 0.0, 0.03200000151991844, 1.0080000162124634, 0.0, 0.0, 0.0, 0.0, 0.0, 1.6024560379380536E9, 2020-10-11 17:40:37.938
78.0, 1556.464111328125, 7956.912109375, -989.6560668945312, -14941.8017578125, 0.0, 0.03200000151991844, 1.0080000162124634, 0.0, 0.0, 0.0, 0.0, 0.0, 1.6024560379380536E9, 2020-10-11 17:40:37.938
79.0, 1474.82958984375, 7873.1494140625, -1061.19287109375, -14898.4931640625, 0.0, 0.03200000151991844, 1.0080000162124634, 0.0, 0.0, 0.0, 0.0, 0.0, 1.6024560379516487E9, 2020-10-11 17:40:37.951
79.0, 1310.5955810546875, 7686.17333984375, -1218.8558349609375, -15084.521484375, 0.0, 0.03200000151991844, 1.0080000162124634, 0.0, 0.0, 0.0, 0.0, 0.0, 1.6024560379516487E9, 2020-10-11 17:40:37.951
80.0, 1485.2938232421875, 7876.2275390625, -1059.70068359375, -15284.849609375, 0.0, 0.03200000151991844, 1.0080000162124634, 0.0, 0.0, 0.0, 0.0, 0.0, 1.6024560379673407E9, 2020-10-11 17:40:37.967
80.0, 1550.349365234375, 7956.83740234375, -987.0082397460938, -15230.70703125, 0.0, 0.03200000151991844, 1.0080000162124634, 0.0, 0.0, 0.0, 0.0, 0.0, 1.6024560379673407E9, 2020-10-11 17:40:37.967
81.0, 1325.768310546875, 8195.1904296875, -1199.6776123046875, -15474.46484375, 0.0, 0.03200000151991844, 1.0080000162124634, 0.0, 0.0, 0.0, 0.0, 0.0, 1.6024560379680276E9, 2020-10-11 17:40:37.968
81.0, 1416.707763671875, 8294.978515625, -1108.693359375, -15554.052734375, 0.0, 0.03200000151991844, 1.0080000162124634, 0.0, 0.0, 0.0, 0.0, 0.0, 1.6024560379680276E9, 2020-10-11 17:40:37.968
82.0, 1583.2904052734375, 8484.2548828125, -957.7958374023438, -15425.15234375, -0.01600000075995922, 0.03200000151991844, 1.0080000162124634, 0.0, 0.0, 0.0, 0.0, 0.0, 1.6024560379816425E9, 2020-10-11 17:40:37.981
82.0, 1384.28662109375, 8259.3076171875, -1141.851318359375, -15576.373046875, -0.01600000075995922, 0.03200000151991844, 1.0080000162124634, 0.0, 0.0, 0.0, 0.0, 0.0, 1.6024560379816425E9, 2020-10-11 17:40:37.981
83.0, 1368.3134765625, 8239.564453125, -1153.64697265625, -15779.01171875, -0.01600000075995922, 0.03200000151991844, 1.0080000162124634, 0.0, 0.0, 0.0, 0.0, 0.0, 1.602456038013693E9, 2020-10-11 17:40:38.013
83.0, 1561.7896728515625, 8456.134765625, -981.8995361328125, -15920.3310546875, -0.01600000075995922, 0.03200000151991844, 1.0080000162124634, 0.0, 0.0, 0.0, 0.0, 0.0, 1.602456038013693E9, 2020-10-11 17:40:38.013
84.0, 1476.7630615234375, 8360.8720703125, -1061.4210205078125, -15875.4111328125, -0.01600000075995922, 0.03200000151991844, 1.0080000162124634, 0.0, 0.0, 0.0, 0.0, 0.0, 1.6024560380144155E9, 2020-10-11 17:40:38.014
84.0, 1333.24072265625, 8196.04296875, -1198.847412109375, -16055.9609375, -0.01600000075995922, 0.03200000151991844, 1.0080000162124634, 0.0, 0.0, 0.0, 0.0, 0.0, 1.6024560380144155E9, 2020-10-11 17:40:38.014
85.0, 1497.3363037109375, 8381.9951171875, -1043.3834228515625, -16260.708984375, -0.01600000075995922, 0.03200000151991844, 1.0080000162124634, 0.0, 0.0, 0.0, 0.0, 0.0, 1.6024560380151243E9, 2020-10-11 17:40:38.015
85.0, 1561.9654541015625, 8453.931640625, -986.5594482421875, -16196.12109375, -0.01600000075995922, 0.03200000151991844, 1.0080000162124634, 0.0, 0.0, 0.0, 0.0, 0.0, 1.6024560380151243E9, 2020-10-11 17:40:38.015
86.0, 1329.511962890625, 8686.75390625, -1193.084228515625, -15963.5849609375, -0.01600000075995922, 0.03200000151991844, 1.0080000162124634, 0.0, 0.0, 0.0, 0.0, 0.0, 1.60245603801594E9, 2020-10-11 17:40:38.015
86.0, 1429.385986328125, 8795.9775390625, -1108.753173828125, -16036.9658203125, -0.01600000075995922, 0.03200000151991844, 1.0080000162124634, 0.0, 0.0, 0.0, 0.0, 0.0, 1.60245603801594E9, 2020-10-11 17:40:38.015
87.0, 1593.1038818359375, 8974.7255859375, -957.7173461914062, -15915.0693359375, -0.01600000075995922, 0.03200000151991844, 1.0080000162124634, 0.0, 0.0, 0.0, 0.0, 0.0, 1.6024560380266912E9, 2020-10-11 17:40:38.026
87.0, 1387.760986328125, 8756.173828125, -1142.9283447265625, -16056.40625, -0.01600000075995922, 0.03200000151991844, 1.0080000162124634, 0.0, 0.0, 0.0, 0.0, 0.0, 1.6024560380266912E9, 2020-10-11 17:40:38.026
88.0, 1367.8310546875, 8731.6513671875, -1168.7113037109375, -16280.8525390625, -0.01600000075995922, 0.03200000151991844, 1.0080000162124634, 0.0, 0.0, 0.0, 0.0, 0.0, 1.6024560380416956E9, 2020-10-11 17:40:38.041
88.0, 1563.2930908203125, 8951.0107421875, -981.6376953125, -16407.806640625, -0.01600000075995922, 0.03200000151991844, 1.0080000162124634, 0.0, 0.0, 0.0, 0.0, 0.0, 1.6024560380416956E9, 2020-10-11 17:40:38.041
89.0, 1482.1298828125, 8865.71484375, -1057.3370361328125, -16353.443359375, -0.01600000075995922, 0.03200000151991844, 1.0080000162124634, 0.0, 0.0, 0.0, 0.0, 0.0, 1.602456038057325E9, 2020-10-11 17:40:38.057
89.0, 1321.5833740234375, 8680.4931640625, -1205.6839599609375, -16555.814453125, -0.01600000075995922, 0.03200000151991844, 1.0080000162124634, 0.0, 0.0, 0.0, 0.0, 0.0, 1.602456038057325E9, 2020-10-11 17:40:38.057
90.0, 1505.96044921875, 8877.279296875, -1032.3695068359375, -16742.634765625, -0.01600000075995922, 0.03200000151991844, 1.0080000162124634, 0.0, 0.0, 0.0, 0.0, 0.0, 1.6024560380580425E9, 2020-10-11 17:40:38.058
90.0, 1569.1348876953125, 8959.1640625, -973.70166015625, -16680.4921875, -0.01600000075995922, 0.03200000151991844, 1.0080000162124634, 0.0, 0.0, 0.0, 0.0, 0.0, 1.6024560380580425E9, 2020-10-11 17:40:38.058
91.0, 1342.1715087890625, 9196.85546875, -1178.1507568359375, -16441.1875, -0.01600000075995922, 0.01600000075995922, 1.0080000162124634, 0.0, 0.0, 0.0, 0.0, 0.0, 1.6024560380716705E9, 2020-10-11 17:40:38.071
91.0, 1436.828369140625, 9296.2470703125, -1098.7340087890625, -16527.115234375, -0.01600000075995922, 0.01600000075995922, 1.0080000162124634, 0.0, 0.0, 0.0, 0.0, 0.0, 1.6024560380716705E9, 2020-10-11 17:40:38.071
92.0, 1601.61962890625, 9481.005859375, -949.8373413085938, -16393.70703125, 0.0, 0.01600000075995922, 1.0080000162124634, 0.0, 0.0, 0.0, 0.0, 0.0, 1.6024560380873284E9, 2020-10-11 17:40:38.087
92.0, 1393.292236328125, 9246.90625, -1153.7816162109375, -16547.302734375, 0.0, 0.01600000075995922, 1.0080000162124634, 0.0, 0.0, 0.0, 0.0, 0.0, 1.6024560380873284E9, 2020-10-11 17:40:38.087
93.0, 1354.4085693359375, 9208.1044921875, -1167.6453857421875, -16782.064453125, 0.0, 0.01600000075995922, 1.0080000162124634, 0.0, 0.0, 0.0, 0.0, 0.0, 1.6024560380880492E9, 2020-10-11 17:40:38.088
93.0, 1575.926513671875, 9450.4130859375, -966.08349609375, -16894.806640625, 0.0, 0.01600000075995922, 1.0080000162124634, 0.0, 0.0, 0.0, 0.0, 0.0, 1.6024560380880492E9, 2020-10-11 17:40:38.088
94.0, 1490.8101806640625, 9364.3505859375, -1045.795654296875, -16833.435546875, 0.0, 0.01600000075995922, 1.0080000162124634, 0.0, 0.0, 0.0, 0.0, 0.0, 1.6024560381016545E9, 2020-10-11 17:40:38.101
94.0, 1336.3448486328125, 9188.638671875, -1184.833984375, -17033.181640625, 0.0, 0.01600000075995922, 1.0080000162124634, 0.0, 0.0, 0.0, 0.0, 0.0, 1.6024560381016545E9, 2020-10-11 17:40:38.101
95.0, 1515.351318359375, 9379.908203125, -1024.6016845703125, -17229.76953125, 0.0, 0.01600000075995922, 1.0080000162124634, 0.0, 0.0, 0.0, 0.0, 0.0, 1.6024560381170936E9, 2020-10-11 17:40:38.117
95.0, 1567.2947998046875, 9444.626953125, -978.010009765625, -17162.001953125, 0.0, 0.01600000075995922, 1.0080000162124634, 0.0, 0.0, 0.0, 0.0, 0.0, 1.6024560381170936E9, 2020-10-11 17:40:38.117
96.0, 1335.671630859375, 9672.6923828125, -1193.6226806640625, -16937.34375, 0.0, 0.01600000075995922, 1.0080000162124634, 0.0, 0.0, 0.0, 0.0, 0.0, 1.6024560381323617E9, 2020-10-11 17:40:38.132
96.0, 1449.6488037109375, 9792.7578125, -1100.2823486328125, -17016.478515625, 0.0, 0.01600000075995922, 1.0080000162124634, 0.0, 0.0, 0.0, 0.0, 0.0, 1.6024560381323617E9, 2020-10-11 17:40:38.132
97.0, 1601.31298828125, 9971.6298828125, -956.1577758789062, -16881.205078125, 0.0, 0.01600000075995922, 1.0080000162124634, 0.0, 0.0, 0.0, 0.0, 0.0, 1.6024560381331117E9, 2020-10-11 17:40:38.133
97.0, 1395.311767578125, 9749.3974609375, -1118.413330078125, -17016.125, 0.0, 0.01600000075995922, 1.0080000162124634, 0.0, 0.0, 0.0, 0.0, 0.0, 1.6024560381331117E9, 2020-10-11 17:40:38.133
98.0, 1388.30322265625, 9729.220703125, -1134.50244140625, -17247.978515625, 0.0, 0.01600000075995922, 1.0080000162124634, 0.0, 0.0, 0.0, 0.0, 0.0, 1.6024560381473477E9, 2020-10-11 17:40:38.147
98.0, 1584.7227783203125, 9946.126953125, -967.0408935546875, -17383.546875, 0.0, 0.01600000075995922, 1.0080000162124634, 0.0, 0.0, 0.0, 0.0, 0.0, 1.6024560381473477E9, 2020-10-11 17:40:38.147
99.0, 1502.2691650390625, 9863.5126953125, -1041.7529296875, -17307.48828125, 0.0, 0.01600000075995922, 1.0080000162124634, 0.0, 0.0, 0.0, 0.0, 0.0, 1.60245603814805E9, 2020-10-11 17:40:38.148
99.0, 1342.17529296875, 9681.529296875, -1186.8348388671875, -17530.25, 0.0, 0.01600000075995922, 1.0080000162124634, 0.0, 0.0, 0.0, 0.0, 0.0, 1.60245603814805E9, 2020-10-11 17:40:38.148
100.0, 1534.08447265625, 9882.3251953125, -1015.465087890625, -17719.04296875, 0.0, 0.01600000075995922, 1.0080000162124634, 0.0, 0.0, 0.0, 0.0, 0.0, 1.6024560381623497E9, 2020-10-11 17:40:38.162
100.0, 1569.35546875, 9938.1572265625, -981.2076416015625, -17650.166015625, 0.0, 0.01600000075995922, 1.0080000162124634, 0.0, 0.0, 0.0, 0.0, 0.0, 1.6024560381623497E9, 2020-10-11 17:40:38.162
0.0, -115.82283020019531, -114.4409408569336, -1181.0006103515625, 228.64251708984375, 0.0, 0.01600000075995922, 1.0080000162124634, 0.0, 0.0, 0.0, 0.0, 0.0, 1.6024560381630695E9, 2020-10-11 17:40:38.163
1.0, -11.5731201171875, -4.876829624176025, -1089.88916015625, 139.3935546875, 0.0, 0.03200000151991844, 1.0080000162124634, 0.0, 0.0, 0.0, 0.0, 0.0, 1.6024560381767156E9, 2020-10-11 17:40:38.176
1.0, 133.8304443359375, 165.47935485839844, -954.8301391601562, 279.3611755371094, 0.0, 0.03200000151991844, 1.0080000162124634, 0.0, 0.0, 0.0, 0.0, 0.0, 1.6024560381767156E9, 2020-10-11 17:40:38.176
2.0, -68.49813842773438, -53.158939361572266, -1145.265869140625, 138.4585723876953, 0.0, 0.03200000151991844, 1.0080000162124634, 0.0, 0.0, 0.0, 0.0, 0.0, 1.6024560381923244E9, 2020-10-11 17:40:38.192
2.0, -71.54241943359375, -62.935035705566406, -1145.09375, -94.6493911743164, 0.0, 0.03200000151991844, 1.0080000162124634, 0.0, 0.0, 0.0, 0.0, 0.0, 1.6024560381923244E9, 2020-10-11 17:40:38.192
3.0, 120.9764175415039, 150.2542266845703, -950.016845703125, -222.00045776367188, 0.0, 0.03200000151991844, 1.0080000162124634, 0.0, 0.0, 0.0, 0.0, 0.0, 1.602456038193042E9, 2020-10-11 17:40:38.193
3.0, 21.248241424560547, 53.779762268066406, -1041.9136962890625, -150.51600646972656, 0.0, 0.03200000151991844, 1.0080000162124634, 0.0, 0.0, 0.0, 0.0, 0.0, 1.602456038193042E9, 2020-10-11 17:40:38.193
4.0, -137.1552276611328, -130.1821746826172, -1194.9205322265625, -379.73260498046875, 0.0, 0.03200000151991844, 1.0080000162124634, 0.0, 0.0, 0.0, 0.0, 0.0, 1.6024560382066572E9, 2020-10-11 17:40:38.206
4.0, 54.275299072265625, 72.48674011230469, -1025.2113037109375, -566.1404418945312, 0.0, 0.03200000151991844, 1.0080000162124634, 0.0, 0.0, 0.0, 0.0, 0.0, 1.6024560382066572E9, 2020-10-11 17:40:38.206
5.0, 105.18655395507812, 139.35989379882812, -972.3552856445312, -480.911865234375, 0.0, 0.03200000151991844, 1.0080000162124634, 0.0, 0.0, 0.0, 0.0, 0.0, 1.6024560382223403E9, 2020-10-11 17:40:38.222
5.0, -128.97979736328125, 370.532470703125, -1180.491943359375, -265.7404479980469, 0.0, 0.03200000151991844, 1.0080000162124634, 0.0, 0.0, 0.0, 0.0, 0.0, 1.6024560382223403E9, 2020-10-11 17:40:38.222
6.0, -23.155590057373047, 485.5381164550781, -1076.4217529296875, -349.96673583984375, 0.0, 0.03200000151991844, 1.0080000162124634, 0.0, 0.0, 0.0, 0.0, 0.0, 1.6024560382230673E9, 2020-10-11 17:40:38.223
6.0, 138.97654724121094, 661.3882446289062, -940.1135864257812, -204.87545776367188, 0.0, 0.03200000151991844, 1.0080000162124634, 0.0, 0.0, 0.0, 0.0, 0.0, 1.6024560382230673E9, 2020-10-11 17:40:38.223
7.0, -86.17290496826172, 417.3896789550781, -1151.4703369140625, -358.0374450683594, 0.0, 0.03200000151991844, 1.0080000162124634, 0.0, 0.0, 0.0, 0.0, 0.0, 1.6024560382366626E9, 2020-10-11 17:40:38.236
7.0, -85.95599365234375, 407.493896484375, -1151.0738525390625, -599.3582153320312, 0.0, 0.03200000151991844, 1.0080000162124634, 0.0, 0.0, 0.0, 0.0, 0.0, 1.6024560382366626E9, 2020-10-11 17:40:38.236
8.0, 118.19393157958984, 631.74951171875, -960.7728271484375, -718.4740600585938, 0.0, 0.03200000151991844, 1.0080000162124634, 0.0, 0.0, 0.0, 0.0, 0.0, 1.6024560382523448E9, 2020-10-11 17:40:38.252
8.0, 30.732627868652344, 543.4505004882812, -1043.5966796875, -624.9017333984375, 0.0, 0.03200000151991844, 1.0080000162124634, 0.0, 0.0, 0.0, 0.0, 0.0, 1.6024560382523448E9, 2020-10-11 17:40:38.252
9.0, -125.38201904296875, 367.480712890625, -1181.5279541015625, -866.6582641601562, 0.0, 0.03200000151991844, 1.0080000162124634, 0.0, 0.0, 0.0, 0.0, 0.0, 1.6024560382530646E9, 2020-10-11 17:40:38.253
9.0, 56.53045654296875, 561.3346557617188, -1020.0577392578125, -1060.3251953125, 0.0, 0.03200000151991844, 1.0080000162124634, 0.0, 0.0, 0.0, 0.0, 0.0, 1.6024560382530646E9, 2020-10-11 17:40:38.253
10.0, 99.82353973388672, 616.3336181640625, -980.6017456054688, -975.0667114257812, 0.0, 0.03200000151991844, 1.0080000162124634, 0.0, 0.0, 0.0, 0.0, 0.0, 1.6024560382666814E9, 2020-10-11 17:40:38.266
10.0, -132.62246704101562, 843.79248046875, -1200.5826416015625, -768.3212890625, 0.0, 0.03200000151991844, 1.0080000162124634, 0.0, 0.0, 0.0, 0.0, 0.0, 1.6024560382666814E9, 2020-10-11 17:40:38.266
11.0, -26.083932876586914, 959.5910034179688, -1096.721923828125, -858.8418579101562, 0.0, 0.01600000075995922, 1.0080000162124634, 0.0, 0.0, 0.0, 0.0, 0.0, 1.602456038282338E9, 2020-10-11 17:40:38.282
11.0, 117.57310485839844, 1127.2244873046875, -966.76416015625, -709.356201171875, 0.0, 0.01600000075995922, 1.0080000162124634, 0.0, 0.0, 0.0, 0.0, 0.0, 1.602456038282338E9, 2020-10-11 17:40:38.282
12.0, -88.99652862548828, 901.5739135742188, -1163.81201171875, -847.7418212890625, 0.0, 0.01600000075995922, 1.0080000162124634, 0.0, 0.0, 0.0, 0.0, 0.0, 1.6024560382830582E9, 2020-10-11 17:40:38.283
12.0, -98.68660736083984, 885.9710693359375, -1161.2950439453125, -615.189208984375, 0.0, 0.01600000075995922, 1.0080000162124634, 0.0, 0.0, 0.0, 0.0, 0.0, 1.6024560382830582E9, 2020-10-11 17:40:38.283
13.0, 106.39454650878906, 1106.008056640625, -975.0330810546875, -734.1629028320312, 0.0, 0.01600000075995922, 1.0080000162124634, 0.0, 0.0, 0.0, 0.0, 0.0, 1.602456038296626E9, 2020-10-11 17:40:38.296
13.0, 16.32279396057129, 1016.1719360351562, -1062.415771484375, -632.9986572265625, 0.0, 0.01600000075995922, 1.0080000162124634, 0.0, 0.0, 0.0, 0.0, 0.0, 1.602456038296626E9, 2020-10-11 17:40:38.296
14.0, -144.7659149169922, 839.7608642578125, -1200.986572265625, -877.2832641601562, 0.0, 0.01600000075995922, 1.0080000162124634, 0.0, 0.0, 0.0, 0.0, 0.0, 1.602456038312376E9, 2020-10-11 17:40:38.312
14.0, 51.94533920288086, 1047.16455078125, -1036.9583740234375, -1066.885009765625, 0.0, 0.01600000075995922, 1.0080000162124634, 0.0, 0.0, 0.0, 0.0, 0.0, 1.602456038312376E9, 2020-10-11 17:40:38.312
15.0, 94.34832763671875, 1095.4840087890625, -996.55615234375, -972.071044921875, 0.0, 0.01600000075995922, 1.0080000162124634, 0.0, 0.0, 0.0, 0.0, 0.0, 1.6024560383130407E9, 2020-10-11 17:40:38.313
15.0, -134.49615478515625, 1336.3765869140625, -1209.528564453125, -768.17919921875, 0.0, 0.01600000075995922, 1.0080000162124634, 0.0, 0.0, 0.0, 0.0, 0.0, 1.6024560383130407E9, 2020-10-11 17:40:38.313
16.0, -17.859891891479492, 1467.512451171875, -1096.80419921875, -862.3685913085938, 0.0, 0.01600000075995922, 1.0080000162124634, 0.0, 0.0, 0.0, 0.0, 0.0, 1.6024560383266678E9, 2020-10-11 17:40:38.326
16.0, 139.54127502441406, 1636.59326171875, -944.2723999023438, -691.5018920898438, 0.0, 0.01600000075995922, 1.0080000162124634, 0.0, 0.0, 0.0, 0.0, 0.0, 1.6024560383266678E9, 2020-10-11 17:40:38.326
17.0, -81.40079498291016, 1400.1456298828125, -1143.496826171875, -831.8921508789062, 0.0, 0.01600000075995922, 1.0080000162124634, 0.0, 0.0, 0.0, 0.0, 0.0, 1.6024560383424056E9, 2020-10-11 17:40:38.342
17.0, -83.00147247314453, 1393.1182861328125, -1148.87109375, -607.7543334960938, 0.0, 0.01600000075995922, 1.0080000162124634, 0.0, 0.0, 0.0, 0.0, 0.0, 1.6024560383424056E9, 2020-10-11 17:40:38.342
18.0, 106.87325286865234, 1606.90966796875, -979.2479248046875, -730.707275390625, 0.0, 0.01600000075995922, 1.0080000162124634, 0.0, 0.0, 0.0, 0.0, 0.0, 1.6024560383430932E9, 2020-10-11 17:40:38.343
18.0, 8.0725736618042, 1506.8524169921875, -1070.0264892578125, -631.4951782226562, 0.0, 0.01600000075995922, 1.0080000162124634, 0.0, 0.0, 0.0, 0.0, 0.0, 1.6024560383430932E9, 2020-10-11 17:40:38.343
19.0, -135.7452850341797, 1338.811279296875, -1192.1080322265625, -389.2992858886719, 0.0, 0.01600000075995922, 1.0080000162124634, 0.0, 0.0, 0.0, 0.0, 0.0, 1.6024560383565972E9, 2020-10-11 17:40:38.356
19.0, 45.82686233520508, 1527.635009765625, -1032.36572265625, -578.7700805664062, 0.0, 0.01600000075995922, 1.0080000162124634, 0.0, 0.0, 0.0, 0.0, 0.0, 1.6024560383565972E9, 2020-10-11 17:40:38.356
20.0, 93.25627899169922, 1593.326416015625, -996.7244873046875, -480.7959289550781, 0.0, 0.01600000075995922, 1.0080000162124634, 0.0, 0.0, 0.0, 0.0, 0.0, 1.6024560383722901E9, 2020-10-11 17:40:38.372
20.0, -133.4863739013672, 1831.649658203125, -1187.900634765625, -275.1799621582031, 0.0, 0.01600000075995922, 1.0080000162124634, 0.0, 0.0, 0.0, 0.0, 0.0, 1.6024560383722901E9, 2020-10-11 17:40:38.372
21.0, -4.691704273223877, 1959.79736328125, -1077.0538330078125, -362.1513366699219, 0.0, 0.01600000075995922, 1.0080000162124634, 0.0, 0.0, 0.0, 0.0, 0.0, 1.6024560383730407E9, 2020-10-11 17:40:38.373
21.0, 144.9491729736328, 2127.8984375, -942.3612670898438, -198.94772338867188, 0.0, 0.01600000075995922, 1.0080000162124634, 0.0, 0.0, 0.0, 0.0, 0.0, 1.6024560383730407E9, 2020-10-11 17:40:38.373
22.0, -72.79901885986328, 1901.15576171875, -1149.7349853515625, -336.3834228515625, 0.0, 0.01600000075995922, 1.0080000162124634, 0.0, 0.0, 0.0, 0.0, 0.0, 1.6024560383866186E9, 2020-10-11 17:40:38.386
22.0, -79.4261245727539, 1884.150390625, -1142.4571533203125, -117.36180114746094, 0.0, 0.01600000075995922, 1.0080000162124634, 0.0, 0.0, 0.0, 0.0, 0.0, 1.6024560383866186E9, 2020-10-11 17:40:38.386
23.0, 123.26897430419922, 2113.48095703125, -961.2739868164062, -233.30992126464844, 0.0, 0.01600000075995922, 1.0080000162124634, 0.0, 0.0, 0.0, 0.0, 0.0, 1.6024560384023077E9, 2020-10-11 17:40:38.402
23.0, 22.067279815673828, 2002.54443359375, -1058.86669921875, -124.56858825683594, 0.0, 0.01600000075995922, 1.0080000162124634, 0.0, 0.0, 0.0, 0.0, 0.0, 1.6024560384023077E9, 2020-10-11 17:40:38.402
24.0, -128.2393035888672, 1831.51123046875, -1190.06982421875, 99.95256805419922, 0.0, 0.01600000075995922, 1.0080000162124634, 0.0, 0.0, 0.0, 0.0, 0.0, 1.6024560384030263E9, 2020-10-11 17:40:38.403
24.0, 53.321624755859375, 2029.587646484375, -1026.9241943359375, -92.46528625488281, 0.0, 0.01600000075995922, 1.0080000162124634, 0.0, 0.0, 0.0, 0.0, 0.0, 1.6024560384030263E9, 2020-10-11 17:40:38.403
25.0, 97.96480560302734, 2084.134033203125, -982.0565795898438, 25.446279525756836, 0.0, 0.01600000075995922, 1.0080000162124634, 0.0, 0.0, 0.0, 0.0, 0.0, 1.6024560384166396E9, 2020-10-11 17:40:38.416
25.0, -121.94879150390625, 1845.360107421875, -1179.1605224609375, 228.34707641601562, 0.0, 0.01600000075995922, 1.0080000162124634, 0.0, 0.0, 0.0, 0.0, 0.0, 1.6024560384166396E9, 2020-10-11 17:40:38.416
26.0, -13.760961532592773, 1963.2305908203125, -1084.9561767578125, 116.15381622314453, 0.0, 0.01600000075995922, 1.0080000162124634, 0.0, 0.0, 0.0, 0.0, 0.0, 1.6024560384323862E9, 2020-10-11 17:40:38.432
26.0, 145.39796447753906, 2137.846435546875, -947.0960083007812, 299.1938781738281, 0.0, 0.01600000075995922, 1.0080000162124634, 0.0, 0.0, 0.0, 0.0, 0.0, 1.6024560384323862E9, 2020-10-11 17:40:38.432
27.0, -65.78671264648438, 1909.548095703125, -1130.3211669921875, 165.5354461669922, 0.0, 0.01600000075995922, 1.0080000162124634, 0.0, 0.0, 0.0, 0.0, 0.0, 1.6024560384330423E9, 2020-10-11 17:40:38.433
27.0, -82.78829193115234, 1883.5557861328125, -1150.105224609375, 361.3135986328125, 0.0, 0.01600000075995922, 1.0080000162124634, 0.0, 0.0, 0.0, 0.0, 0.0, 1.6024560384330423E9, 2020-10-11 17:40:38.433
28.0, 117.6217269897461, 2101.917236328125, -973.17431640625, 254.29637145996094, 0.0, 0.01600000075995922, 1.0080000162124634, 0.0, 0.0, 0.0, 0.0, 0.0, 1.6024560384466095E9, 2020-10-11 17:40:38.446
28.0, 11.363685607910156, 1992.2222900390625, -1059.6595458984375, 362.41314697265625, 0.0, 0.01600000075995922, 1.0080000162124634, 0.0, 0.0, 0.0, 0.0, 0.0, 1.6024560384466095E9, 2020-10-11 17:40:38.446
29.0, -117.37114715576172, 1843.0040283203125, -1164.0325927734375, 601.5311279296875, 0.0, 0.01600000075995922, 1.0080000162124634, 0.0, 0.0, 0.0, 0.0, 0.0, 1.6024560384623122E9, 2020-10-11 17:40:38.462
29.0, 70.3942642211914, 2046.854736328125, -1012.1403198242188, 405.52294921875, 0.0, 0.01600000075995922, 1.0080000162124634, 0.0, 0.0, 0.0, 0.0, 0.0, 1.6024560384623122E9, 2020-10-11 17:40:38.462
30.0, 111.6004867553711, 2098.790771484375, -983.03271484375, 519.070068359375, 0.0, 0.01600000075995922, 1.0080000162124634, 0.0, 0.0, 0.0, 0.0, 0.0, 1.6024560384630344E9, 2020-10-11 17:40:38.463
30.0, -124.6115951538086, 2324.73486328125, -1196.6968994140625, 713.6608276367188, 0.0, 0.01600000075995922, 1.0080000162124634, 0.0, 0.0, 0.0, 0.0, 0.0, 1.6024560384630344E9, 2020-10-11 17:40:38.463
31.0, -10.151958465576172, 2446.9921875, -1091.594482421875, 602.8699951171875, 0.0, 0.01600000075995922, 1.0080000162124634, 0.0, 0.0, 0.0, 0.0, 0.0, 1.6024560384766328E9, 2020-10-11 17:40:38.476
31.0, 146.852783203125, 2626.073486328125, -944.1527099609375, 794.1565551757812, 0.0, 0.01600000075995922, 1.0080000162124634, 0.0, 0.0, 0.0, 0.0, 0.0, 1.6024560384766328E9, 2020-10-11 17:40:38.476
32.0, -66.53095245361328, 2391.750244140625, -1132.0938720703125, 662.24462890625, 0.0, 0.01600000075995922, 1.0080000162124634, 0.0, 0.0, 0.0, 0.0, 0.0, 1.60245603849234E9, 2020-10-11 17:40:38.492
32.0, -70.6111831665039, 2376.367919921875, -1147.0347900390625, 849.41357421875, 0.0, 0.01600000075995922, 1.0080000162124634, 0.0, 0.0, 0.0, 0.0, 0.0, 1.60245603849234E9, 2020-10-11 17:40:38.492
33.0, 140.408935546875, 2607.60595703125, -962.3623046875, 750.5717163085938, 0.0, 0.01600000075995922, 1.0080000162124634, 0.0, 0.0, 0.0, 0.0, 0.0, 1.6024560384930649E9, 2020-10-11 17:40:38.493
33.0, 22.553466796875, 2491.489501953125, -1064.831787109375, 866.2767944335938, 0.0, 0.01600000075995922, 1.0080000162124634, 0.0, 0.0, 0.0, 0.0, 0.0, 1.6024560384930649E9, 2020-10-11 17:40:38.493
34.0, -119.09150695800781, 2334.772705078125, -1184.51611328125, 1083.7557373046875, 0.0, 0.01600000075995922, 1.0080000162124634, 0.0, 0.0, 0.0, 0.0, 0.0, 1.602456038506621E9, 2020-10-11 17:40:38.506
34.0, 68.89082336425781, 2544.00146484375, -995.8455810546875, 897.8976440429688, 0.0, 0.01600000075995922, 1.0080000162124634, 0.0, 0.0, 0.0, 0.0, 0.0, 1.602456038506621E9, 2020-10-11 17:40:38.506
35.0, 109.72305297851562, 2584.889892578125, -975.5341796875, 1020.7720336914062, 0.0, 0.01600000075995922, 1.0080000162124634, 0.0, 0.0, 0.0, 0.0, 0.0, 1.602456038522357E9, 2020-10-11 17:40:38.522
35.0, -127.45018005371094, 2812.707763671875, -1199.6290283203125, 1200.668701171875, 0.0, 0.01600000075995922, 1.0080000162124634, 0.0, 0.0, 0.0, 0.0, 0.0, 1.602456038522357E9, 2020-10-11 17:40:38.522
36.0, -14.306986808776855, 2932.309814453125, -1092.7015380859375, 1086.2950439453125, 0.0, 0.01600000075995922, 1.0080000162124634, 0.0, 0.0, 0.0, 0.0, 0.0, 1.602456038523076E9, 2020-10-11 17:40:38.523
36.0, 143.2176055908203, 3113.76220703125, -947.9150390625, 1274.559814453125, 0.0, 0.01600000075995922, 1.0080000162124634, 0.0, 0.0, 0.0, 0.0, 0.0, 1.602456038523076E9, 2020-10-11 17:40:38.523
37.0, -73.27024841308594, 2879.034912109375, -1148.4334716796875, 1145.3182373046875, 0.0, 0.01600000075995922, 1.0080000162124634, 0.0, 0.0, 0.0, 0.0, 0.0, 1.6024560385366087E9, 2020-10-11 17:40:38.536
37.0, -74.0444107055664, 2870.055419921875, -1147.296630859375, 1334.7421875, 0.0, 0.01600000075995922, 1.0080000162124634, 0.0, 0.0, 0.0, 0.0, 0.0, 1.6024560385366087E9, 2020-10-11 17:40:38.536
38.0, 131.24618530273438, 3101.61865234375, -938.8495483398438, 1241.02783203125, 0.0, 0.01600000075995922, 1.0080000162124634, 0.0, 0.0, 0.0, 0.0, 0.0, 1.6024560385686538E9, 2020-10-11 17:40:38.568
38.0, 24.303739547729492, 2978.64697265625, -1048.15185546875, 1367.51123046875, 0.0, 0.01600000075995922, 1.0080000162124634, 0.0, 0.0, 0.0, 0.0, 0.0, 1.6024560385686538E9, 2020-10-11 17:40:38.568
39.0, -104.69288635253906, 2830.34130859375, -1170.7569580078125, 1584.7620849609375, 0.0, 0.01600000075995922, 1.0080000162124634, 0.0, 0.0, 0.0, 0.0, 0.0, 1.6024560385693903E9, 2020-10-11 17:40:38.569
39.0, 77.66837310791016, 3033.358154296875, -1013.056640625, 1388.3162841796875, 0.0, 0.01600000075995922, 1.0080000162124634, 0.0, 0.0, 0.0, 0.0, 0.0, 1.6024560385693903E9, 2020-10-11 17:40:38.569
40.0, 116.19308471679688, 3088.267333984375, -959.9949340820312, 1515.7833251953125, 0.0, 0.01600000075995922, 1.0240000486373901, 0.0, 0.0, 0.0, 0.0, 0.0, 1.6024560385701208E9, 2020-10-11 17:40:38.570
40.0, -119.10272216796875, 3315.68505859375, -1182.2197265625, 1698.0772705078125, 0.0, 0.01600000075995922, 1.0240000486373901, 0.0, 0.0, 0.0, 0.0, 0.0, 1.6024560385701208E9, 2020-10-11 17:40:38.570
41.0, 7.388172149658203, 3448.010009765625, -1073.9197998046875, 1591.5723876953125, 0.0, 0.01600000075995922, 1.0240000486373901, 0.0, 0.0, 0.0, 0.0, 0.0, 1.6024560385708854E9, 2020-10-11 17:40:38.570
41.0, 144.5190887451172, 3605.20556640625, -946.448974609375, 1775.805419921875, 0.0, 0.01600000075995922, 1.0240000486373901, 0.0, 0.0, 0.0, 0.0, 0.0, 1.6024560385708854E9, 2020-10-11 17:40:38.570
42.0, -72.72796630859375, 3366.7421875, -1151.511474609375, 1641.0400390625, 0.0, 0.01600000075995922, 1.0240000486373901, 0.0, 0.0, 0.0, 0.0, 0.0, 1.6024560385817316E9, 2020-10-11 17:40:38.581
42.0, -67.42478942871094, 3370.54931640625, -1131.3084716796875, 1828.4931640625, 0.0, 0.01600000075995922, 1.0240000486373901, 0.0, 0.0, 0.0, 0.0, 0.0, 1.6024560385817316E9, 2020-10-11 17:40:38.581
43.0, 124.16654968261719, 3582.3623046875, -956.8309936523438, 1720.8551025390625, 0.0, 0.01600000075995922, 1.0240000486373901, 0.0, 0.0, 0.0, 0.0, 0.0, 1.602456038596648E9, 2020-10-11 17:40:38.596
43.0, 19.85325813293457, 3471.627685546875, -1054.371337890625, 1867.799560546875, 0.0, 0.01600000075995922, 1.0240000486373901, 0.0, 0.0, 0.0, 0.0, 0.0, 1.602456038596648E9, 2020-10-11 17:40:38.596
44.0, -124.46199798583984, 3307.8759765625, -1185.5108642578125, 2054.68603515625, 0.0, 0.01600000075995922, 1.0240000486373901, 0.0, 0.0, 0.0, 0.0, 0.0, 1.6024560386123028E9, 2020-10-11 17:40:38.612
44.0, 63.72602462768555, 3512.20556640625, -1020.6822509765625, 1860.7872314453125, 0.0, 0.01600000075995922, 1.0240000486373901, 0.0, 0.0, 0.0, 0.0, 0.0, 1.6024560386123028E9, 2020-10-11 17:40:38.612
45.0, 113.8481674194336, 3566.91650390625, -989.2745971679688, 2012.7506103515625, 0.0, 0.01600000075995922, 1.0240000486373901, 0.0, 0.0, 0.0, 0.0, 0.0, 1.6024560386130607E9, 2020-10-11 17:40:38.613
45.0, -127.55490112304688, 3801.492431640625, -1191.5994873046875, 2181.90625, 0.0, 0.01600000075995922, 1.0240000486373901, 0.0, 0.0, 0.0, 0.0, 0.0, 1.6024560386130607E9, 2020-10-11 17:40:38.613
46.0, -7.870619297027588, 3921.939697265625, -1082.95166015625, 2066.466796875, 0.0, 0.01600000075995922, 1.0240000486373901, 0.0, 0.0, 0.0, 0.0, 0.0, 1.6024560386266572E9, 2020-10-11 17:40:38.626
46.0, 150.72732543945312, 4097.2099609375, -945.6673583984375, 2269.676025390625, 0.0, 0.01600000075995922, 1.0240000486373901, 0.0, 0.0, 0.0, 0.0, 0.0, 1.6024560386266572E9, 2020-10-11 17:40:38.626
47.0, -74.71759033203125, 3860.30224609375, -1149.8172607421875, 2133.92333984375, 0.0, 0.01600000075995922, 1.0240000486373901, 0.0, 0.0, 0.0, 0.0, 0.0, 1.602456038642339E9, 2020-10-11 17:40:38.642
47.0, -62.824710845947266, 3862.14990234375, -1132.8905029296875, 2316.637939453125, 0.0, 0.01600000075995922, 1.0240000486373901, 0.0, 0.0, 0.0, 0.0, 0.0, 1.602456038642339E9, 2020-10-11 17:40:38.642
48.0, 134.91128540039062, 4082.175537109375, -950.4805908203125, 2214.7705078125, 0.0, 0.01600000075995922, 1.0240000486373901, 0.0, 0.0, 0.0, 0.0, 0.0, 1.6024560386430836E9, 2020-10-11 17:40:38.643
48.0, 22.68062400817871, 3961.653564453125, -1058.01025390625, 2359.4560546875, 0.0, 0.01600000075995922, 1.0240000486373901, 0.0, 0.0, 0.0, 0.0, 0.0, 1.6024560386430836E9, 2020-10-11 17:40:38.643
49.0, -111.80992126464844, 3806.75439453125, -1174.822265625, 2552.165771484375, 0.0, 0.01600000075995922, 1.0240000486373901, 0.0, 0.0, 0.0, 0.0, 0.0, 1.6024560386566503E9, 2020-10-11 17:40:38.656
49.0, 76.62867736816406, 4009.408447265625, -997.9885864257812, 2359.351318359375, 0.0, 0.01600000075995922, 1.0240000486373901, 0.0, 0.0, 0.0, 0.0, 0.0, 1.6024560386566503E9, 2020-10-11 17:40:38.656
50.0, 110.25785827636719, 4057.6455078125, -974.0344848632812, 2511.456787109375, 0.0, 0.01600000075995922, 1.0080000162124634, 0.0, 0.0, 0.0, 0.0, 0.0, 1.6024560386886504E9, 2020-10-11 17:40:38.688
50.0, -116.98967742919922, 4289.09130859375, -1197.560791015625, 2675.4140625, 0.0, 0.01600000075995922, 1.0080000162124634, 0.0, 0.0, 0.0, 0.0, 0.0, 1.6024560386886504E9, 2020-10-11 17:40:38.688
51.0, 0.15894575417041779, 4424.95068359375, -1089.8255615234375, 2550.7333984375, 0.0, 0.01600000075995922, 1.0080000162124634, 0.0, 0.0, 0.0, 0.0, 0.0, 1.6024560386893876E9, 2020-10-11 17:40:38.689
51.0, 146.69570922851562, 4587.927734375, -953.3341674804688, 2753.998779296875, 0.0, 0.01600000075995922, 1.0080000162124634, 0.0, 0.0, 0.0, 0.0, 0.0, 1.6024560386893876E9, 2020-10-11 17:40:38.689
52.0, -68.83098602294922, 4352.5498046875, -1140.6021728515625, 2633.388916015625, 0.0, 0.01600000075995922, 1.0080000162124634, 0.0, 0.0, 0.0, 0.0, 0.0, 1.6024560386901262E9, 2020-10-11 17:40:38.690
52.0, -67.93341064453125, 4353.7392578125, -1121.9625244140625, 2803.761962890625, 0.0, 0.01600000075995922, 1.0080000162124634, 0.0, 0.0, 0.0, 0.0, 0.0, 1.6024560386901262E9, 2020-10-11 17:40:38.690
53.0, 131.19007873535156, 4571.62939453125, -945.3644409179688, 2709.385498046875, 0.0, 0.01600000075995922, 1.0080000162124634, 0.0, 0.0, 0.0, 0.0, 0.0, 1.6024560386908772E9, 2020-10-11 17:40:38.690
53.0, 18.503154754638672, 4456.3134765625, -1060.661865234375, 2851.894287109375, 0.0, 0.01600000075995922, 1.0080000162124634, 0.0, 0.0, 0.0, 0.0, 0.0, 1.6024560386908772E9, 2020-10-11 17:40:38.690
54.0, -112.43074035644531, 4300.60986328125, -1176.430419921875, 3040.23193359375, 0.0, 0.01600000075995922, 1.0080000162124634, 0.0, 0.0, 0.0, 0.0, 0.0, 1.6024560387016268E9, 2020-10-11 17:40:38.701
54.0, 72.14453887939453, 4501.4052734375, -1005.980712890625, 2841.27294921875, 0.0, 0.01600000075995922, 1.0080000162124634, 0.0, 0.0, 0.0, 0.0, 0.0, 1.6024560387016268E9, 2020-10-11 17:40:38.701
55.0, 100.50794219970703, 4539.23828125, -982.3333129882812, 2993.2626953125, 0.0, 0.01600000075995922, 1.0080000162124634, 0.0, 0.0, 0.0, 0.0, 0.0, 1.6024560387168117E9, 2020-10-11 17:40:38.716
55.0, -116.7054443359375, 4783.107421875, -1177.07373046875, 3170.3955078125, 0.0, 0.01600000075995922, 1.0080000162124634, 0.0, 0.0, 0.0, 0.0, 0.0, 1.6024560387168117E9, 2020-10-11 17:40:38.716
56.0, 12.930704116821289, 4920.6572265625, -1075.0491943359375, 3053.49365234375, 0.0, 0.01600000075995922, 1.0080000162124634, 0.0, 0.0, 0.0, 0.0, 0.0, 1.6024560387323904E9, 2020-10-11 17:40:38.732
56.0, 150.5328369140625, 5085.744140625, -934.6495971679688, 3255.719482421875, 0.0, 0.01600000075995922, 1.0080000162124634, 0.0, 0.0, 0.0, 0.0, 0.0, 1.6024560387323904E9, 2020-10-11 17:40:38.732
57.0, -71.81169128417969, 4844.326171875, -1118.6676025390625, 3132.62255859375, 0.0, 0.01600000075995922, 1.0080000162124634, 0.0, 0.0, 0.0, 0.0, 0.0, 1.6024560387330925E9, 2020-10-11 17:40:38.733
57.0, -71.20208740234375, 4836.2626953125, -1134.8427734375, 3284.718505859375, 0.0, 0.01600000075995922, 1.0080000162124634, 0.0, 0.0, 0.0, 0.0, 0.0, 1.6024560387330925E9, 2020-10-11 17:40:38.733
58.0, 120.19103240966797, 5054.8037109375, -953.0424194335938, 3189.586669921875, 0.0, 0.01600000075995922, 1.0080000162124634, 0.0, 0.0, 0.0, 0.0, 0.0, 1.6024560387467945E9, 2020-10-11 17:40:38.746
58.0, 10.054720878601074, 4935.34423828125, -1056.9967041015625, 3349.18701171875, 0.0, 0.01600000075995922, 1.0080000162124634, 0.0, 0.0, 0.0, 0.0, 0.0, 1.6024560387467945E9, 2020-10-11 17:40:38.746
59.0, -126.40300750732422, 4782.625, -1180.7088623046875, 3521.585205078125, 0.0, 0.01600000075995922, 1.0080000162124634, 0.0, 0.0, 0.0, 0.0, 0.0, 1.6024560387623465E9, 2020-10-11 17:40:38.762
59.0, 64.03269958496094, 4986.109375, -1008.5986328125, 3326.70654296875, 0.0, 0.01600000075995922, 1.0080000162124634, 0.0, 0.0, 0.0, 0.0, 0.0, 1.6024560387623465E9, 2020-10-11 17:40:38.762
60.0, 100.37330627441406, 5031.8486328125, -984.9176025390625, 3487.170654296875, 0.0, 0.01600000075995922, 1.0080000162124634, 0.0, 0.0, 0.0, 0.0, 0.0, 1.6024560387630694E9, 2020-10-11 17:40:38.763
60.0, -115.3553466796875, 4790.08984375, -1177.7655029296875, 3660.825439453125, 0.0, 0.01600000075995922, 1.0080000162124634, 0.0, 0.0, 0.0, 0.0, 0.0, 1.6024560387630694E9, 2020-10-11 17:40:38.763
61.0, 5.6304192543029785, 4922.7216796875, -1072.74169921875, 3529.83544921875, 0.0, 0.03200000151991844, 1.0080000162124634, 0.0, 0.0, 0.0, 0.0, 0.0, 1.6024560387767272E9, 2020-10-11 17:40:38.776
61.0, 144.7322540283203, 5083.3994140625, -926.5377807617188, 3748.408203125, 0.0, 0.03200000151991844, 1.0080000162124634, 0.0, 0.0, 0.0, 0.0, 0.0, 1.6024560387767272E9, 2020-10-11 17:40:38.776
62.0, -76.81193542480469, 5328.353515625, -1126.768310546875, 3620.479248046875, 0.0, 0.03200000151991844, 1.0080000162124634, 0.0, 0.0, 0.0, 0.0, 0.0, 1.6024560387923615E9, 2020-10-11 17:40:38.792
62.0, -67.90723419189453, 5340.8369140625, -1113.65625, 3774.946533203125, 0.0, 0.03200000151991844, 1.0080000162124634, 0.0, 0.0, 0.0, 0.0, 0.0, 1.6024560387923615E9, 2020-10-11 17:40:38.792
63.0, 137.54791259765625, 5565.728515625, -931.81103515625, 3694.295654296875, 0.0, 0.03200000151991844, 1.0080000162124634, 0.0, 0.0, 0.0, 0.0, 0.0, 1.602456038793095E9, 2020-10-11 17:40:38.793
63.0, 13.693643569946289, 5428.94140625, -1067.6890869140625, 3839.572021484375, 0.0, 0.03200000151991844, 1.0080000162124634, 0.0, 0.0, 0.0, 0.0, 0.0, 1.602456038793095E9, 2020-10-11 17:40:38.793
64.0, -108.107421875, 5287.28173828125, -1165.7978515625, 4021.712646484375, 0.0, 0.03200000151991844, 1.0080000162124634, 0.0, 0.0, 0.0, 0.0, 0.0, 1.6024560388066711E9, 2020-10-11 17:40:38.806
64.0, 78.87635803222656, 5496.921875, -1003.6769409179688, 3824.612548828125, 0.0, 0.03200000151991844, 1.0080000162124634, 0.0, 0.0, 0.0, 0.0, 0.0, 1.6024560388066711E9, 2020-10-11 17:40:38.806
65.0, 110.92729949951172, 5527.701171875, -980.5867919921875, 3997.07421875, 0.0, 0.03200000151991844, 1.0080000162124634, 0.0, 0.0, 0.0, 0.0, 0.0, 1.6024560388223517E9, 2020-10-11 17:40:38.822
65.0, -118.63523864746094, 5762.69580078125, -1190.02490234375, 4144.3212890625, 0.0, 0.03200000151991844, 1.0080000162124634, 0.0, 0.0, 0.0, 0.0, 0.0, 1.6024560388223517E9, 2020-10-11 17:40:38.822
66.0, 17.26898765563965, 5905.30224609375, -1058.4852294921875, 4025.598388671875, 0.0, 0.03200000151991844, 1.0080000162124634, 0.0, 0.0, 0.0, 0.0, 0.0, 1.6024560388230417E9, 2020-10-11 17:40:38.823
66.0, 142.6117401123047, 6055.18603515625, -941.1083984375, 4238.03759765625, 0.0, 0.03200000151991844, 1.0080000162124634, 0.0, 0.0, 0.0, 0.0, 0.0, 1.6024560388230417E9, 2020-10-11 17:40:38.823
67.0, -74.61661529541016, 5820.0322265625, -1135.504638671875, 4111.4814453125, 0.0, 0.03200000151991844, 1.0080000162124634, 0.0, 0.0, 0.0, 0.0, 0.0, 1.6024560388366225E9, 2020-10-11 17:40:38.836
67.0, -51.71346664428711, 5834.4794921875, -1127.2918701171875, 4266.80126953125, 0.0, 0.03200000151991844, 1.0080000162124634, 0.0, 0.0, 0.0, 0.0, 0.0, 1.6024560388366225E9, 2020-10-11 17:40:38.836
68.0, 141.24667358398438, 6048.64111328125, -943.0344848632812, 4178.3076171875, 0.0, 0.03200000151991844, 1.0080000162124634, 0.0, 0.0, 0.0, 0.0, 0.0, 1.6024560388524044E9, 2020-10-11 17:40:38.852
68.0, 18.806087493896484, 5917.4228515625, -1066.96728515625, 4342.912109375, 0.0, 0.03200000151991844, 1.0080000162124634, 0.0, 0.0, 0.0, 0.0, 0.0, 1.6024560388524044E9, 2020-10-11 17:40:38.852
69.0, -113.06278228759766, 5770.73681640625, -1171.9910888671875, 4499.94287109375, 0.0, 0.03200000151991844, 1.0080000162124634, 0.0, 0.0, 0.0, 0.0, 0.0, 1.6024560388531816E9, 2020-10-11 17:40:38.853
69.0, 81.64014434814453, 5980.904296875, -996.9488525390625, 4305.64794921875, 0.0, 0.03200000151991844, 1.0080000162124634, 0.0, 0.0, 0.0, 0.0, 0.0, 1.6024560388531816E9, 2020-10-11 17:40:38.853
70.0, 108.49263000488281, 6012.9736328125, -975.332275390625, 4487.73583984375, 0.0, 0.03200000151991844, 1.0240000486373901, 0.0, 0.0, 0.0, 0.0, 0.0, 1.6024560388666353E9, 2020-10-11 17:40:38.866
70.0, -126.3543930053711, 6245.61962890625, -1187.4481201171875, 4630.55908203125, 0.0, 0.03200000151991844, 1.0240000486373901, 0.0, 0.0, 0.0, 0.0, 0.0, 1.6024560388666353E9, 2020-10-11 17:40:38.866
71.0, 11.258968353271484, 6391.857421875, -1080.045654296875, 4503.8173828125, 0.0, 0.03200000151991844, 1.0240000486373901, 0.0, 0.0, 0.0, 0.0, 0.0, 1.6024560388824208E9, 2020-10-11 17:40:38.882
71.0, 154.29518127441406, 6552.13818359375, -941.1121826171875, 4737.443359375, 0.0, 0.03200000151991844, 1.0240000486373901, 0.0, 0.0, 0.0, 0.0, 0.0, 1.6024560388824208E9, 2020-10-11 17:40:38.882
72.0, -59.00627136230469, 6312.96435546875, -1130.609130859375, 4611.03662109375, -0.01600000075995922, 0.03200000151991844, 1.0240000486373901, 0.0, 0.0, 0.0, 0.0, 0.0, 1.6024560388830433E9, 2020-10-11 17:40:38.883
72.0, -50.79719161987305, 6319.32958984375, -1121.2294921875, 4752.63134765625, -0.01600000075995922, 0.03200000151991844, 1.0240000486373901, 0.0, 0.0, 0.0, 0.0, 0.0, 1.6024560388830433E9, 2020-10-11 17:40:38.883
73.0, 142.25643920898438, 6537.23486328125, -946.0563354492188, 4669.6318359375, -0.01600000075995922, 0.03200000151991844, 1.0240000486373901, 0.0, 0.0, 0.0, 0.0, 0.0, 1.6024560388966098E9, 2020-10-11 17:40:38.896
73.0, 11.733936309814453, 6401.6298828125, -1054.9771728515625, 4837.478515625, -0.01600000075995922, 0.03200000151991844, 1.0240000486373901, 0.0, 0.0, 0.0, 0.0, 0.0, 1.6024560388966098E9, 2020-10-11 17:40:38.896
74.0, -108.05879974365234, 6258.07373046875, -1170.85791015625, 4985.54833984375, -0.01600000075995922, 0.03200000151991844, 1.0240000486373901, 0.0, 0.0, 0.0, 0.0, 0.0, 1.6024560389123394E9, 2020-10-11 17:40:38.912
74.0, 87.82219696044922, 6480.1337890625, -1001.5040893554688, 4796.79931640625, -0.01600000075995922, 0.03200000151991844, 1.0240000486373901, 0.0, 0.0, 0.0, 0.0, 0.0, 1.6024560389123394E9, 2020-10-11 17:40:38.912
75.0, 106.94805145263672, 6499.35693359375, -983.7657470703125, 4979.18701171875, -0.01600000075995922, 0.03200000151991844, 1.0240000486373901, 0.0, 0.0, 0.0, 0.0, 0.0, 1.6024560389130664E9, 2020-10-11 17:40:38.913
75.0, -118.82597351074219, 6740.23095703125, -1187.264892578125, 5122.1259765625, -0.01600000075995922, 0.03200000151991844, 1.0240000486373901, 0.0, 0.0, 0.0, 0.0, 0.0, 1.6024560389130664E9, 2020-10-11 17:40:38.913
76.0, 16.820199966430664, 6885.67919921875, -1060.3065185546875, 4997.8564453125, -0.01600000075995922, 0.03200000151991844, 1.0240000486373901, 0.0, 0.0, 0.0, 0.0, 0.0, 1.6024560389429967E9, 2020-10-11 17:40:38.942
76.0, 144.33583068847656, 7040.9150390625, -938.7971801757812, 5224.3505859375, -0.01600000075995922, 0.03200000151991844, 1.0240000486373901, 0.0, 0.0, 0.0, 0.0, 0.0, 1.6024560389429967E9, 2020-10-11 17:40:38.942
77.0, -77.67211151123047, 7281.02978515625, -1147.132080078125, 5094.25634765625, -0.01600000075995922, 0.03200000151991844, 1.0240000486373901, 0.0, 0.0, 0.0, 0.0, 0.0, 1.6024560389437304E9, 2020-10-11 17:40:38.943
77.0, -67.82869720458984, 7287.2607421875, -1141.275390625, 5219.39111328125, -0.01600000075995922, 0.03200000151991844, 1.0240000486373901, 0.0, 0.0, 0.0, 0.0, 0.0, 1.6024560389437304E9, 2020-10-11 17:40:38.943
78.0, 130.2775421142578, 7500.14306640625, -973.4136962890625, 5147.177734375, -0.01600000075995922, 0.03200000151991844, 1.0240000486373901, 0.0, 0.0, 0.0, 0.0, 0.0, 1.6024560389444811E9, 2020-10-11 17:40:38.944
78.0, 13.918037414550781, 7382.18310546875, -1073.0595703125, 5328.20361328125, -0.01600000075995922, 0.03200000151991844, 1.0240000486373901, 0.0, 0.0, 0.0, 0.0, 0.0, 1.6024560389444811E9, 2020-10-11 17:40:38.944
79.0, -128.63198852539062, 7227.39599609375, -1189.482666015625, 5463.5283203125, -0.01600000075995922, 0.03200000151991844, 1.0240000486373901, 0.0, 0.0, 0.0, 0.0, 0.0, 1.6024560389566488E9, 2020-10-11 17:40:38.956
79.0, 53.744232177734375, 7428.8642578125, -1017.1929321289062, 5260.35791015625, -0.01600000075995922, 0.03200000151991844, 1.0240000486373901, 0.0, 0.0, 0.0, 0.0, 0.0, 1.6024560389566488E9, 2020-10-11 17:40:38.956
80.0, 83.01268768310547, 7464.7412109375, -996.7693481445312, 5461.60986328125, -0.01600000075995922, 0.03200000151991844, 1.0080000162124634, 0.0, 0.0, 0.0, 0.0, 0.0, 1.6024560389723103E9, 2020-10-11 17:40:38.972
80.0, -131.6239013671875, 7226.6181640625, -1184.8900146484375, 5607.18896484375, -0.01600000075995922, 0.03200000151991844, 1.0080000162124634, 0.0, 0.0, 0.0, 0.0, 0.0, 1.6024560389723103E9, 2020-10-11 17:40:38.972
81.0, -7.376952648162842, 7354.7919921875, -1079.2716064453125, 5463.1279296875, -0.01600000075995922, 0.03200000151991844, 1.0080000162124634, 0.0, 0.0, 0.0, 0.0, 0.0, 1.6024560389731753E9, 2020-10-11 17:40:38.973
81.0, 132.06895446777344, 7505.51708984375, -958.8692016601562, 5706.44775390625, -0.01600000075995922, 0.03200000151991844, 1.0080000162124634, 0.0, 0.0, 0.0, 0.0, 0.0, 1.6024560389731753E9, 2020-10-11 17:40:38.973
82.0, -97.3140640258789, 7747.8125, -1179.470947265625, 5572.87548828125, 0.0, 0.03200000151991844, 1.0080000162124634, 0.0, 0.0, 0.0, 0.0, 0.0, 1.602456038986705E9, 2020-10-11 17:40:38.986
82.0, -92.5718765258789, 7750.833984375, -1164.95263671875, 5691.77978515625, 0.0, 0.03200000151991844, 1.0080000162124634, 0.0, 0.0, 0.0, 0.0, 0.0, 1.602456038986705E9, 2020-10-11 17:40:38.986
83.0, 123.4297866821289, 7985.7412109375, -976.4766845703125, 5630.47900390625, 0.0, 0.03200000151991844, 1.0080000162124634, 0.0, 0.0, 0.0, 0.0, 0.0, 1.6024560390023344E9, 2020-10-11 17:40:39.002
83.0, -7.762162208557129, 7846.830078125, -1089.904052734375, 5812.5, 0.0, 0.03200000151991844, 1.0080000162124634, 0.0, 0.0, 0.0, 0.0, 0.0, 1.6024560390023344E9, 2020-10-11 17:40:39.002
84.0, -118.1490478515625, 7720.19677734375, -1193.544189453125, 5949.455078125, 0.0, 0.03200000151991844, 1.0080000162124634, 0.0, 0.0, 0.0, 0.0, 0.0, 1.6024560390031044E9, 2020-10-11 17:40:39.003
84.0, 73.21788787841797, 7934.36962890625, -1004.2977905273438, 5763.62353515625, 0.0, 0.03200000151991844, 1.0080000162124634, 0.0, 0.0, 0.0, 0.0, 0.0, 1.6024560390031044E9, 2020-10-11 17:40:39.003
85.0, 102.28813171386719, 7965.65771484375, -986.3986206054688, 5968.91015625, 0.0, 0.03200000151991844, 1.0080000162124634, 0.0, 0.0, 0.0, 0.0, 0.0, 1.6024560390166478E9, 2020-10-11 17:40:39.016
85.0, -119.5702133178711, 7724.751953125, -1182.919189453125, 6099.62353515625, 0.0, 0.03200000151991844, 1.0080000162124634, 0.0, 0.0, 0.0, 0.0, 0.0, 1.6024560390166478E9, 2020-10-11 17:40:39.016
86.0, -2.8591535091400146, 7852.78369140625, -1081.908203125, 5949.68359375, 0.0, 0.03200000151991844, 1.0080000162124634, 0.0, 0.0, 0.0, 0.0, 0.0, 1.6024560390323217E9, 2020-10-11 17:40:39.032
86.0, 131.70619201660156, 7994.0361328125, -965.6010131835938, 5704.67138671875, 0.0, 0.03200000151991844, 1.0080000162124634, 0.0, 0.0, 0.0, 0.0, 0.0, 1.6024560390323217E9, 2020-10-11 17:40:39.032
87.0, -84.11595916748047, 7757.203125, -1160.8948974609375, 5581.880859375, 0.0, 0.03200000151991844, 1.0080000162124634, 0.0, 0.0, 0.0, 0.0, 0.0, 1.6024560390330572E9, 2020-10-11 17:40:39.033
87.0, -53.91252899169922, 7794.7255859375, -1126.9365234375, 5715.1806640625, 0.0, 0.03200000151991844, 1.0080000162124634, 0.0, 0.0, 0.0, 0.0, 0.0, 1.6024560390330572E9, 2020-10-11 17:40:39.033
88.0, 138.3407745361328, 8005.873046875, -941.61328125, 5647.9482421875, 0.0, 0.03200000151991844, 1.0080000162124634, 0.0, 0.0, 0.0, 0.0, 0.0, 1.6024560390466523E9, 2020-10-11 17:40:39.046
88.0, 13.947957038879395, 7873.44677734375, -1062.131591796875, 5833.76171875, 0.0, 0.03200000151991844, 1.0080000162124634, 0.0, 0.0, 0.0, 0.0, 0.0, 1.6024560390466523E9, 2020-10-11 17:40:39.046
89.0, -110.74031066894531, 7745.0185546875, -1161.104248046875, 5963.2666015625, 0.0, 0.03200000151991844, 1.0080000162124634, 0.0, 0.0, 0.0, 0.0, 0.0, 1.6024560390623488E9, 2020-10-11 17:40:39.062
89.0, 88.24855041503906, 7955.03662109375, -989.3344116210938, 5776.26806640625, 0.0, 0.03200000151991844, 1.0080000162124634, 0.0, 0.0, 0.0, 0.0, 0.0, 1.6024560390623488E9, 2020-10-11 17:40:39.062
90.0, 94.32588958740234, 7966.4169921875, -982.9766235351562, 5979.54638671875, 0.0, 0.03200000151991844, 1.0240000486373901, 0.0, 0.0, 0.0, 0.0, 0.0, 1.6024560390630436E9, 2020-10-11 17:40:39.063
90.0, -128.5796356201172, 8206.796875, -1193.3123779296875, 6097.83935546875, 0.0, 0.03200000151991844, 1.0240000486373901, 0.0, 0.0, 0.0, 0.0, 0.0, 1.6024560390630436E9, 2020-10-11 17:40:39.063
91.0, 11.63295841217041, 8357.193359375, -1062.7149658203125, 5962.3876953125, 0.0, 0.03200000151991844, 1.0240000486373901, 0.0, 0.0, 0.0, 0.0, 0.0, 1.6024560390766437E9, 2020-10-11 17:40:39.076
91.0, 145.71585083007812, 8511.4228515625, -939.4591064453125, 5726.45263671875, 0.0, 0.03200000151991844, 1.0240000486373901, 0.0, 0.0, 0.0, 0.0, 0.0, 1.6024560390766437E9, 2020-10-11 17:40:39.076
92.0, -79.63555908203125, 8752.828125, -1144.585205078125, 5587.22900390625, 0.0, 0.03200000151991844, 1.0240000486373901, 0.0, 0.0, 0.0, 0.0, 0.0, 1.602456039092321E9, 2020-10-11 17:40:39.092
92.0, -58.370487213134766, 8770.4541015625, -1125.504150390625, 5707.39013671875, 0.0, 0.03200000151991844, 1.0240000486373901, 0.0, 0.0, 0.0, 0.0, 0.0, 1.602456039092321E9, 2020-10-11 17:40:39.092
93.0, 147.6194610595703, 8996.4306640625, -944.1078491210938, 5649.61279296875, 0.0, 0.03200000151991844, 1.0240000486373901, 0.0, 0.0, 0.0, 0.0, 0.0, 1.6024560390930135E9, 2020-10-11 17:40:39.093
93.0, 0.6862716674804688, 8838.685546875, -1077.8167724609375, 5827.9794921875, 0.0, 0.03200000151991844, 1.0240000486373901, 0.0, 0.0, 0.0, 0.0, 0.0, 1.6024560390930135E9, 2020-10-11 17:40:39.093
94.0, -129.07330322265625, 8700.013671875, -1188.7047119140625, 5939.3388671875, 0.0, 0.03200000151991844, 1.0240000486373901, 0.0, 0.0, 0.0, 0.0, 0.0, 1.602456039123084E9, 2020-10-11 17:40:39.123
94.0, 65.16962432861328, 8909.68359375, -1017.0321044921875, 5750.75830078125, 0.0, 0.03200000151991844, 1.0240000486373901, 0.0, 0.0, 0.0, 0.0, 0.0, 1.602456039123084E9, 2020-10-11 17:40:39.123
95.0, 77.67584991455078, 8931.775390625, -994.4019775390625, 5966.70361328125, 0.0, 0.03200000151991844, 1.0240000486373901, 0.0, 0.0, 0.0, 0.0, 0.0, 1.6024560391237247E9, 2020-10-11 17:40:39.123
95.0, -130.80860900878906, 8691.658203125, -1198.252685546875, 6091.15283203125, 0.0, 0.03200000151991844, 1.0240000486373901, 0.0, 0.0, 0.0, 0.0, 0.0, 1.6024560391237247E9, 2020-10-11 17:40:39.123
96.0, 11.932150840759277, 8845.6748046875, -1058.114990234375, 5963.45361328125, 0.0, 0.03200000151991844, 1.0240000486373901, 0.0, 0.0, 0.0, 0.0, 0.0, 1.6024560391245017E9, 2020-10-11 17:40:39.124
96.0, 143.81971740722656, 8991.9384765625, -946.8604125976562, 5724.5078125, 0.0, 0.03200000151991844, 1.0240000486373901, 0.0, 0.0, 0.0, 0.0, 0.0, 1.6024560391245017E9, 2020-10-11 17:40:39.124
97.0, -90.54484558105469, 9227.6552734375, -1169.2984619140625, 5583.16748046875, 0.0, 0.03200000151991844, 1.0240000486373901, 0.0, 0.0, 0.0, 0.0, 0.0, 1.60245603913663E9, 2020-10-11 17:40:39.136
97.0, -62.26372528076172, 9249.982421875, -1138.7733154296875, 5700.01123046875, 0.0, 0.03200000151991844, 1.0240000486373901, 0.0, 0.0, 0.0, 0.0, 0.0, 1.60245603913663E9, 2020-10-11 17:40:39.136
98.0, 130.16534423828125, 9466.06640625, -959.9874267578125, 5637.607421875, 0.0, 0.03200000151991844, 1.0240000486373901, 0.0, 0.0, 0.0, 0.0, 0.0, 1.602456039152357E9, 2020-10-11 17:40:39.152
98.0, 2.982570171356201, 9336.3291015625, -1075.052978515625, 5837.60986328125, 0.0, 0.03200000151991844, 1.0240000486373901, 0.0, 0.0, 0.0, 0.0, 0.0, 1.602456039152357E9, 2020-10-11 17:40:39.152
99.0, -122.21806335449219, 9194.34765625, -1179.8074951171875, 5942.04296875, 0.0, 0.03200000151991844, 1.0240000486373901, 0.0, 0.0, 0.0, 0.0, 0.0, 1.6024560391531267E9, 2020-10-11 17:40:39.153
99.0, 65.46508026123047, 9399.7060546875, -1009.9599609375, 5751.375, 0.0, 0.03200000151991844, 1.0240000486373901, 0.0, 0.0, 0.0, 0.0, 0.0, 1.6024560391531267E9, 2020-10-11 17:40:39.153
100.0, 89.95394134521484, 9432.0673828125, -993.0743408203125, 5983.80615234375, 0.0, 0.03200000151991844, 1.0240000486373901, 0.0, 0.0, 0.0, 0.0, 0.0, 1.6024560391837142E9, 2020-10-11 17:40:39.183
100.0, -133.22833251953125, 9669.1787109375, -1191.326416015625, 6088.27685546875, 0.0, 0.03200000151991844, 1.0240000486373901, 0.0, 0.0, 0.0, 0.0, 0.0, 1.6024560391837142E9, 2020-10-11 17:40:39.183
0.0, 19.770980834960938, 21.35295867919922, -1069.551513671875, -422.12811279296875, 0.0, 0.03200000151991844, 1.0240000486373901, 0.0, 0.0, 0.0, 0.0, 0.0, 1.6024560391844614E9, 2020-10-11 17:40:39.184
1.0, 131.23495483398438, 164.16477966308594, -952.4253540039062, -645.2841796875, 0.0, 0.03200000151991844, 1.0240000486373901, 0.0, 0.0, 0.0, 0.0, 0.0, 1.6024560391852207E9, 2020-10-11 17:40:39.185
1.0, -88.57392120361328, 403.5688781738281, -1163.639892578125, -784.4627075195312, 0.0, 0.03200000151991844, 1.0240000486373901, 0.0, 0.0, 0.0, 0.0, 0.0, 1.6024560391852207E9, 2020-10-11 17:40:39.185
2.0, -73.03463745117188, 420.5854187011719, -1139.843017578125, -685.1178588867188, -0.01600000075995922, 0.03200000151991844, 1.0240000486373901, 0.0, 0.0, 0.0, 0.0, 0.0, 1.6024560391859612E9, 2020-10-11 17:40:39.185
2.0, 119.33834075927734, 639.4481201171875, -957.7435302734375, -737.3530883789062, -0.01600000075995922, 0.03200000151991844, 1.0240000486373901, 0.0, 0.0, 0.0, 0.0, 0.0, 1.6024560391859612E9, 2020-10-11 17:40:39.185
3.0, -10.256675720214844, 499.8189392089844, -1086.9608154296875, -538.296875, -0.01600000075995922, 0.03200000151991844, 1.0240000486373901, 0.0, 0.0, 0.0, 0.0, 0.0, 1.602456039196727E9, 2020-10-11 17:40:39.196
3.0, -118.58661651611328, 372.4416809082031, -1175.3009033203125, -431.3694152832031, -0.01600000075995922, 0.03200000151991844, 1.0240000486373901, 0.0, 0.0, 0.0, 0.0, 0.0, 1.602456039196727E9, 2020-10-11 17:40:39.196
4.0, 72.29039764404297, 577.1077270507812, -1005.6702880859375, -626.5585327148438, -0.01600000075995922, 0.03200000151991844, 1.0240000486373901, 0.0, 0.0, 0.0, 0.0, 0.0, 1.6024560392117558E9, 2020-10-11 17:40:39.211
4.0, 96.84284210205078, 606.4883422851562, -991.2193603515625, -387.2236328125, -0.01600000075995922, 0.03200000151991844, 1.0240000486373901, 0.0, 0.0, 0.0, 0.0, 0.0, 1.6024560392117558E9, 2020-10-11 17:40:39.211
5.0, -129.32386779785156, 850.9862060546875, -1190.821533203125, -278.56085205078125, -0.01600000075995922, 0.03200000151991844, 1.0240000486373901, 0.0, 0.0, 0.0, 0.0, 0.0, 1.6024560392440553E9, 2020-10-11 17:40:39.244
5.0, 11.606779098510742, 1000.7243041992188, -1065.983642578125, -422.8760986328125, -0.01600000075995922, 0.03200000151991844, 1.0240000486373901, 0.0, 0.0, 0.0, 0.0, 0.0, 1.6024560392440553E9, 2020-10-11 17:40:39.244
6.0, 122.89498138427734, 1129.15625, -969.1576538085938, -652.58447265625, -0.01600000075995922, 0.03200000151991844, 1.0240000486373901, 0.0, 0.0, 0.0, 0.0, 0.0, 1.60245603924488E9, 2020-10-11 17:40:39.244
6.0, -92.16796112060547, 892.5626831054688, -1160.8836669921875, -780.3787231445312, -0.01600000075995922, 0.03200000151991844, 1.0240000486373901, 0.0, 0.0, 0.0, 0.0, 0.0, 1.60245603924488E9, 2020-10-11 17:40:39.244
7.0, -68.681396484375, 909.070556640625, -1148.1455078125, -687.1411743164062, -0.01600000075995922, 0.03200000151991844, 1.0240000486373901, 0.0, 0.0, 0.0, 0.0, 0.0, 1.602456039245196E9, 2020-10-11 17:40:39.245
7.0, 129.8549346923828, 1130.741943359375, -961.3936157226562, -737.7457275390625, -0.01600000075995922, 0.03200000151991844, 1.0240000486373901, 0.0, 0.0, 0.0, 0.0, 0.0, 1.602456039245196E9, 2020-10-11 17:40:39.245
8.0, -8.00899600982666, 993.554931640625, -1075.535400390625, -529.85595703125, -0.01600000075995922, 0.03200000151991844, 1.0240000486373901, 0.0, 0.0, 0.0, 0.0, 0.0, 1.6024560392459044E9, 2020-10-11 17:40:39.245
8.0, -118.71003723144531, 856.8877563476562, -1186.79736328125, -430.4980163574219, -0.01600000075995922, 0.03200000151991844, 1.0240000486373901, 0.0, 0.0, 0.0, 0.0, 0.0, 1.6024560392459044E9, 2020-10-11 17:40:39.245
9.0, 73.45350646972656, 1072.08154296875, -1005.1841430664062, -627.6730346679688, -0.01600000075995922, 0.03200000151991844, 1.0240000486373901, 0.0, 0.0, 0.0, 0.0, 0.0, 1.6024560392566297E9, 2020-10-11 17:40:39.256
9.0, 87.83341979980469, 1081.775390625, -1003.3590698242188, -388.7196044921875, -0.01600000075995922, 0.03200000151991844, 1.0240000486373901, 0.0, 0.0, 0.0, 0.0, 0.0, 1.6024560392566297E9, 2020-10-11 17:40:39.256
10.0, -121.63463592529297, 855.7994384765625, -1191.9996337890625, -278.60198974609375, -0.01600000075995922, 0.03200000151991844, 1.0080000162124634, 0.0, 0.0, 0.0, 0.0, 0.0, 1.6024560392716236E9, 2020-10-11 17:40:39.271
10.0, 9.048687934875488, 995.66796875, -1065.2357177734375, -428.58319091796875, -0.01600000075995922, 0.03200000151991844, 1.0080000162124634, 0.0, 0.0, 0.0, 0.0, 0.0, 1.6024560392716236E9, 2020-10-11 17:40:39.271
11.0, 133.57614135742188, 1138.1993408203125, -959.7293701171875, -651.8739013671875, -0.01600000075995922, 0.03200000151991844, 1.0080000162124634, 0.0, 0.0, 0.0, 0.0, 0.0, 1.6024560392874455E9, 2020-10-11 17:40:39.287
11.0, -97.75537872314453, 1382.9140625, -1159.986083984375, -788.2811279296875, -0.01600000075995922, 0.03200000151991844, 1.0080000162124634, 0.0, 0.0, 0.0, 0.0, 0.0, 1.6024560392874455E9, 2020-10-11 17:40:39.287
12.0, -65.45011901855469, 1409.4486083984375, -1120.3057861328125, -677.6268920898438, 0.0, 0.03200000151991844, 1.0080000162124634, 0.0, 0.0, 0.0, 0.0, 0.0, 1.6024560392881336E9, 2020-10-11 17:40:39.288
12.0, 122.04228210449219, 1618.957763671875, -954.05224609375, -734.099365234375, 0.0, 0.03200000151991844, 1.0080000162124634, 0.0, 0.0, 0.0, 0.0, 0.0, 1.6024560392881336E9, 2020-10-11 17:40:39.288
13.0, 1.4679107666015625, 1490.009765625, -1063.8818359375, -535.6378173828125, 0.0, 0.03200000151991844, 1.0080000162124634, 0.0, 0.0, 0.0, 0.0, 0.0, 1.602456039318037E9, 2020-10-11 17:40:39.318
13.0, -117.01959991455078, 1356.8768310546875, -1172.653076171875, -427.38641357421875, 0.0, 0.03200000151991844, 1.0080000162124634, 0.0, 0.0, 0.0, 0.0, 0.0, 1.602456039318037E9, 2020-10-11 17:40:39.318
14.0, 73.13561248779297, 1560.86962890625, -1009.735595703125, -617.9492797851562, 0.0, 0.03200000151991844, 1.0080000162124634, 0.0, 0.0, 0.0, 0.0, 0.0, 1.6024560393187113E9, 2020-10-11 17:40:39.318
14.0, 83.59237670898438, 1584.7041015625, -994.4468994140625, -397.72900390625, 0.0, 0.03200000151991844, 1.0080000162124634, 0.0, 0.0, 0.0, 0.0, 0.0, 1.6024560393187113E9, 2020-10-11 17:40:39.318
15.0, -117.53944396972656, 1362.6251220703125, -1178.5284423828125, -279.2377624511719, 0.0, 0.03200000151991844, 1.0080000162124634, 0.0, 0.0, 0.0, 0.0, 0.0, 1.6024560393195004E9, 2020-10-11 17:40:39.319
15.0, -2.6422393321990967, 1483.93994140625, -1063.6986083984375, -413.9452209472656, 0.0, 0.03200000151991844, 1.0080000162124634, 0.0, 0.0, 0.0, 0.0, 0.0, 1.6024560393195004E9, 2020-10-11 17:40:39.319
16.0, 128.6282501220703, 1622.944580078125, -949.95703125, -169.5296630859375, 0.0, 0.03200000151991844, 1.0080000162124634, 0.0, 0.0, 0.0, 0.0, 0.0, 1.602456039331606E9, 2020-10-11 17:40:39.331
16.0, -67.320068359375, 1414.3067626953125, -1141.0472412109375, -302.45880126953125, 0.0, 0.03200000151991844, 1.0080000162124634, 0.0, 0.0, 0.0, 0.0, 0.0, 1.602456039331606E9, 2020-10-11 17:40:39.331
17.0, -53.54975891113281, 1424.1575927734375, -1127.8828125, -158.22021484375, 0.0, 0.03200000151991844, 1.0080000162124634, 0.0, 0.0, 0.0, 0.0, 0.0, 1.6024560393473227E9, 2020-10-11 17:40:39.347
17.0, 105.52688598632812, 1607.4127197265625, -976.5739135742188, -243.9424591064453, 0.0, 0.03200000151991844, 1.0080000162124634, 0.0, 0.0, 0.0, 0.0, 0.0, 1.6024560393473227E9, 2020-10-11 17:40:39.347
18.0, 2.163532018661499, 1492.4930419921875, -1075.6925048828125, -70.0184097290039, 0.0, 0.03200000151991844, 1.0080000162124634, 0.0, 0.0, 0.0, 0.0, 0.0, 1.6024560393480773E9, 2020-10-11 17:40:39.348
18.0, -96.98869323730469, 1383.138427734375, -1158.086181640625, 78.18260955810547, 0.0, 0.03200000151991844, 1.0080000162124634, 0.0, 0.0, 0.0, 0.0, 0.0, 1.6024560393480773E9, 2020-10-11 17:40:39.348
19.0, 59.61961364746094, 1544.0738525390625, -1014.148681640625, -112.82530212402344, 0.0, 0.03200000151991844, 1.0080000162124634, 0.0, 0.0, 0.0, 0.0, 0.0, 1.602456039361602E9, 2020-10-11 17:40:39.361
19.0, 71.64339447021484, 1564.7591552734375, -998.1306762695312, 79.50279235839844, 0.0, 0.03200000151991844, 1.0080000162124634, 0.0, 0.0, 0.0, 0.0, 0.0, 1.602456039361602E9, 2020-10-11 17:40:39.361
20.0, -107.37065887451172, 1369.944091796875, -1172.8251953125, 209.0117950439453, 0.0, 0.03200000151991844, 1.0080000162124634, 0.0, 0.0, 0.0, 0.0, 0.0, 1.6024560393773322E9, 2020-10-11 17:40:39.377
20.0, -4.5383687019348145, 1476.359130859375, -1084.0062255859375, 85.78956604003906, 0.0, 0.03200000151991844, 1.0080000162124634, 0.0, 0.0, 0.0, 0.0, 0.0, 1.6024560393773322E9, 2020-10-11 17:40:39.377
21.0, 100.18257141113281, 1594.6072998046875, -988.679931640625, 312.2348937988281, 0.0, 0.03200000151991844, 1.0080000162124634, 0.0, 0.0, 0.0, 0.0, 0.0, 1.6024560393780627E9, 2020-10-11 17:40:39.378
21.0, -81.83836364746094, 1394.76953125, -1167.3162841796875, 167.09498596191406, 0.0, 0.03200000151991844, 1.0080000162124634, 0.0, 0.0, 0.0, 0.0, 0.0, 1.6024560393780627E9, 2020-10-11 17:40:39.378
22.0, -49.555545806884766, 1428.024658203125, -1122.7254638671875, 331.4879150390625, 0.0, 0.03200000151991844, 1.0080000162124634, 0.0, 0.0, 0.0, 0.0, 0.0, 1.6024560393916392E9, 2020-10-11 17:40:39.391
22.0, 121.38032531738281, 1610.023193359375, -956.4345092773438, 259.120849609375, 0.0, 0.03200000151991844, 1.0080000162124634, 0.0, 0.0, 0.0, 0.0, 0.0, 1.6024560393916392E9, 2020-10-11 17:40:39.391
23.0, 10.582046508789062, 1493.1588134765625, -1065.3328857421875, 425.87548828125, 0.0, 0.03200000151991844, 1.0080000162124634, 0.0, 0.0, 0.0, 0.0, 0.0, 1.6024560394073284E9, 2020-10-11 17:40:39.407
23.0, -94.25109100341797, 1379.678955078125, -1172.3614501953125, 562.5239868164062, 0.0, 0.03200000151991844, 1.0080000162124634, 0.0, 0.0, 0.0, 0.0, 0.0, 1.6024560394073284E9, 2020-10-11 17:40:39.407
24.0, 78.88009643554688, 1561.172607421875, -1004.3090209960938, 381.202392578125, 0.0, 0.03200000151991844, 1.0080000162124634, 0.0, 0.0, 0.0, 0.0, 0.0, 1.6024560394080565E9, 2020-10-11 17:40:39.408
24.0, 83.89156341552734, 1569.448974609375, -1000.8757934570312, 571.4959716796875, 0.0, 0.03200000151991844, 1.0080000162124634, 0.0, 0.0, 0.0, 0.0, 0.0, 1.6024560394080565E9, 2020-10-11 17:40:39.408
25.0, -105.34737396240234, 1371.129638671875, -1176.2696533203125, 696.505859375, 0.0, 0.03200000151991844, 1.0080000162124634, 0.0, 0.0, 0.0, 0.0, 0.0, 1.6024560394217103E9, 2020-10-11 17:40:39.421
25.0, 0.387079656124115, 1483.880126953125, -1080.4571533203125, 574.188720703125, 0.0, 0.03200000151991844, 1.0080000162124634, 0.0, 0.0, 0.0, 0.0, 0.0, 1.6024560394217103E9, 2020-10-11 17:40:39.421
26.0, 127.55863952636719, 1619.541259765625, -959.1047973632812, 819.0119018554688, 0.0, 0.03200000151991844, 1.0080000162124634, 0.0, 0.0, 0.0, 0.0, 0.0, 1.602456039437333E9, 2020-10-11 17:40:39.437
26.0, -59.67571258544922, 1423.9669189453125, -1134.8502197265625, 670.4911499023438, 0.0, 0.03200000151991844, 1.0080000162124634, 0.0, 0.0, 0.0, 0.0, 0.0, 1.602456039437333E9, 2020-10-11 17:40:39.437
27.0, -42.2664794921875, 1434.4610595703125, -1116.27783203125, 825.9344482421875, 0.0, 0.03200000151991844, 1.0080000162124634, 0.0, 0.0, 0.0, 0.0, 0.0, 1.6024560394380577E9, 2020-10-11 17:40:39.438
27.0, 120.22095489501953, 1611.7098388671875, -958.7532958984375, 747.2880859375, 0.0, 0.03200000151991844, 1.0080000162124634, 0.0, 0.0, 0.0, 0.0, 0.0, 1.6024560394380577E9, 2020-10-11 17:40:39.438
28.0, 16.027341842651367, 1498.9033203125, -1066.159423828125, 919.708740234375, 0.0, 0.03200000151991844, 1.0080000162124634, 0.0, 0.0, 0.0, 0.0, 0.0, 1.6024560394516587E9, 2020-10-11 17:40:39.451
28.0, -94.6849136352539, 1387.2523193359375, -1161.1641845703125, 1058.6610107421875, 0.0, 0.03200000151991844, 1.0080000162124634, 0.0, 0.0, 0.0, 0.0, 0.0, 1.6024560394516587E9, 2020-10-11 17:40:39.451
29.0, 70.62239837646484, 1562.743408203125, -1004.3426513671875, 868.3748779296875, 0.0, 0.03200000151991844, 1.0080000162124634, 0.0, 0.0, 0.0, 0.0, 0.0, 1.602456039467282E9, 2020-10-11 17:40:39.467
29.0, 89.20222473144531, 1575.79931640625, -1000.8795166015625, 1070.7669677734375, 0.0, 0.03200000151991844, 1.0080000162124634, 0.0, 0.0, 0.0, 0.0, 0.0, 1.602456039467282E9, 2020-10-11 17:40:39.467
30.0, -84.26929473876953, 1392.3984375, -1151.2945556640625, 1200.107666015625, 0.0, 0.03200000151991844, 1.0080000162124634, 0.0, 0.0, 0.0, 0.0, 0.0, 1.6024560394680357E9, 2020-10-11 17:40:39.468
30.0, 10.802700996398926, 1494.329345703125, -1078.9873046875, 1068.48193359375, 0.0, 0.03200000151991844, 1.0080000162124634, 0.0, 0.0, 0.0, 0.0, 0.0, 1.6024560394680357E9, 2020-10-11 17:40:39.468
31.0, 127.76058959960938, 1620.8538818359375, -965.5150146484375, 823.4960327148438, 0.0, 0.01600000075995922, 1.0080000162124634, 0.0, 0.0, 0.0, 0.0, 0.0, 1.6024560394816637E9, 2020-10-11 17:40:39.481
31.0, -69.64254760742188, 1404.784912109375, -1152.30810546875, 664.3950805664062, 0.0, 0.01600000075995922, 1.0080000162124634, 0.0, 0.0, 0.0, 0.0, 0.0, 1.6024560394816637E9, 2020-10-11 17:40:39.481
32.0, -49.34611129760742, 1431.57763671875, -1138.0665283203125, 811.666748046875, 0.0, 0.01600000075995922, 1.0080000162124634, 0.0, 0.0, 0.0, 0.0, 0.0, 1.6024560394973595E9, 2020-10-11 17:40:39.497
32.0, 115.20574951171875, 1611.4892578125, -971.9775390625, 740.36181640625, 0.0, 0.01600000075995922, 1.0080000162124634, 0.0, 0.0, 0.0, 0.0, 0.0, 1.6024560394973595E9, 2020-10-11 17:40:39.497
33.0, 7.410611629486084, 1490.3687744140625, -1081.06298828125, 921.9302368164062, 0.0, 0.01600000075995922, 1.0080000162124634, 0.0, 0.0, 0.0, 0.0, 0.0, 1.602456039498058E9, 2020-10-11 17:40:39.498
33.0, -94.34458923339844, 1383.18701171875, -1171.7705078125, 1048.7315673828125, 0.0, 0.01600000075995922, 1.0080000162124634, 0.0, 0.0, 0.0, 0.0, 0.0, 1.602456039498058E9, 2020-10-11 17:40:39.498
34.0, 78.16577911376953, 1563.401611328125, -1016.1345825195312, 864.2946166992188, 0.0, 0.01600000075995922, 1.0080000162124634, 0.0, 0.0, 0.0, 0.0, 0.0, 1.6024560395116866E9, 2020-10-11 17:40:39.511
34.0, 93.72376251220703, 1578.3349609375, -1002.8317260742188, 1074.9071044921875, 0.0, 0.01600000075995922, 1.0080000162124634, 0.0, 0.0, 0.0, 0.0, 0.0, 1.6024560395116866E9, 2020-10-11 17:40:39.511
35.0, -86.80868530273438, 1387.256103515625, -1168.7747802734375, 1198.144287109375, 0.0, 0.01600000075995922, 1.0080000162124634, 0.0, 0.0, 0.0, 0.0, 0.0, 1.6024560395273173E9, 2020-10-11 17:40:39.527
35.0, 33.29446029663086, 1508.6494140625, -1056.1103515625, 1077.9476318359375, 0.0, 0.01600000075995922, 1.0080000162124634, 0.0, 0.0, 0.0, 0.0, 0.0, 1.6024560395273173E9, 2020-10-11 17:40:39.527
36.0, 123.73271942138672, 1615.6292724609375, -968.6265869140625, 1310.42919921875, 0.0, 0.01600000075995922, 1.0080000162124634, 0.0, 0.0, 0.0, 0.0, 0.0, 1.6024560395280657E9, 2020-10-11 17:40:39.528
36.0, -63.80082321166992, 1410.2452392578125, -1146.230712890625, 1167.0133056640625, 0.0, 0.01600000075995922, 1.0080000162124634, 0.0, 0.0, 0.0, 0.0, 0.0, 1.6024560395280657E9, 2020-10-11 17:40:39.528
37.0, -50.04173278808594, 1430.86328125, -1122.3289794921875, 1301.9658203125, 0.0, 0.01600000075995922, 1.0080000162124634, 0.0, 0.0, 0.0, 0.0, 0.0, 1.6024560395416193E9, 2020-10-11 17:40:39.541
37.0, 113.97905731201172, 1606.313232421875, -970.1599731445312, 1229.796875, 0.0, 0.01600000075995922, 1.0080000162124634, 0.0, 0.0, 0.0, 0.0, 0.0, 1.6024560395416193E9, 2020-10-11 17:40:39.541
38.0, -15.874005317687988, 1470.408935546875, -1104.5570068359375, 1399.846435546875, 0.0, 0.01600000075995922, 1.0080000162124634, 0.0, 0.0, 0.0, 0.0, 0.0, 1.6024560395573316E9, 2020-10-11 17:40:39.557
38.0, -111.30876922607422, 1371.4400634765625, -1188.6300048828125, 1523.37158203125, 0.0, 0.01600000075995922, 1.0080000162124634, 0.0, 0.0, 0.0, 0.0, 0.0, 1.6024560395573316E9, 2020-10-11 17:40:39.557
39.0, 47.10591125488281, 1538.680908203125, -1026.565185546875, 1334.5701904296875, 0.0, 0.01600000075995922, 1.0080000162124634, 0.0, 0.0, 0.0, 0.0, 0.0, 1.6024560395580485E9, 2020-10-11 17:40:39.558
39.0, 64.44034576416016, 1561.5203857421875, -1009.5299072265625, 1556.0994873046875, 0.0, 0.01600000075995922, 1.0080000162124634, 0.0, 0.0, 0.0, 0.0, 0.0, 1.6024560395580485E9, 2020-10-11 17:40:39.558
40.0, -109.57345581054688, 1369.0352783203125, -1173.0308837890625, 1670.4730224609375, 0.0, 0.01600000075995922, 1.0080000162124634, 0.0, 0.0, 0.0, 0.0, 0.0, 1.6024560395716507E9, 2020-10-11 17:40:39.571
40.0, 1.9204386472702026, 1484.64306640625, -1068.294921875, 1543.4024658203125, 0.0, 0.01600000075995922, 1.0080000162124634, 0.0, 0.0, 0.0, 0.0, 0.0, 1.6024560395716507E9, 2020-10-11 17:40:39.571
41.0, 111.10681915283203, 1603.975830078125, -975.6052856445312, 1302.8409423828125, 0.0, 0.01600000075995922, 1.0080000162124634, 0.0, 0.0, 0.0, 0.0, 0.0, 1.602456039587314E9, 2020-10-11 17:40:39.587
41.0, -67.21160888671875, 1413.03515625, -1144.4542236328125, 1160.91357421875, 0.0, 0.01600000075995922, 1.0080000162124634, 0.0, 0.0, 0.0, 0.0, 0.0, 1.602456039587314E9, 2020-10-11 17:40:39.587
42.0, -49.42090606689453, 1430.0479736328125, -1135.302734375, 1303.1064453125, 0.0, 0.01600000075995922, 1.0080000162124634, 0.0, 0.0, 0.0, 0.0, 0.0, 1.6024560395880485E9, 2020-10-11 17:40:39.588
42.0, 100.30224609375, 1593.0665283203125, -989.6112060546875, 1214.194091796875, 0.0, 0.01600000075995922, 1.0080000162124634, 0.0, 0.0, 0.0, 0.0, 0.0, 1.6024560395880485E9, 2020-10-11 17:40:39.588
43.0, -2.874113082885742, 1480.5927734375, -1083.8753662109375, 1410.03759765625, 0.0, 0.01600000075995922, 1.0080000162124634, 0.0, 0.0, 0.0, 0.0, 0.0, 1.6024560396016502E9, 2020-10-11 17:40:39.601
43.0, -105.23143768310547, 1376.1634521484375, -1170.094970703125, 1526.984375, 0.0, 0.01600000075995922, 1.0080000162124634, 0.0, 0.0, 0.0, 0.0, 0.0, 1.6024560396016502E9, 2020-10-11 17:40:39.601
44.0, 58.49390411376953, 1548.273681640625, -1023.4385986328125, 1331.4100341796875, 0.0, 0.01600000075995922, 1.0080000162124634, 0.0, 0.0, 0.0, 0.0, 0.0, 1.602456039617314E9, 2020-10-11 17:40:39.617
44.0, 53.022430419921875, 1547.7314453125, -1026.7708740234375, 1549.8948974609375, 0.0, 0.01600000075995922, 1.0080000162124634, 0.0, 0.0, 0.0, 0.0, 0.0, 1.602456039617314E9, 2020-10-11 17:40:39.617
45.0, -108.55620574951172, 1363.137451171875, -1181.7410888671875, 1670.959228515625, 0.0, 0.01600000075995922, 1.0080000162124634, 0.0, 0.0, 0.0, 0.0, 0.0, 1.6024560396180205E9, 2020-10-11 17:40:39.618
45.0, 2.1672720909118652, 1487.9378662109375, -1072.9361572265625, 1541.094970703125, 0.0, 0.01600000075995922, 1.0080000162124634, 0.0, 0.0, 0.0, 0.0, 0.0, 1.6024560396180205E9, 2020-10-11 17:40:39.618
46.0, 110.06712341308594, 1607.7193603515625, -982.4492797851562, 1304.89404296875, 0.0, 0.01600000075995922, 1.0080000162124634, 0.0, 0.0, 0.0, 0.0, 0.0, 1.6024560396316614E9, 2020-10-11 17:40:39.631
46.0, -67.12185668945312, 1411.636474609375, -1153.96484375, 1164.761962890625, 0.0, 0.01600000075995922, 1.0080000162124634, 0.0, 0.0, 0.0, 0.0, 0.0, 1.6024560396316614E9, 2020-10-11 17:40:39.631
47.0, -49.5031852722168, 1427.5609130859375, -1131.5404052734375, 1293.5472412109375, 0.0, 0.01600000075995922, 1.0080000162124634, 0.0, 0.0, 0.0, 0.0, 0.0, 1.6024560396473157E9, 2020-10-11 17:40:39.647
47.0, 103.7354736328125, 1595.80029296875, -982.65869140625, 1217.765625, 0.0, 0.01600000075995922, 1.0080000162124634, 0.0, 0.0, 0.0, 0.0, 0.0, 1.6024560396473157E9, 2020-10-11 17:40:39.647
48.0, -5.828634262084961, 1478.3375244140625, -1096.2244873046875, 1418.616943359375, 0.0, 0.01600000075995922, 1.0080000162124634, 0.0, 0.0, 0.0, 0.0, 0.0, 1.602456039648075E9, 2020-10-11 17:40:39.648
48.0, -89.45653533935547, 1387.611328125, -1175.12890625, 1529.93505859375, 0.0, 0.01600000075995922, 1.0080000162124634, 0.0, 0.0, 0.0, 0.0, 0.0, 1.602456039648075E9, 2020-10-11 17:40:39.648
49.0, 63.58390808105469, 1556.5426025390625, -1017.96337890625, 1337.6630859375, 0.0, 0.01600000075995922, 1.0080000162124634, 0.0, 0.0, 0.0, 0.0, 0.0, 1.6024560396780345E9, 2020-10-11 17:40:39.678
49.0, 75.54410552978516, 1567.508056640625, -1009.5784912109375, 1572.0313720703125, 0.0, 0.01600000075995922, 1.0080000162124634, 0.0, 0.0, 0.0, 0.0, 0.0, 1.6024560396780345E9, 2020-10-11 17:40:39.678
50.0, -109.10597229003906, 1367.7899169921875, -1193.7723388671875, 1669.515625, 0.0, 0.01600000075995922, 1.0080000162124634, 0.0, 0.0, 0.0, 0.0, 0.0, 1.6024560396787531E9, 2020-10-11 17:40:39.678
50.0, -2.6347594261169434, 1480.0018310546875, -1086.2838134765625, 1533.6339111328125, 0.0, 0.01600000075995922, 1.0080000162124634, 0.0, 0.0, 0.0, 0.0, 0.0, 1.6024560396787531E9, 2020-10-11 17:40:39.678
51.0, 116.5184555053711, 1612.4727783203125, -970.8555908203125, 1314.8385009765625, 0.0, 0.01600000075995922, 1.0080000162124634, 0.0, 0.0, 0.0, 0.0, 0.0, 1.6024560396795175E9, 2020-10-11 17:40:39.679
51.0, -58.57992172241211, 1416.1766357421875, -1149.4881591796875, 1177.3653564453125, 0.0, 0.01600000075995922, 1.0080000162124634, 0.0, 0.0, 0.0, 0.0, 0.0, 1.6024560396795175E9, 2020-10-11 17:40:39.679
52.0, -49.67896270751953, 1425.4217529296875, -1138.0103759765625, 1287.709228515625, -0.01600000075995922, 0.01600000075995922, 1.0080000162124634, 0.0, 0.0, 0.0, 0.0, 0.0, 1.6024560396918805E9, 2020-10-11 17:40:39.691
52.0, 101.16990661621094, 1592.1015625, -987.0082397460938, 1212.98974609375, -0.01600000075995922, 0.01600000075995922, 1.0080000162124634, 0.0, 0.0, 0.0, 0.0, 0.0, 1.6024560396918805E9, 2020-10-11 17:40:39.691
53.0, -3.03118896484375, 1481.0677490234375, -1099.87841796875, 1427.499267578125, -0.01600000075995922, 0.01600000075995922, 1.0080000162124634, 0.0, 0.0, 0.0, 0.0, 0.0, 1.6024560397073357E9, 2020-10-11 17:40:39.707
53.0, -93.06179809570312, 1379.593017578125, -1172.0360107421875, 1529.688232421875, -0.01600000075995922, 0.01600000075995922, 1.0080000162124634, 0.0, 0.0, 0.0, 0.0, 0.0, 1.6024560397073357E9, 2020-10-11 17:40:39.707
54.0, 61.807456970214844, 1545.0648193359375, -1020.5438842773438, 1329.6485595703125, -0.01600000075995922, 0.01600000075995922, 1.0080000162124634, 0.0, 0.0, 0.0, 0.0, 0.0, 1.6024560397080688E9, 2020-10-11 17:40:39.708
54.0, 66.35143280029297, 1556.50146484375, -1023.69287109375, 1574.0921630859375, -0.01600000075995922, 0.01600000075995922, 1.0080000162124634, 0.0, 0.0, 0.0, 0.0, 0.0, 1.6024560397080688E9, 2020-10-11 17:40:39.708
55.0, -98.20042419433594, 1374.42822265625, -1176.3182373046875, 1681.1318359375, -0.01600000075995922, 0.01600000075995922, 1.0080000162124634, 0.0, 0.0, 0.0, 0.0, 0.0, 1.6024560397216823E9, 2020-10-11 17:40:39.721
55.0, 2.271989107131958, 1480.244873046875, -1089.376708984375, 1521.3370361328125, -0.01600000075995922, 0.01600000075995922, 1.0080000162124634, 0.0, 0.0, 0.0, 0.0, 0.0, 1.6024560397216823E9, 2020-10-11 17:40:39.721
56.0, 112.62895965576172, 1594.2332763671875, -995.1986083984375, 1303.0765380859375, -0.01600000075995922, 0.01600000075995922, 1.0080000162124634, 0.0, 0.0, 0.0, 0.0, 0.0, 1.6024560397373376E9, 2020-10-11 17:40:39.737
56.0, -82.4367446899414, 1395.24072265625, -1169.526611328125, 1168.1016845703125, -0.01600000075995922, 0.01600000075995922, 1.0080000162124634, 0.0, 0.0, 0.0, 0.0, 0.0, 1.6024560397373376E9, 2020-10-11 17:40:39.737
57.0, -52.367950439453125, 1424.2510986328125, -1132.299560546875, 1282.0919189453125, -0.01600000075995922, 0.01600000075995922, 1.0080000162124634, 0.0, 0.0, 0.0, 0.0, 0.0, 1.6024560397380724E9, 2020-10-11 17:40:39.738
57.0, 112.23252868652344, 1606.0177001953125, -972.2094116210938, 1218.1097412109375, -0.01600000075995922, 0.01600000075995922, 1.0080000162124634, 0.0, 0.0, 0.0, 0.0, 0.0, 1.6024560397380724E9, 2020-10-11 17:40:39.738
58.0, -10.077160835266113, 1474.7322998046875, -1079.96337890625, 1433.498046875, -0.01600000075995922, 0.01600000075995922, 1.0080000162124634, 0.0, 0.0, 0.0, 0.0, 0.0, 1.602456039751666E9, 2020-10-11 17:40:39.751
58.0, -103.02489471435547, 1370.1759033203125, -1169.2872314453125, 1521.1463623046875, -0.01600000075995922, 0.01600000075995922, 1.0080000162124634, 0.0, 0.0, 0.0, 0.0, 0.0, 1.602456039751666E9, 2020-10-11 17:40:39.751
59.0, 65.04247283935547, 1549.4517822265625, -1019.384521484375, 1329.5474853515625, -0.01600000075995922, 0.01600000075995922, 1.0080000162124634, 0.0, 0.0, 0.0, 0.0, 0.0, 1.6024560397673383E9, 2020-10-11 17:40:39.767
59.0, 59.028709411621094, 1547.8660888671875, -1023.0084838867188, 1087.1851806640625, -0.01600000075995922, 0.01600000075995922, 1.0080000162124634, 0.0, 0.0, 0.0, 0.0, 0.0, 1.6024560397673383E9, 2020-10-11 17:40:39.767
60.0, -115.74055480957031, 1361.260009765625, -1194.1612548828125, 1175.1513671875, -0.01600000075995922, 0.01600000075995922, 1.0080000162124634, 0.0, 0.0, 0.0, 0.0, 0.0, 1.602456039768069E9, 2020-10-11 17:40:39.768
60.0, -2.6160600185394287, 1482.1522216796875, -1080.5543212890625, 1033.6409912109375, -0.01600000075995922, 0.01600000075995922, 1.0080000162124634, 0.0, 0.0, 0.0, 0.0, 0.0, 1.602456039768069E9, 2020-10-11 17:40:39.768
61.0, 102.8304214477539, 1595.751708984375, -972.2169189453125, 824.0645141601562, -0.01600000075995922, 0.03200000151991844, 1.0080000162124634, 0.0, 0.0, 0.0, 0.0, 0.0, 1.6024560397980275E9, 2020-10-11 17:40:39.798
61.0, -83.91026306152344, 1400.65234375, -1155.1353759765625, 685.2450561523438, -0.01600000075995922, 0.03200000151991844, 1.0080000162124634, 0.0, 0.0, 0.0, 0.0, 0.0, 1.6024560397980275E9, 2020-10-11 17:40:39.798
62.0, -54.82132339477539, 1429.1878662109375, -1114.7894287109375, 794.822265625, 0.0, 0.03200000151991844, 1.0080000162124634, 0.0, 0.0, 0.0, 0.0, 0.0, 1.602456039798792E9, 2020-10-11 17:40:39.798
62.0, 103.96360778808594, 1606.9901123046875, -964.5912475585938, 733.7197265625, 0.0, 0.03200000151991844, 1.0080000162124634, 0.0, 0.0, 0.0, 0.0, 0.0, 1.602456039798792E9, 2020-10-11 17:40:39.798
63.0, -22.373950958251953, 1471.8563232421875, -1092.4884033203125, 946.6135864257812, 0.0, 0.03200000151991844, 1.0080000162124634, 0.0, 0.0, 0.0, 0.0, 0.0, 1.602456039799544E9, 2020-10-11 17:40:39.799
63.0, -105.3211898803711, 1375.88671875, -1169.16748046875, 1030.6602783203125, 0.0, 0.03200000151991844, 1.0080000162124634, 0.0, 0.0, 0.0, 0.0, 0.0, 1.602456039799544E9, 2020-10-11 17:40:39.799
64.0, 71.4563980102539, 1560.2601318359375, -1017.5258178710938, 832.46435546875, 0.0, 0.03200000151991844, 1.0080000162124634, 0.0, 0.0, 0.0, 0.0, 0.0, 1.6024560398116434E9, 2020-10-11 17:40:39.811
64.0, 64.5675048828125, 1560.6416015625, -1012.1964721679688, 606.8193359375, 0.0, 0.03200000151991844, 1.0080000162124634, 0.0, 0.0, 0.0, 0.0, 0.0, 1.6024560398116434E9, 2020-10-11 17:40:39.811
65.0, -107.4678955078125, 1370.4676513671875, -1173.169189453125, 693.6149291992188, 0.0, 0.03200000151991844, 1.0080000162124634, 0.0, 0.0, 0.0, 0.0, 0.0, 1.6024560398273604E9, 2020-10-11 17:40:39.827
65.0, 4.863739967346191, 1496.158203125, -1065.265625, 540.5445556640625, 0.0, 0.03200000151991844, 1.0080000162124634, 0.0, 0.0, 0.0, 0.0, 0.0, 1.6024560398273604E9, 2020-10-11 17:40:39.827
66.0, 110.01102447509766, 1603.470947265625, -973.454833984375, 342.045654296875, 0.0, 0.03200000151991844, 1.0080000162124634, 0.0, 0.0, 0.0, 0.0, 0.0, 1.6024560398280623E9, 2020-10-11 17:40:39.828
66.0, -76.82689666748047, 1406.41552734375, -1148.8187255859375, 204.35186767578125, 0.0, 0.03200000151991844, 1.0080000162124634, 0.0, 0.0, 0.0, 0.0, 0.0, 1.6024560398280623E9, 2020-10-11 17:40:39.828
67.0, -53.594635009765625, 1428.1219482421875, -1118.8321533203125, 296.7143249511719, 0.0, 0.03200000151991844, 1.0080000162124634, 0.0, 0.0, 0.0, 0.0, 0.0, 1.6024560398419883E9, 2020-10-11 17:40:39.841
67.0, 115.91259002685547, 1606.5189208984375, -956.0941772460938, 245.73573303222656, 0.0, 0.03200000151991844, 1.0080000162124634, 0.0, 0.0, 0.0, 0.0, 0.0, 1.6024560398419883E9, 2020-10-11 17:40:39.841
68.0, -16.995975494384766, 1477.1856689453125, -1086.1903076171875, 467.8708190917969, 0.0, 0.03200000151991844, 1.0080000162124634, 0.0, 0.0, 0.0, 0.0, 0.0, 1.6024560398572695E9, 2020-10-11 17:40:39.857
68.0, -97.57959747314453, 1389.0623779296875, -1165.891357421875, 539.9873046875, 0.0, 0.03200000151991844, 1.0080000162124634, 0.0, 0.0, 0.0, 0.0, 0.0, 1.6024560398572695E9, 2020-10-11 17:40:39.857
69.0, 65.85028839111328, 1554.8035888671875, -1003.1945190429688, 337.9691467285156, 0.0, 0.03200000151991844, 1.0080000162124634, 0.0, 0.0, 0.0, 0.0, 0.0, 1.6024560398580823E9, 2020-10-11 17:40:39.858
69.0, 62.484378814697266, 1556.9615478515625, -1008.5350952148438, 123.41670227050781, 0.0, 0.03200000151991844, 1.0080000162124634, 0.0, 0.0, 0.0, 0.0, 0.0, 1.6024560398580823E9, 2020-10-11 17:40:39.858
70.0, -108.30937194824219, 1371.46240234375, -1168.165283203125, 206.63694763183594, 0.0, 0.03200000151991844, 1.0080000162124634, 0.0, 0.0, 0.0, 0.0, 0.0, 1.6024560398716679E9, 2020-10-11 17:40:39.871
70.0, 13.158838272094727, 1494.41162109375, -1063.5938720703125, 47.41071319580078, 0.0, 0.03200000151991844, 1.0080000162124634, 0.0, 0.0, 0.0, 0.0, 0.0, 1.6024560398716679E9, 2020-10-11 17:40:39.871
71.0, 123.51206970214844, 1617.5889892578125, -962.5343017578125, -138.50344848632812, 0.0, 0.03200000151991844, 1.0080000162124634, 0.0, 0.0, 0.0, 0.0, 0.0, 1.6024560398873158E9, 2020-10-11 17:40:39.887
71.0, -66.22053527832031, 1420.7730712890625, -1120.5712890625, -271.1296691894531, 0.0, 0.03200000151991844, 1.0080000162124634, 0.0, 0.0, 0.0, 0.0, 0.0, 1.6024560398873158E9, 2020-10-11 17:40:39.887
72.0, -48.43357467651367, 1435.2725830078125, -1115.09228515625, -198.4465789794922, 0.0, 0.03200000151991844, 1.0080000162124634, 0.0, 0.0, 0.0, 0.0, 0.0, 1.602456039888044E9, 2020-10-11 17:40:39.888
72.0, 122.37887573242188, 1618.88671875, -955.72021484375, -241.84437561035156, 0.0, 0.03200000151991844, 1.0080000162124634, 0.0, 0.0, 0.0, 0.0, 0.0, 1.602456039888044E9, 2020-10-11 17:40:39.888
73.0, -2.511342763900757, 1487.67236328125, -1071.2008056640625, -7.633135795593262, 0.0, 0.03200000151991844, 1.0080000162124634, 0.0, 0.0, 0.0, 0.0, 0.0, 1.60245603990167E9, 2020-10-11 17:40:39.901
73.0, -88.05033111572266, 1391.0670166015625, -1148.85986328125, 51.98834991455078, 0.0, 0.03200000151991844, 1.0080000162124634, 0.0, 0.0, 0.0, 0.0, 0.0, 1.60245603990167E9, 2020-10-11 17:40:39.901
74.0, 90.05492401123047, 1572.2913818359375, -995.76708984375, -139.5955047607422, 0.0, 0.03200000151991844, 1.0080000162124634, 0.0, 0.0, 0.0, 0.0, 0.0, 1.602456039917318E9, 2020-10-11 17:40:39.917
74.0, 66.90493774414062, 1559.3101806640625, -1016.1383056640625, -358.51617431640625, 0.0, 0.03200000151991844, 1.0080000162124634, 0.0, 0.0, 0.0, 0.0, 0.0, 1.602456039917318E9, 2020-10-11 17:40:39.917
75.0, -110.74404907226562, 1361.23388671875, -1190.339111328125, -291.6205749511719, 0.0, 0.03200000151991844, 1.0080000162124634, 0.0, 0.0, 0.0, 0.0, 0.0, 1.6024560399180405E9, 2020-10-11 17:40:39.918
75.0, 10.275375366210938, 1486.8907470703125, -1074.8472900390625, -447.3238220214844, 0.0, 0.03200000151991844, 1.0080000162124634, 0.0, 0.0, 0.0, 0.0, 0.0, 1.6024560399180405E9, 2020-10-11 17:40:39.918
76.0, 112.59156036376953, 1602.98095703125, -970.8555908203125, -634.3338012695312, 0.0, 0.03200000151991844, 1.0080000162124634, 0.0, 0.0, 0.0, 0.0, 0.0, 1.6024560399316266E9, 2020-10-11 17:40:39.931
76.0, -72.54844665527344, 1403.93603515625, -1150.2286376953125, -775.97314453125, 0.0, 0.03200000151991844, 1.0080000162124634, 0.0, 0.0, 0.0, 0.0, 0.0, 1.6024560399316266E9, 2020-10-11 17:40:39.931
77.0, -45.50149154663086, 1431.1737060546875, -1106.9393310546875, -693.1212768554688, 0.0, 0.03200000151991844, 1.0080000162124634, 0.0, 0.0, 0.0, 0.0, 0.0, 1.602456039947451E9, 2020-10-11 17:40:39.947
77.0, 89.93524169921875, 1576.9737548828125, -983.5936889648438, -752.6268310546875, 0.0, 0.03200000151991844, 1.0080000162124634, 0.0, 0.0, 0.0, 0.0, 0.0, 1.602456039947451E9, 2020-10-11 17:40:39.947
78.0, -32.348262786865234, 1453.3924560546875, -1109.3553466796875, -516.1753540039062, 0.0, 0.03200000151991844, 1.0080000162124634, 0.0, 0.0, 0.0, 0.0, 0.0, 1.6024560399481127E9, 2020-10-11 17:40:39.948
78.0, -108.9301986694336, 1366.2191162109375, -1179.0595703125, -462.5003356933594, 0.0, 0.03200000151991844, 1.0080000162124634, 0.0, 0.0, 0.0, 0.0, 0.0, 1.6024560399481127E9, 2020-10-11 17:40:39.948
79.0, 65.48004150390625, 1550.712158203125, -1014.5076904296875, -651.010009765625, 0.0, 0.03200000151991844, 1.0080000162124634, 0.0, 0.0, 0.0, 0.0, 0.0, 1.6024560399616454E9, 2020-10-11 17:40:39.961
79.0, 72.04730224609375, 1561.052978515625, -1011.6915283203125, -835.0635375976562, 0.0, 0.03200000151991844, 1.0080000162124634, 0.0, 0.0, 0.0, 0.0, 0.0, 1.6024560399616454E9, 2020-10-11 17:40:39.961
80.0, -98.99702453613281, 1371.8402099609375, -1183.0350341796875, -777.1287841796875, 0.0, 0.03200000151991844, 1.0080000162124634, 0.0, 0.0, 0.0, 0.0, 0.0, 1.602456039977388E9, 2020-10-11 17:40:39.977
80.0, 19.31097412109375, 1502.3477783203125, -1048.454833984375, -933.3705444335938, 0.0, 0.03200000151991844, 1.0080000162124634, 0.0, 0.0, 0.0, 0.0, 0.0, 1.602456039977388E9, 2020-10-11 17:40:39.977
81.0, 116.93732452392578, 1608.190673828125, -950.30859375, -1113.3944091796875, 0.0, 0.03200000151991844, 1.0080000162124634, 0.0, 0.0, 0.0, 0.0, 0.0, 1.6024560399781008E9, 2020-10-11 17:40:39.978
81.0, -75.70118713378906, 1401.7818603515625, -1143.2799072265625, -1263.657958984375, 0.0, 0.03200000151991844, 1.0080000162124634, 0.0, 0.0, 0.0, 0.0, 0.0, 1.6024560399781008E9, 2020-10-11 17:40:39.978
82.0, -54.896121978759766, 1424.7559814453125, -1117.9495849609375, -1192.298828125, 0.0, 0.03200000151991844, 1.0080000162124634, 0.0, 0.0, 0.0, 0.0, 0.0, 1.6024560399916365E9, 2020-10-11 17:40:39.991
82.0, 113.09270477294922, 1603.5980224609375, -963.1439208984375, -1227.068603515625, 0.0, 0.03200000151991844, 1.0080000162124634, 0.0, 0.0, 0.0, 0.0, 0.0, 1.6024560399916365E9, 2020-10-11 17:40:39.991
83.0, -10.903677940368652, 1480.4244384765625, -1085.1993408203125, -1468.907470703125, 0.0, 0.03200000151991844, 1.0080000162124634, 0.0, 0.0, 0.0, 0.0, 0.0, 1.6024560400073364E9, 2020-10-11 17:40:40.007
83.0, -86.63665008544922, 1393.797119140625, -1145.32568359375, -1427.1439208984375, 0.0, 0.03200000151991844, 1.0080000162124634, 0.0, 0.0, 0.0, 0.0, 0.0, 1.6024560400073364E9, 2020-10-11 17:40:40.007
84.0, 76.46786499023438, 1566.793701171875, -1004.8026733398438, -1625.040771484375, 0.0, 0.03200000151991844, 1.0080000162124634, 0.0, 0.0, 0.0, 0.0, 0.0, 1.60245604000808E9, 2020-10-11 17:40:40.008
84.0, 72.22681427001953, 1559.3101806640625, -1009.3466186523438, -1811.3681640625, 0.0, 0.03200000151991844, 1.0080000162124634, 0.0, 0.0, 0.0, 0.0, 0.0, 1.60245604000808E9, 2020-10-11 17:40:40.008
85.0, -100.37704467773438, 1377.1246337890625, -1166.13818359375, -1757.6370849609375, 0.0, 0.03200000151991844, 1.0080000162124634, 0.0, 0.0, 0.0, 0.0, 0.0, 1.6024560400215876E9, 2020-10-11 17:40:40.021
85.0, 33.9676399230957, 1520.489990234375, -1038.083984375, -1905.8006591796875, 0.0, 0.03200000151991844, 1.0080000162124634, 0.0, 0.0, 0.0, 0.0, 0.0, 1.6024560400215876E9, 2020-10-11 17:40:40.021
86.0, 128.93118286132812, 1621.912353515625, -946.9127197265625, -2081.43017578125, 0.0, 0.03200000151991844, 1.0080000162124634, 0.0, 0.0, 0.0, 0.0, 0.0, 1.60245604003735E9, 2020-10-11 17:40:40.037
86.0, -68.68887329101562, 1408.4388427734375, -1137.2362060546875, -2231.760986328125, 0.0, 0.03200000151991844, 1.0080000162124634, 0.0, 0.0, 0.0, 0.0, 0.0, 1.60245604003735E9, 2020-10-11 17:40:40.037
87.0, -35.59075927734375, 1440.385009765625, -1111.2327880859375, -2164.938232421875, 0.0, 0.03200000151991844, 1.0080000162124634, 0.0, 0.0, 0.0, 0.0, 0.0, 1.6024560400380788E9, 2020-10-11 17:40:40.038
87.0, 124.4507827758789, 1617.7872314453125, -961.1505737304688, -2202.000732421875, 0.0, 0.03200000151991844, 1.0080000162124634, 0.0, 0.0, 0.0, 0.0, 0.0, 1.6024560400380788E9, 2020-10-11 17:40:40.038
88.0, -1.1350595951080322, 1489.082275390625, -1064.8018798828125, -2433.99609375, 0.0, 0.03200000151991844, 1.0080000162124634, 0.0, 0.0, 0.0, 0.0, 0.0, 1.602456040051622E9, 2020-10-11 17:40:40.051
88.0, -78.0610580444336, 1400.0240478515625, -1125.9866943359375, -2403.6767578125, 0.0, 0.03200000151991844, 1.0080000162124634, 0.0, 0.0, 0.0, 0.0, 0.0, 1.602456040051622E9, 2020-10-11 17:40:40.051
89.0, 80.80989074707031, 1565.3837890625, -993.1005249023438, -2603.910888671875, 0.0, 0.03200000151991844, 1.0080000162124634, 0.0, 0.0, 0.0, 0.0, 0.0, 1.6024560400673387E9, 2020-10-11 17:40:40.067
89.0, 74.14912414550781, 1557.814208984375, -1009.8515014648438, -2787.560546875, 0.0, 0.03200000151991844, 1.0080000162124634, 0.0, 0.0, 0.0, 0.0, 0.0, 1.6024560400673387E9, 2020-10-11 17:40:40.067
90.0, -97.9947280883789, 1376.694580078125, -1168.24755859375, -2741.283203125, 0.0, 0.03200000151991844, 1.0240000486373901, 0.0, 0.0, 0.0, 0.0, 0.0, 1.6024560400680683E9, 2020-10-11 17:40:40.068
90.0, 36.237762451171875, 1515.9647216796875, -1035.08837890625, -2884.52490234375, 0.0, 0.03200000151991844, 1.0240000486373901, 0.0, 0.0, 0.0, 0.0, 0.0, 1.6024560400680683E9, 2020-10-11 17:40:40.068
91.0, 123.3475112915039, 1620.0498046875, -958.2595825195312, -3060.734130859375, 0.0, 0.03200000151991844, 1.0240000486373901, 0.0, 0.0, 0.0, 0.0, 0.0, 1.6024560400815847E9, 2020-10-11 17:40:40.081
91.0, -82.4554443359375, 1399.8333740234375, -1155.84228515625, -3218.986083984375, 0.0, 0.03200000151991844, 1.0240000486373901, 0.0, 0.0, 0.0, 0.0, 0.0, 1.6024560400815847E9, 2020-10-11 17:40:40.081
92.0, -29.73407554626465, 1455.9730224609375, -1097.4810791015625, -3143.385986328125, 0.0, 0.03200000151991844, 1.0240000486373901, 0.0, 0.0, 0.0, 0.0, 0.0, 1.6024560400974612E9, 2020-10-11 17:40:40.097
92.0, 129.40614318847656, 1624.6163330078125, -935.2180786132812, -3177.14599609375, 0.0, 0.03200000151991844, 1.0240000486373901, 0.0, 0.0, 0.0, 0.0, 0.0, 1.6024560400974612E9, 2020-10-11 17:40:40.097
93.0, 3.2855021953582764, 1481.9053955078125, -1093.7412109375, -3418.427490234375, 0.0, 0.03200000151991844, 1.0240000486373901, 0.0, 0.0, 0.0, 0.0, 0.0, 1.6024560400980537E9, 2020-10-11 17:40:40.098
93.0, -73.09447479248047, 1402.436279296875, -1151.642333984375, -3392.947509765625, 0.0, 0.03200000151991844, 1.0240000486373901, 0.0, 0.0, 0.0, 0.0, 0.0, 1.6024560400980537E9, 2020-10-11 17:40:40.098
