%OpenBCI Raw EEG Data
%Number of channels = 4
%Sample Rate = 200 Hz
%Board = OpenBCI_GUI$BoardGanglionBLE
Sample Index, EXG Channel 0, EXG Channel 1, EXG Channel 2, EXG Channel 3, Accel Channel 0, Accel Channel 1, Accel Channel 2, Other, Other, Other, Other, Other, Timestamp, Timestamp (Formatted)
0.0, -51.31516647338867, 27.32931900024414, -1061.97265625, -564.8950805664062, 0.0, 0.0, 0.0, 0.0, 0.0, 0.0, 0.0, 0.0, 1.6024559445333562E9, 2020-10-11 17:39:04.533
1.0, 30.405385971069336, 127.74563598632812, -992.5264282226562, -620.0398559570312, 0.0, 0.03200000151991844, 0.0, 0.0, 0.0, 0.0, 0.0, 0.0, 1.602455944546749E9, 2020-10-11 17:39:04.546
1.0, -202.81103515625, 344.3811950683594, -1206.8751220703125, -777.0502319335938, 0.0, 0.03200000151991844, 0.0, 0.0, 0.0, 0.0, 0.0, 0.0, 1.602455944546749E9, 2020-10-11 17:39:04.546
2.0, -140.56788635253906, 421.44183349609375, -1148.958984375, -830.1567993164062, -0.01600000075995922, 0.03200000151991844, 0.0, 0.0, 0.0, 0.0, 0.0, 0.0, 1.6024559445634532E9, 2020-10-11 17:39:04.563
2.0, 42.54884338378906, 629.3803100585938, -986.0938110351562, -788.877685546875, -0.01600000075995922, 0.03200000151991844, 0.0, 0.0, 0.0, 0.0, 0.0, 0.0, 1.6024559445634532E9, 2020-10-11 17:39:04.563
3.0, -141.74220275878906, 427.22747802734375, -1142.5450439453125, -946.3928833007812, -0.01600000075995922, 0.03200000151991844, 0.0, 0.0, 0.0, 0.0, 0.0, 0.0, 1.602455944564202E9, 2020-10-11 17:39:04.564
3.0, -184.91188049316406, 357.9158935546875, -1196.8895263671875, -1041.240478515625, -0.01600000075995922, 0.03200000151991844, 0.0, 0.0, 0.0, 0.0, 0.0, 0.0, 1.602455944564202E9, 2020-10-11 17:39:04.564
4.0, 7.913628101348877, 581.9246826171875, -1017.2584228515625, -1244.1787109375, -0.01600000075995922, 0.03200000151991844, 0.0, 0.0, 0.0, 0.0, 0.0, 0.0, 1.6024559445766897E9, 2020-10-11 17:39:04.576
4.0, -18.62470245361328, 554.2905883789062, -1044.2119140625, -1268.1832275390625, -0.01600000075995922, 0.03200000151991844, 0.0, 0.0, 0.0, 0.0, 0.0, 0.0, 1.6024559445766897E9, 2020-10-11 17:39:04.576
5.0, -213.1967315673828, 326.9420471191406, -1222.6051025390625, -1329.392333984375, -0.01600000075995922, 0.03200000151991844, 0.0, 0.0, 0.0, 0.0, 0.0, 0.0, 1.6024559445923326E9, 2020-10-11 17:39:04.592
5.0, -43.77178955078125, 520.953125, -1061.856689453125, -1536.9193115234375, -0.01600000075995922, 0.03200000151991844, 0.0, 0.0, 0.0, 0.0, 0.0, 0.0, 1.6024559445923326E9, 2020-10-11 17:39:04.592
6.0, 53.65260314941406, 626.9381103515625, -987.4663696289062, -1592.3970947265625, -0.01600000075995922, 0.03200000151991844, 0.0, 0.0, 0.0, 0.0, 0.0, 0.0, 1.6024559445929523E9, 2020-10-11 17:39:04.592
6.0, -183.6552734375, 847.2687377929688, -1212.5821533203125, -1753.5811767578125, -0.01600000075995922, 0.03200000151991844, 0.0, 0.0, 0.0, 0.0, 0.0, 0.0, 1.6024559445929523E9, 2020-10-11 17:39:04.592
7.0, -136.166015625, 908.2627563476562, -1146.3485107421875, -1810.4649658203125, -0.01600000075995922, 0.03200000151991844, 0.0, 0.0, 0.0, 0.0, 0.0, 0.0, 1.6024559446067033E9, 2020-10-11 17:39:04.606
7.0, 57.38502502441406, 1134.2088623046875, -953.2724609375, -1754.71240234375, -0.01600000075995922, 0.03200000151991844, 0.0, 0.0, 0.0, 0.0, 0.0, 0.0, 1.6024559446067033E9, 2020-10-11 17:39:04.606
8.0, -131.95489501953125, 913.0311279296875, -1142.1673583984375, -1925.717529296875, -0.01600000075995922, 0.03200000151991844, 0.0, 0.0, 0.0, 0.0, 0.0, 0.0, 1.6024559446223164E9, 2020-10-11 17:39:04.622
8.0, -198.4540557861328, 843.0538330078125, -1192.02392578125, -2027.9364013671875, -0.01600000075995922, 0.03200000151991844, 0.0, 0.0, 0.0, 0.0, 0.0, 0.0, 1.6024559446223164E9, 2020-10-11 17:39:04.622
9.0, 8.837383270263672, 1078.8994140625, -995.2752685546875, -2211.801025390625, -0.01600000075995922, 0.03200000151991844, 0.0, 0.0, 0.0, 0.0, 0.0, 0.0, 1.602455944623352E9, 2020-10-11 17:39:04.623
9.0, -30.285709381103516, 1038.51220703125, -1032.6181640625, -2244.242919921875, -0.01600000075995922, 0.03200000151991844, 0.0, 0.0, 0.0, 0.0, 0.0, 0.0, 1.602455944623352E9, 2020-10-11 17:39:04.623
10.0, -234.67498779296875, 805.0115966796875, -1229.8267822265625, -2315.115966796875, -0.01600000075995922, 0.03200000151991844, 0.5120000243186951, 0.0, 0.0, 0.0, 0.0, 0.0, 1.6024559446364985E9, 2020-10-11 17:39:04.636
10.0, -62.026241302490234, 997.287353515625, -1064.3287353515625, -2531.338134765625, -0.01600000075995922, 0.03200000151991844, 0.5120000243186951, 0.0, 0.0, 0.0, 0.0, 0.0, 1.6024559446364985E9, 2020-10-11 17:39:04.636
11.0, 32.45111083984375, 1112.7679443359375, -972.8471069335938, -2560.868408203125, -0.01600000075995922, 0.01600000075995922, 0.5120000243186951, 0.0, 0.0, 0.0, 0.0, 0.0, 1.602455944652252E9, 2020-10-11 17:39:04.652
11.0, 270.9538879394531, 1321.104736328125, -1192.19970703125, -2738.85205078125, -0.01600000075995922, 0.01600000075995922, 0.5120000243186951, 0.0, 0.0, 0.0, 0.0, 0.0, 1.602455944652252E9, 2020-10-11 17:39:04.652
12.0, 364.7767639160156, 1402.2269287109375, -1139.7513427734375, -2778.992431640625, 0.0, 0.01600000075995922, 0.5120000243186951, 0.0, 0.0, 0.0, 0.0, 0.0, 1.6024559446532557E9, 2020-10-11 17:39:04.653
12.0, 528.7938232421875, 1604.6639404296875, -967.1736450195312, -2749.50146484375, 0.0, 0.01600000075995922, 0.5120000243186951, 0.0, 0.0, 0.0, 0.0, 0.0, 1.6024559446532557E9, 2020-10-11 17:39:04.653
13.0, 344.9403076171875, 1407.9114990234375, -1131.3028564453125, -2899.6640625, 0.0, 0.01600000075995922, 0.5120000243186951, 0.0, 0.0, 0.0, 0.0, 0.0, 1.6024559446665287E9, 2020-10-11 17:39:04.666
13.0, 303.4760437011719, 1343.936767578125, -1186.79931640625, -3002.86669921875, 0.0, 0.01600000075995922, 0.5120000243186951, 0.0, 0.0, 0.0, 0.0, 0.0, 1.6024559446665287E9, 2020-10-11 17:39:04.666
14.0, 503.8299865722656, 1573.9705810546875, -995.0957641601562, -3191.50732421875, 0.0, 0.01600000075995922, 0.5120000243186951, 0.0, 0.0, 0.0, 0.0, 0.0, 1.6024559446822407E9, 2020-10-11 17:39:04.682
14.0, 445.311767578125, 1520.73681640625, -1054.447998046875, -3229.57763671875, 0.0, 0.01600000075995922, 0.5120000243186951, 0.0, 0.0, 0.0, 0.0, 0.0, 1.6024559446822407E9, 2020-10-11 17:39:04.682
15.0, 278.6655578613281, 1311.059326171875, -1216.1612548828125, -3287.31591796875, 0.0, 0.01600000075995922, 0.5120000243186951, 0.0, 0.0, 0.0, 0.0, 0.0, 1.60245594468322E9, 2020-10-11 17:39:04.683
15.0, 459.4336242675781, 1509.1207275390625, -1054.7957763671875, -3480.021728515625, 0.0, 0.01600000075995922, 0.5120000243186951, 0.0, 0.0, 0.0, 0.0, 0.0, 1.60245594468322E9, 2020-10-11 17:39:04.683
16.0, 529.63525390625, 1614.107177734375, -940.2239379882812, -3535.701416015625, 0.0, 0.01600000075995922, 0.5120000243186951, 0.0, 0.0, 0.0, 0.0, 0.0, 1.602455944696576E9, 2020-10-11 17:39:04.696
16.0, 753.1485595703125, 1799.002197265625, -723.4649658203125, -3722.859130859375, 0.0, 0.01600000075995922, 0.5120000243186951, 0.0, 0.0, 0.0, 0.0, 0.0, 1.602455944696576E9, 2020-10-11 17:39:04.696
17.0, 836.32763671875, 1882.84326171875, -656.3038330078125, -3773.53857421875, 0.0, 0.01600000075995922, 0.5120000243186951, 0.0, 0.0, 0.0, 0.0, 0.0, 1.602455944712208E9, 2020-10-11 17:39:04.712
17.0, 1023.3899536132812, 2108.998779296875, -449.5658874511719, -3716.54052734375, 0.0, 0.01600000075995922, 0.5120000243186951, 0.0, 0.0, 0.0, 0.0, 0.0, 1.602455944712208E9, 2020-10-11 17:39:04.712
18.0, 834.367919921875, 1871.631103515625, -675.6503295898438, -3893.6416015625, 0.0, 0.01600000075995922, 0.5120000243186951, 0.0, 0.0, 0.0, 0.0, 0.0, 1.6024559447129848E9, 2020-10-11 17:39:04.712
18.0, 771.840576171875, 1808.5015869140625, -721.8679809570312, -3994.263671875, 0.0, 0.01600000075995922, 0.5120000243186951, 0.0, 0.0, 0.0, 0.0, 0.0, 1.6024559447129848E9, 2020-10-11 17:39:04.712
19.0, 964.9652709960938, 2030.027099609375, -537.73779296875, -4180.5068359375, 0.0, 0.01600000075995922, 0.5120000243186951, 0.0, 0.0, 0.0, 0.0, 0.0, 1.602455944726572E9, 2020-10-11 17:39:04.726
19.0, 905.7626342773438, 1971.097412109375, -592.740478515625, -4232.99462890625, 0.0, 0.01600000075995922, 0.5120000243186951, 0.0, 0.0, 0.0, 0.0, 0.0, 1.602455944726572E9, 2020-10-11 17:39:04.726
20.0, 758.8930053710938, 1791.945068359375, -739.4193725585938, -4277.78564453125, 0.0, 0.01600000075995922, 0.7680000066757202, 0.0, 0.0, 0.0, 0.0, 0.0, 1.6024559447422812E9, 2020-10-11 17:39:04.742
20.0, 929.204345703125, 1983.958984375, -587.6504516601562, -4482.189453125, 0.0, 0.01600000075995922, 0.7680000066757202, 0.0, 0.0, 0.0, 0.0, 0.0, 1.6024559447422812E9, 2020-10-11 17:39:04.742
21.0, 961.8200073242188, 2053.03125, -508.114013671875, -4548.84228515625, 0.0, 0.01600000075995922, 0.7680000066757202, 0.0, 0.0, 0.0, 0.0, 0.0, 1.6024559447430017E9, 2020-10-11 17:39:04.743
21.0, 747.4601440429688, 2280.751708984375, -732.451904296875, -4708.23876953125, 0.0, 0.01600000075995922, 0.7680000066757202, 0.0, 0.0, 0.0, 0.0, 0.0, 1.6024559447430017E9, 2020-10-11 17:39:04.743
22.0, 822.8191528320312, 2350.527099609375, -684.4615478515625, -4758.869140625, 0.0, 0.01600000075995922, 0.7680000066757202, 0.0, 0.0, 0.0, 0.0, 0.0, 1.6024559447728667E9, 2020-10-11 17:39:04.772
22.0, 998.9609375, 2567.003662109375, -481.16058349609375, -4702.6005859375, 0.0, 0.01600000075995922, 0.7680000066757202, 0.0, 0.0, 0.0, 0.0, 0.0, 1.6024559447728667E9, 2020-10-11 17:39:04.772
23.0, 807.4144897460938, 2355.3515625, -688.2201538085938, -4877.19970703125, 0.0, 0.01600000075995922, 0.7680000066757202, 0.0, 0.0, 0.0, 0.0, 0.0, 1.602455944773613E9, 2020-10-11 17:39:04.773
23.0, 755.6580200195312, 2286.088623046875, -731.9171142578125, -4991.15087890625, 0.0, 0.01600000075995922, 0.7680000066757202, 0.0, 0.0, 0.0, 0.0, 0.0, 1.602455944773613E9, 2020-10-11 17:39:04.773
24.0, 975.7137451171875, 2040.9962158203125, -534.1885986328125, -5160.0, 0.0, 0.01600000075995922, 0.7680000066757202, 0.0, 0.0, 0.0, 0.0, 0.0, 1.6024559447743297E9, 2020-10-11 17:39:04.774
24.0, 950.2225341796875, 2025.2586669921875, -544.757568359375, -5172.197265625, 0.0, 0.01600000075995922, 0.7680000066757202, 0.0, 0.0, 0.0, 0.0, 0.0, 1.6024559447743297E9, 2020-10-11 17:39:04.774
25.0, 735.1371459960938, 2260.3544921875, -754.5921630859375, -5276.5947265625, 0.0, 0.01600000075995922, 0.7680000066757202, 0.0, 0.0, 0.0, 0.0, 0.0, 1.6024559447867365E9, 2020-10-11 17:39:04.786
25.0, 881.5542602539062, 2432.288818359375, -606.2415161132812, -5485.40478515625, 0.0, 0.01600000075995922, 0.7680000066757202, 0.0, 0.0, 0.0, 0.0, 0.0, 1.6024559447867365E9, 2020-10-11 17:39:04.786
26.0, 981.1589965820312, 2529.956298828125, -549.2379760742188, -5531.58154296875, 0.0, 0.01600000075995922, 0.7680000066757202, 0.0, 0.0, 0.0, 0.0, 0.0, 1.60245594481867E9, 2020-10-11 17:39:04.818
26.0, 1176.72021484375, 2719.410400390625, -304.7289123535156, -5739.47314453125, 0.0, 0.01600000075995922, 0.7680000066757202, 0.0, 0.0, 0.0, 0.0, 0.0, 1.60245594481867E9, 2020-10-11 17:39:04.818
27.0, 1325.901123046875, 2867.274658203125, -162.82589721679688, -5727.52197265625, 0.0, 0.01600000075995922, 0.7680000066757202, 0.0, 0.0, 0.0, 0.0, 0.0, 1.602455944819454E9, 2020-10-11 17:39:04.819
27.0, 1479.1248779296875, 3054.718505859375, -14.830573081970215, -5692.30908203125, 0.0, 0.01600000075995922, 0.7680000066757202, 0.0, 0.0, 0.0, 0.0, 0.0, 1.602455944819454E9, 2020-10-11 17:39:04.819
28.0, 1304.1124267578125, 2835.43701171875, -216.60565185546875, -5868.89794921875, 0.0, 0.01600000075995922, 0.7680000066757202, 0.0, 0.0, 0.0, 0.0, 0.0, 1.6024559448201063E9, 2020-10-11 17:39:04.820
28.0, 1237.9124755859375, 2765.489501953125, -248.6453857421875, -5977.5869140625, 0.0, 0.01600000075995922, 0.7680000066757202, 0.0, 0.0, 0.0, 0.0, 0.0, 1.6024559448201063E9, 2020-10-11 17:39:04.820
29.0, 1423.3179931640625, 2995.51220703125, -61.36988830566406, -6155.3818359375, 0.0, 0.01600000075995922, 0.7680000066757202, 0.0, 0.0, 0.0, 0.0, 0.0, 1.602455944821003E9, 2020-10-11 17:39:04.821
29.0, 1391.5550537109375, 2963.689208984375, -91.30030822753906, -6184.3115234375, 0.0, 0.01600000075995922, 0.7680000066757202, 0.0, 0.0, 0.0, 0.0, 0.0, 1.602455944821003E9, 2020-10-11 17:39:04.821
30.0, 1250.8675537109375, 2776.249267578125, -238.5364227294922, -6232.11669921875, 0.0, 0.01600000075995922, 0.8960000276565552, 0.0, 0.0, 0.0, 0.0, 0.0, 1.6024559448317127E9, 2020-10-11 17:39:04.831
30.0, 1424.0361328125, 2976.259033203125, -75.26361846923828, -6434.68115234375, 0.0, 0.01600000075995922, 0.8960000276565552, 0.0, 0.0, 0.0, 0.0, 0.0, 1.6024559448317127E9, 2020-10-11 17:39:04.831
31.0, 1502.73486328125, 3069.352783203125, -7.085240364074707, -6469.8623046875, 0.0, 0.01600000075995922, 0.8960000276565552, 0.0, 0.0, 0.0, 0.0, 0.0, 1.6024559448465033E9, 2020-10-11 17:39:04.846
31.0, 1727.0595703125, 3266.94482421875, -244.55392456054688, -6677.140625, 0.0, 0.01600000075995922, 0.8960000276565552, 0.0, 0.0, 0.0, 0.0, 0.0, 1.6024559448465033E9, 2020-10-11 17:39:04.846
32.0, 1827.894775390625, 3377.929931640625, -146.87147521972656, -6699.10498046875, -0.01600000075995922, 0.01600000075995922, 0.8960000276565552, 0.0, 0.0, 0.0, 0.0, 0.0, 1.6024559448626552E9, 2020-10-11 17:39:04.862
32.0, 2014.0408935546875, 3584.847412109375, 18.316160202026367, -6644.44091796875, -0.01600000075995922, 0.01600000075995922, 0.8960000276565552, 0.0, 0.0, 0.0, 0.0, 0.0, 1.6024559448626552E9, 2020-10-11 17:39:04.862
33.0, 1801.4573974609375, 3350.883056640625, -185.94969177246094, -6827.76123046875, -0.01600000075995922, 0.01600000075995922, 0.8960000276565552, 0.0, 0.0, 0.0, 0.0, 0.0, 1.6024559448630104E9, 2020-10-11 17:39:04.863
33.0, 1736.11767578125, 3278.100830078125, -246.28924560546875, -6952.5283203125, -0.01600000075995922, 0.01600000075995922, 0.8960000276565552, 0.0, 0.0, 0.0, 0.0, 0.0, 1.6024559448630104E9, 2020-10-11 17:39:04.863
34.0, 1943.072509765625, 3510.16162109375, -48.56072998046875, -7118.8564453125, -0.01600000075995922, 0.01600000075995922, 0.8960000276565552, 0.0, 0.0, 0.0, 0.0, 0.0, 1.6024559448764825E9, 2020-10-11 17:39:04.876
34.0, 1903.48193359375, 3467.4072265625, -49.46578598022461, -7142.03076171875, -0.01600000075995922, 0.01600000075995922, 0.8960000276565552, 0.0, 0.0, 0.0, 0.0, 0.0, 1.6024559448764825E9, 2020-10-11 17:39:04.876
35.0, 1733.1668701171875, 3248.267578125, -276.0513610839844, -7229.98779296875, -0.01600000075995922, 0.01600000075995922, 0.8960000276565552, 0.0, 0.0, 0.0, 0.0, 0.0, 1.6024559448925247E9, 2020-10-11 17:39:04.892
35.0, 1886.30078125, 3448.838623046875, -74.73628997802734, -7421.02197265625, -0.01600000075995922, 0.01600000075995922, 0.8960000276565552, 0.0, 0.0, 0.0, 0.0, 0.0, 1.6024559448925247E9, 2020-10-11 17:39:04.892
36.0, 1979.738525390625, 3552.66552734375, -3.708110809326172, -7459.7373046875, -0.01600000075995922, 0.01600000075995922, 0.8960000276565552, 0.0, 0.0, 0.0, 0.0, 0.0, 1.6024559448932424E9, 2020-10-11 17:39:04.893
36.0, 2220.993896484375, 3765.92041015625, -238.4691162109375, -7656.83203125, -0.01600000075995922, 0.01600000075995922, 0.8960000276565552, 0.0, 0.0, 0.0, 0.0, 0.0, 1.6024559448932424E9, 2020-10-11 17:39:04.893
37.0, 2331.7919921875, 3873.58837890625, -149.4445343017578, -7676.9150390625, -0.01600000075995922, 0.01600000075995922, 0.8960000276565552, 0.0, 0.0, 0.0, 0.0, 0.0, 1.602455944906573E9, 2020-10-11 17:39:04.906
37.0, 2487.285888671875, 4055.777587890625, 4.7590227127075195, -7633.07763671875, -0.01600000075995922, 0.01600000075995922, 0.8960000276565552, 0.0, 0.0, 0.0, 0.0, 0.0, 1.602455944906573E9, 2020-10-11 17:39:04.906
38.0, 2296.04248046875, 3839.40185546875, -200.37823486328125, -7814.599609375, -0.01600000075995922, 0.01600000075995922, 0.8960000276565552, 0.0, 0.0, 0.0, 0.0, 0.0, 1.6024559449222376E9, 2020-10-11 17:39:04.922
38.0, 2253.18310546875, 3772.367919921875, -237.87820434570312, -7922.60009765625, -0.01600000075995922, 0.01600000075995922, 0.8960000276565552, 0.0, 0.0, 0.0, 0.0, 0.0, 1.6024559449222376E9, 2020-10-11 17:39:04.922
39.0, 2446.034912109375, 4013.55029296875, -36.04328536987305, -8095.451171875, -0.01600000075995922, 0.01600000075995922, 0.8960000276565552, 0.0, 0.0, 0.0, 0.0, 0.0, 1.6024559449233277E9, 2020-10-11 17:39:04.923
39.0, 2387.456787109375, 3962.467041015625, -81.85331726074219, -8132.5791015625, -0.01600000075995922, 0.01600000075995922, 0.8960000276565552, 0.0, 0.0, 0.0, 0.0, 0.0, 1.6024559449233277E9, 2020-10-11 17:39:04.923
40.0, 2228.832763671875, 3765.314453125, -204.63796997070312, -8192.890625, -0.01600000075995922, 0.01600000075995922, 0.9600000381469727, 0.0, 0.0, 0.0, 0.0, 0.0, 1.6024559449365797E9, 2020-10-11 17:39:04.936
40.0, 2383.604736328125, 3932.233642578125, -104.4984130859375, -8413.435546875, -0.01600000075995922, 0.01600000075995922, 0.9600000381469727, 0.0, 0.0, 0.0, 0.0, 0.0, 1.6024559449365797E9, 2020-10-11 17:39:04.936
41.0, 2468.605224609375, 4044.54296875, -14.363085746765137, -8437.6103515625, -0.01600000075995922, 0.01600000075995922, 0.9600000381469727, 0.0, 0.0, 0.0, 0.0, 0.0, 1.6024559449522204E9, 2020-10-11 17:39:04.952
41.0, 2240.179443359375, 4270.12451171875, -224.58660888671875, -8623.4521484375, -0.01600000075995922, 0.01600000075995922, 0.9600000381469727, 0.0, 0.0, 0.0, 0.0, 0.0, 1.6024559449522204E9, 2020-10-11 17:39:04.952
42.0, 2320.041259765625, 4355.8017578125, -152.68328857421875, -8668.0986328125, 0.0, 0.01600000075995922, 0.9600000381469727, 0.0, 0.0, 0.0, 0.0, 0.0, 1.6024559449529588E9, 2020-10-11 17:39:04.952
42.0, 2482.981201171875, 4547.96142578125, -10.720423698425293, -8620.578125, 0.0, 0.01600000075995922, 0.9600000381469727, 0.0, 0.0, 0.0, 0.0, 0.0, 1.6024559449529588E9, 2020-10-11 17:39:04.952
43.0, 2322.490966796875, 4352.01708984375, -154.6953582763672, -8769.12109375, 0.0, 0.01600000075995922, 0.9600000381469727, 0.0, 0.0, 0.0, 0.0, 0.0, 1.6024559449665468E9, 2020-10-11 17:39:04.966
43.0, 2259.802734375, 4289.033203125, -220.73825073242188, -8896.6513671875, 0.0, 0.01600000075995922, 0.9600000381469727, 0.0, 0.0, 0.0, 0.0, 0.0, 1.6024559449665468E9, 2020-10-11 17:39:04.966
44.0, 2435.49951171875, 4500.939453125, -30.227741241455078, -9082.154296875, 0.0, 0.01600000075995922, 0.9600000381469727, 0.0, 0.0, 0.0, 0.0, 0.0, 1.6024559449822354E9, 2020-10-11 17:39:04.982
44.0, 2388.200927734375, 4436.9013671875, -80.67899322509766, -9114.248046875, 0.0, 0.01600000075995922, 0.9600000381469727, 0.0, 0.0, 0.0, 0.0, 0.0, 1.6024559449822354E9, 2020-10-11 17:39:04.982
45.0, 2221.54736328125, 4242.44921875, -242.43341064453125, -9187.6494140625, 0.0, 0.01600000075995922, 0.9600000381469727, 0.0, 0.0, 0.0, 0.0, 0.0, 1.602455944983174E9, 2020-10-11 17:39:04.983
45.0, 2393.0517578125, 4431.2353515625, -93.17025756835938, -9386.6123046875, 0.0, 0.01600000075995922, 0.9600000381469727, 0.0, 0.0, 0.0, 0.0, 0.0, 1.602455944983174E9, 2020-10-11 17:39:04.983
46.0, 2456.734619140625, 4523.30419921875, -17.441022872924805, -9426.3603515625, 0.0, 0.01600000075995922, 0.9600000381469727, 0.0, 0.0, 0.0, 0.0, 0.0, 1.6024559449968953E9, 2020-10-11 17:39:04.996
46.0, 2234.82763671875, 4750.87890625, -214.5449676513672, -9609.0595703125, 0.0, 0.01600000075995922, 0.9600000381469727, 0.0, 0.0, 0.0, 0.0, 0.0, 1.6024559449968953E9, 2020-10-11 17:39:04.996
47.0, 2305.444580078125, 4826.1259765625, -173.297607421875, -9664.2080078125, 0.0, 0.01600000075995922, 0.9600000381469727, 0.0, 0.0, 0.0, 0.0, 0.0, 1.602455945012254E9, 2020-10-11 17:39:05.012
47.0, 2471.41748046875, 5019.94970703125, -6.778568744659424, -9607.052734375, 0.0, 0.01600000075995922, 0.9600000381469727, 0.0, 0.0, 0.0, 0.0, 0.0, 1.602455945012254E9, 2020-10-11 17:39:05.012
48.0, 2286.0830078125, 4816.34228515625, -185.48968505859375, -9775.3359375, 0.0, 0.01600000075995922, 0.9600000381469727, 0.0, 0.0, 0.0, 0.0, 0.0, 1.6024559450129278E9, 2020-10-11 17:39:05.012
48.0, 2250.2548828125, 4758.24658203125, -209.2455291748047, -9885.4794921875, 0.0, 0.01600000075995922, 0.9600000381469727, 0.0, 0.0, 0.0, 0.0, 0.0, 1.6024559450129278E9, 2020-10-11 17:39:05.012
49.0, 2454.329833984375, 4999.1298828125, -35.13822937011719, -10053.853515625, 0.0, 0.01600000075995922, 0.9600000381469727, 0.0, 0.0, 0.0, 0.0, 0.0, 1.6024559450268295E9, 2020-10-11 17:39:05.026
49.0, 2405.92431640625, 4938.93994140625, -77.67584991455078, -10082.6708984375, 0.0, 0.01600000075995922, 0.9600000381469727, 0.0, 0.0, 0.0, 0.0, 0.0, 1.6024559450268295E9, 2020-10-11 17:39:05.026
50.0, 2201.333251953125, 4707.4365234375, -261.1852722167969, -10198.53125, 0.0, 0.01600000075995922, 0.9760000705718994, 0.0, 0.0, 0.0, 0.0, 0.0, 1.6024559450426006E9, 2020-10-11 17:39:05.042
50.0, 2383.0625, 4913.486328125, -96.65958404541016, -10381.5693359375, 0.0, 0.01600000075995922, 0.9760000705718994, 0.0, 0.0, 0.0, 0.0, 0.0, 1.6024559450426006E9, 2020-10-11 17:39:05.042
51.0, 2472.5244140625, 5003.27001953125, -31.42076873779297, -10406.9443359375, 0.0, 0.03200000151991844, 0.9760000705718994, 0.0, 0.0, 0.0, 0.0, 0.0, 1.602455945043011E9, 2020-10-11 17:39:05.043
51.0, 2243.560302734375, 4758.51220703125, -212.96673583984375, -10588.197265625, 0.0, 0.03200000151991844, 0.9760000705718994, 0.0, 0.0, 0.0, 0.0, 0.0, 1.602455945043011E9, 2020-10-11 17:39:05.043
52.0, 2318.197509765625, 4831.365234375, -152.7431182861328, -10639.8671875, 0.0, 0.03200000151991844, 0.9760000705718994, 0.0, 0.0, 0.0, 0.0, 0.0, 1.6024559450565443E9, 2020-10-11 17:39:05.056
52.0, 2488.482666015625, 5030.33935546875, -10.17813777923584, -10584.1005859375, 0.0, 0.03200000151991844, 0.9760000705718994, 0.0, 0.0, 0.0, 0.0, 0.0, 1.6024559450565443E9, 2020-10-11 17:39:05.056
53.0, 2311.764892578125, 4838.40771484375, -140.71560668945312, -10732.2763671875, 0.0, 0.03200000151991844, 0.9760000705718994, 0.0, 0.0, 0.0, 0.0, 0.0, 1.602455945072229E9, 2020-10-11 17:39:05.072
53.0, 2253.47119140625, 4757.7978515625, -219.436767578125, -10872.33984375, 0.0, 0.03200000151991844, 0.9760000705718994, 0.0, 0.0, 0.0, 0.0, 0.0, 1.602455945072229E9, 2020-10-11 17:39:05.072
54.0, 2467.471923828125, 4999.82568359375, -25.792219161987305, -11028.5146484375, 0.0, 0.03200000151991844, 0.9760000705718994, 0.0, 0.0, 0.0, 0.0, 0.0, 1.6024559450729434E9, 2020-10-11 17:39:05.072
54.0, 2423.9169921875, 4957.0595703125, -79.99085235595703, -11048.0498046875, 0.0, 0.03200000151991844, 0.9760000705718994, 0.0, 0.0, 0.0, 0.0, 0.0, 1.6024559450729434E9, 2020-10-11 17:39:05.072
55.0, 2202.3017578125, 4721.64404296875, -248.48081970214844, -11164.4521484375, 0.0, 0.03200000151991844, 0.9760000705718994, 0.0, 0.0, 0.0, 0.0, 0.0, 1.6024559450865223E9, 2020-10-11 17:39:05.086
55.0, 2380.167724609375, 4904.75, -113.66864776611328, -11363.3662109375, 0.0, 0.03200000151991844, 0.9760000705718994, 0.0, 0.0, 0.0, 0.0, 0.0, 1.6024559450865223E9, 2020-10-11 17:39:05.086
56.0, 2469.009033203125, 5009.6689453125, -28.997314453125, -11384.07421875, 0.0, 0.03200000151991844, 0.9760000705718994, 0.0, 0.0, 0.0, 0.0, 0.0, 1.6024559451021924E9, 2020-10-11 17:39:05.102
56.0, 2248.52685546875, 5252.56591796875, -200.59140014648438, -11565.3525390625, 0.0, 0.03200000151991844, 0.9760000705718994, 0.0, 0.0, 0.0, 0.0, 0.0, 1.6024559451021924E9, 2020-10-11 17:39:05.102
57.0, 2355.58154296875, 5347.23046875, -131.35838317871094, -11598.578125, 0.0, 0.03200000151991844, 0.9760000705718994, 0.0, 0.0, 0.0, 0.0, 0.0, 1.6024559451029272E9, 2020-10-11 17:39:05.102
57.0, 2496.224365234375, 5540.5048828125, 13.798360824584961, -11543.6142578125, 0.0, 0.03200000151991844, 0.9760000705718994, 0.0, 0.0, 0.0, 0.0, 0.0, 1.6024559451029272E9, 2020-10-11 17:39:05.102
58.0, 2333.17578125, 5356.06396484375, -124.89582824707031, -11695.2841796875, 0.0, 0.03200000151991844, 0.9760000705718994, 0.0, 0.0, 0.0, 0.0, 0.0, 1.6024559451165595E9, 2020-10-11 17:39:05.116
58.0, 2267.84716796875, 5280.29345703125, -190.7704315185547, -11837.98046875, 0.0, 0.03200000151991844, 0.9760000705718994, 0.0, 0.0, 0.0, 0.0, 0.0, 1.6024559451165595E9, 2020-10-11 17:39:05.116
59.0, 2453.0732421875, 5497.7578125, -13.001762390136719, -12007.939453125, 0.0, 0.03200000151991844, 0.9760000705718994, 0.0, 0.0, 0.0, 0.0, 0.0, 1.6024559451325064E9, 2020-10-11 17:39:05.132
59.0, 2443.5927734375, 5476.29052734375, 6.557914733886719, -11995.78125, 0.0, 0.03200000151991844, 0.9760000705718994, 0.0, 0.0, 0.0, 0.0, 0.0, 1.6024559451325064E9, 2020-10-11 17:39:05.132
60.0, 2217.631591796875, 5719.587890625, 244.84002685546875, -12138.943359375, 0.0, 0.03200000151991844, 0.9920000433921814, 0.0, 0.0, 0.0, 0.0, 0.0, 1.6024559451334455E9, 2020-10-11 17:39:05.133
60.0, 2388.78076171875, 5904.2939453125, 384.3794250488281, -12342.244140625, 0.0, 0.03200000151991844, 0.9920000433921814, 0.0, 0.0, 0.0, 0.0, 0.0, 1.6024559451334455E9, 2020-10-11 17:39:05.133
61.0, 2492.117919921875, 6028.44775390625, 511.4687194824219, -12333.85546875, 0.0, 0.03200000151991844, 0.9920000433921814, 0.0, 0.0, 0.0, 0.0, 0.0, 1.6024559451465776E9, 2020-10-11 17:39:05.146
61.0, 2734.6298828125, 6226.19677734375, 743.9091186523438, -12550.3486328125, 0.0, 0.03200000151991844, 0.9920000433921814, 0.0, 0.0, 0.0, 0.0, 0.0, 1.6024559451465776E9, 2020-10-11 17:39:05.146
62.0, 2811.76904296875, 6309.70849609375, 818.2134399414062, -12596.1025390625, 0.0, 0.03200000151991844, 0.9920000433921814, 0.0, 0.0, 0.0, 0.0, 0.0, 1.6024559451622317E9, 2020-10-11 17:39:05.162
62.0, 2997.26806640625, 6524.89892578125, 1003.7162475585938, -12520.4384765625, 0.0, 0.03200000151991844, 0.9920000433921814, 0.0, 0.0, 0.0, 0.0, 0.0, 1.6024559451622317E9, 2020-10-11 17:39:05.162
63.0, 2808.130126953125, 6316.5712890625, 832.8252563476562, -12682.4833984375, 0.0, 0.03200000151991844, 0.9920000433921814, 0.0, 0.0, 0.0, 0.0, 0.0, 1.6024559451632245E9, 2020-10-11 17:39:05.163
63.0, 2750.81982421875, 6250.85400390625, 772.8259887695312, -12830.294921875, 0.0, 0.03200000151991844, 0.9920000433921814, 0.0, 0.0, 0.0, 0.0, 0.0, 1.6024559451632245E9, 2020-10-11 17:39:05.163
64.0, 2952.400390625, 6480.17333984375, 963.7516479492188, -12989.7421875, 0.0, 0.03200000151991844, 0.9920000433921814, 0.0, 0.0, 0.0, 0.0, 0.0, 1.602455945176547E9, 2020-10-11 17:39:05.176
64.0, 2908.47900390625, 6434.931640625, 914.6018676757812, -13003.958984375, 0.0, 0.03200000151991844, 0.9920000433921814, 0.0, 0.0, 0.0, 0.0, 0.0, 1.602455945176547E9, 2020-10-11 17:39:05.176
65.0, 2739.38330078125, 6224.2109375, 767.6649780273438, -13100.6865234375, 0.0, 0.03200000151991844, 0.9920000433921814, 0.0, 0.0, 0.0, 0.0, 0.0, 1.6024559451924021E9, 2020-10-11 17:39:05.192
65.0, 2858.659912109375, 6374.6708984375, 871.8922119140625, -13331.1611328125, 0.0, 0.03200000151991844, 0.9920000433921814, 0.0, 0.0, 0.0, 0.0, 0.0, 1.6024559451924021E9, 2020-10-11 17:39:05.192
66.0, 2965.830322265625, 6498.91015625, 988.9697875976562, -13319.78125, 0.0, 0.03200000151991844, 0.9920000433921814, 0.0, 0.0, 0.0, 0.0, 0.0, 1.6024559451931036E9, 2020-10-11 17:39:05.193
66.0, 2741.7392578125, 6733.0595703125, 765.9034423828125, -13523.1025390625, 0.0, 0.03200000151991844, 0.9920000433921814, 0.0, 0.0, 0.0, 0.0, 0.0, 1.6024559451931036E9, 2020-10-11 17:39:05.193
67.0, 2810.20947265625, 6802.2890625, 815.9283447265625, -13580.90625, 0.0, 0.03200000151991844, 0.9920000433921814, 0.0, 0.0, 0.0, 0.0, 0.0, 1.6024559452065568E9, 2020-10-11 17:39:05.206
67.0, 2974.649169921875, 6995.41357421875, 970.2478637695312, -13514.0234375, 0.0, 0.03200000151991844, 0.9920000433921814, 0.0, 0.0, 0.0, 0.0, 0.0, 1.6024559452065568E9, 2020-10-11 17:39:05.206
68.0, 2787.1005859375, 6788.0625, 805.5651245117188, -13682.95703125, 0.0, 0.03200000151991844, 0.9920000433921814, 0.0, 0.0, 0.0, 0.0, 0.0, 1.6024559452225645E9, 2020-10-11 17:39:05.222
68.0, 2742.416259765625, 6712.12744140625, 743.067626953125, -13824.3662109375, 0.0, 0.03200000151991844, 0.9920000433921814, 0.0, 0.0, 0.0, 0.0, 0.0, 1.6024559452225645E9, 2020-10-11 17:39:05.222
69.0, 2923.633056640625, 6936.44677734375, 930.2421264648438, -13990.14453125, 0.0, 0.03200000151991844, 0.9920000433921814, 0.0, 0.0, 0.0, 0.0, 0.0, 1.6024559452232594E9, 2020-10-11 17:39:05.223
69.0, 2886.0546875, 6890.98828125, 890.5318603515625, -13994.2119140625, 0.0, 0.03200000151991844, 0.9920000433921814, 0.0, 0.0, 0.0, 0.0, 0.0, 1.6024559452232594E9, 2020-10-11 17:39:05.223
70.0, 2714.445556640625, 6689.00390625, 725.5125122070312, -14107.9443359375, 0.0, 0.03200000151991844, 1.0080000162124634, 0.0, 0.0, 0.0, 0.0, 0.0, 1.6024559452365782E9, 2020-10-11 17:39:05.236
70.0, 2867.7177734375, 6865.32861328125, 875.95751953125, -14310.7744140625, 0.0, 0.03200000151991844, 1.0080000162124634, 0.0, 0.0, 0.0, 0.0, 0.0, 1.6024559452365782E9, 2020-10-11 17:39:05.236
71.0, 2954.689208984375, 6972.091796875, 967.3419799804688, -14310.8671875, 0.0, 0.03200000151991844, 1.0080000162124634, 0.0, 0.0, 0.0, 0.0, 0.0, 1.6024559452523768E9, 2020-10-11 17:39:05.252
71.0, 2715.489013671875, 7165.072265625, 1207.135009765625, -14531.0107421875, 0.0, 0.03200000151991844, 1.0080000162124634, 0.0, 0.0, 0.0, 0.0, 0.0, 1.6024559452523768E9, 2020-10-11 17:39:05.252
72.0, 2802.737060546875, 7284.41650390625, 1311.6988525390625, -14562.908203125, 0.0, 0.03200000151991844, 1.0080000162124634, 0.0, 0.0, 0.0, 0.0, 0.0, 1.6024559452529566E9, 2020-10-11 17:39:05.252
72.0, 2967.9697265625, 7477.8701171875, 1457.0911865234375, -14499.5009765625, 0.0, 0.03200000151991844, 1.0080000162124634, 0.0, 0.0, 0.0, 0.0, 0.0, 1.6024559452529566E9, 2020-10-11 17:39:05.252
73.0, 2776.610107421875, 7268.05810546875, 1295.2545166015625, -14660.146484375, 0.0, 0.03200000151991844, 1.0080000162124634, 0.0, 0.0, 0.0, 0.0, 0.0, 1.6024559452666402E9, 2020-10-11 17:39:05.266
73.0, 2732.064208984375, 7196.865234375, 1232.491455078125, -14811.1103515625, 0.0, 0.03200000151991844, 1.0080000162124634, 0.0, 0.0, 0.0, 0.0, 0.0, 1.6024559452666402E9, 2020-10-11 17:39:05.266
74.0, 2938.9892578125, 6955.02294921875, 1452.330322265625, -14957.056640625, 0.0, 0.03200000151991844, 1.0080000162124634, 0.0, 0.0, 0.0, 0.0, 0.0, 1.6024559452825143E9, 2020-10-11 17:39:05.282
74.0, 2869.232666015625, 6876.9111328125, 1362.5914306640625, -14991.03515625, 0.0, 0.03200000151991844, 1.0080000162124634, 0.0, 0.0, 0.0, 0.0, 0.0, 1.6024559452825143E9, 2020-10-11 17:39:05.282
75.0, 2706.775146484375, 6678.30029296875, 1202.95751953125, -15090.8779296875, 0.0, 0.03200000151991844, 1.0080000162124634, 0.0, 0.0, 0.0, 0.0, 0.0, 1.602455945283402E9, 2020-10-11 17:39:05.283
75.0, 2882.583984375, 6890.40478515625, 1402.6083984375, -15267.45703125, 0.0, 0.03200000151991844, 1.0080000162124634, 0.0, 0.0, 0.0, 0.0, 0.0, 1.602455945283402E9, 2020-10-11 17:39:05.283
76.0, 2956.8173828125, 6974.84033203125, 1465.9061279296875, -15283.62890625, 0.0, 0.03200000151991844, 1.0080000162124634, 0.0, 0.0, 0.0, 0.0, 0.0, 1.6024559452968276E9, 2020-10-11 17:39:05.296
76.0, 2732.72998046875, 7188.697265625, 1233.87158203125, -15493.5849609375, 0.0, 0.03200000151991844, 1.0080000162124634, 0.0, 0.0, 0.0, 0.0, 0.0, 1.6024559452968276E9, 2020-10-11 17:39:05.296
77.0, 2810.6396484375, 7287.59130859375, 1317.4957275390625, -15547.2373046875, 0.0, 0.03200000151991844, 1.0080000162124634, 0.0, 0.0, 0.0, 0.0, 0.0, 1.6024559453285904E9, 2020-10-11 17:39:05.328
77.0, 2989.38427734375, 7487.86669921875, 1470.5548095703125, -15461.8681640625, 0.0, 0.03200000151991844, 1.0080000162124634, 0.0, 0.0, 0.0, 0.0, 0.0, 1.6024559453285904E9, 2020-10-11 17:39:05.328
78.0, 2789.23974609375, 7267.33642578125, 1292.1802978515625, -15631.033203125, 0.0, 0.03200000151991844, 1.0080000162124634, 0.0, 0.0, 0.0, 0.0, 0.0, 1.6024559453292923E9, 2020-10-11 17:39:05.329
78.0, 2751.616455078125, 7211.96337890625, 1255.14404296875, -15780.7900390625, 0.0, 0.03200000151991844, 1.0080000162124634, 0.0, 0.0, 0.0, 0.0, 0.0, 1.6024559453292923E9, 2020-10-11 17:39:05.329
79.0, 2956.4658203125, 7451.7470703125, 1444.30078125, -15936.7744140625, 0.0, 0.03200000151991844, 1.0080000162124634, 0.0, 0.0, 0.0, 0.0, 0.0, 1.6024559453301823E9, 2020-10-11 17:39:05.330
79.0, 2876.7646484375, 7374.705078125, 1396.7479248046875, -15950.1123046875, 0.0, 0.03200000151991844, 1.0080000162124634, 0.0, 0.0, 0.0, 0.0, 0.0, 1.6024559453301823E9, 2020-10-11 17:39:05.330
80.0, 2715.238525390625, 7173.84228515625, 1224.14404296875, -16059.8203125, 0.0, 0.03200000151991844, 1.0080000162124634, 0.0, 0.0, 0.0, 0.0, 0.0, 1.6024559453310685E9, 2020-10-11 17:39:05.331
80.0, 2867.833740234375, 7353.03955078125, 1365.0821533203125, -16276.90625, 0.0, 0.03200000151991844, 1.0080000162124634, 0.0, 0.0, 0.0, 0.0, 0.0, 1.6024559453310685E9, 2020-10-11 17:39:05.331
81.0, 2936.872314453125, 7443.95654296875, 1452.1583251953125, -16273.58203125, 0.0, 0.03200000151991844, 1.0080000162124634, 0.0, 0.0, 0.0, 0.0, 0.0, 1.602455945341517E9, 2020-10-11 17:39:05.341
81.0, 2709.778076171875, 7669.85205078125, 1207.8231201171875, -16490.673828125, 0.0, 0.03200000151991844, 1.0080000162124634, 0.0, 0.0, 0.0, 0.0, 0.0, 1.602455945341517E9, 2020-10-11 17:39:05.341
82.0, 2799.917236328125, 7763.75, 1309.2230224609375, -16537.935546875, 0.0, 0.03200000151991844, 1.0080000162124634, 0.0, 0.0, 0.0, 0.0, 0.0, 1.6024559453566303E9, 2020-10-11 17:39:05.356
82.0, 2960.7216796875, 7952.8876953125, 1445.138427734375, -16468.61328125, 0.0, 0.03200000151991844, 1.0080000162124634, 0.0, 0.0, 0.0, 0.0, 0.0, 1.6024559453566303E9, 2020-10-11 17:39:05.356
83.0, 2772.526123046875, 7740.46923828125, 1263.297119140625, -16628.42578125, 0.0, 0.03200000151991844, 1.0080000162124634, 0.0, 0.0, 0.0, 0.0, 0.0, 1.602455945372243E9, 2020-10-11 17:39:05.372
83.0, 2704.654541015625, 7663.59521484375, 1207.5126953125, -16795.96875, 0.0, 0.03200000151991844, 1.0080000162124634, 0.0, 0.0, 0.0, 0.0, 0.0, 1.602455945372243E9, 2020-10-11 17:39:05.372
84.0, 2915.6259765625, 7423.619140625, 1441.2340087890625, -16934.408203125, 0.0, 0.03200000151991844, 1.0080000162124634, 0.0, 0.0, 0.0, 0.0, 0.0, 1.6024559453729932E9, 2020-10-11 17:39:05.372
84.0, 2864.68115234375, 7358.94140625, 1371.6981201171875, -16941.18359375, 0.0, 0.03200000151991844, 1.0080000162124634, 0.0, 0.0, 0.0, 0.0, 0.0, 1.6024559453729932E9, 2020-10-11 17:39:05.372
85.0, 2684.59375, 7157.51416015625, 1212.4007568359375, -17056.7421875, 0.0, 0.03200000151991844, 1.0080000162124634, 0.0, 0.0, 0.0, 0.0, 0.0, 1.6024559453866172E9, 2020-10-11 17:39:05.386
85.0, 2857.496826171875, 7357.4189453125, 1362.8980712890625, -17255.341796875, 0.0, 0.03200000151991844, 1.0080000162124634, 0.0, 0.0, 0.0, 0.0, 0.0, 1.6024559453866172E9, 2020-10-11 17:39:05.386
86.0, 2951.267333984375, 7461.0966796875, 1454.383544921875, -17244.177734375, 0.0, 0.03200000151991844, 1.0080000162124634, 0.0, 0.0, 0.0, 0.0, 0.0, 1.6024559454026644E9, 2020-10-11 17:39:05.402
86.0, 2718.144287109375, 7681.0048828125, 1218.6463623046875, -17459.77734375, 0.0, 0.03200000151991844, 1.0080000162124634, 0.0, 0.0, 0.0, 0.0, 0.0, 1.6024559454026644E9, 2020-10-11 17:39:05.402
87.0, 2796.19970703125, 7767.478515625, 1292.5916748046875, -17521.6875, 0.0, 0.03200000151991844, 1.0080000162124634, 0.0, 0.0, 0.0, 0.0, 0.0, 1.602455945403507E9, 2020-10-11 17:39:05.403
87.0, 2954.599609375, 7958.03759765625, 1454.80615234375, -17446.423828125, 0.0, 0.03200000151991844, 1.0080000162124634, 0.0, 0.0, 0.0, 0.0, 0.0, 1.602455945403507E9, 2020-10-11 17:39:05.403
88.0, 2767.8662109375, 7749.482421875, 1293.9979248046875, -17596.908203125, 0.0, 0.03200000151991844, 1.0080000162124634, 0.0, 0.0, 0.0, 0.0, 0.0, 1.6024559454165397E9, 2020-10-11 17:39:05.416
88.0, 2729.135986328125, 7689.1201171875, 1224.0057373046875, -17760.80078125, 0.0, 0.03200000151991844, 1.0080000162124634, 0.0, 0.0, 0.0, 0.0, 0.0, 1.6024559454165397E9, 2020-10-11 17:39:05.416
89.0, 2945.840576171875, 7933.4365234375, 1440.957275390625, -17908.583984375, 0.0, 0.03200000151991844, 1.0080000162124634, 0.0, 0.0, 0.0, 0.0, 0.0, 1.6024559454324613E9, 2020-10-11 17:39:05.432
89.0, 2864.793212890625, 7855.740234375, 1372.91357421875, -17916.1328125, 0.0, 0.03200000151991844, 1.0080000162124634, 0.0, 0.0, 0.0, 0.0, 0.0, 1.6024559454324613E9, 2020-10-11 17:39:05.432
90.0, 2699.09326171875, 7658.29248046875, 1220.0863037109375, -18027.265625, 0.0, 0.03200000151991844, 1.0080000162124634, 0.0, 0.0, 0.0, 0.0, 0.0, 1.6024559454332952E9, 2020-10-11 17:39:05.433
90.0, 2863.68994140625, 7844.3857421875, 1354.685302734375, -18243.685546875, 0.0, 0.03200000151991844, 1.0080000162124634, 0.0, 0.0, 0.0, 0.0, 0.0, 1.6024559454332952E9, 2020-10-11 17:39:05.433
91.0, 2958.021484375, 7951.470703125, 1441.5482177734375, -18223.935546875, 0.0, 0.03200000151991844, 1.0080000162124634, 0.0, 0.0, 0.0, 0.0, 0.0, 1.6024559454468625E9, 2020-10-11 17:39:05.446
91.0, 2716.730712890625, 8163.2705078125, 1224.1851806640625, -18437.115234375, 0.0, 0.03200000151991844, 1.0080000162124634, 0.0, 0.0, 0.0, 0.0, 0.0, 1.6024559454468625E9, 2020-10-11 17:39:05.446
92.0, 2782.1416015625, 8250.880859375, 1309.66064453125, -18504.80078125, 0.0, 0.03200000151991844, 1.0080000162124634, 0.0, 0.0, 0.0, 0.0, 0.0, 1.602455945462182E9, 2020-10-11 17:39:05.462
92.0, 2969.5703125, 8454.15234375, 1435.8785400390625, -18426.564453125, 0.0, 0.03200000151991844, 1.0080000162124634, 0.0, 0.0, 0.0, 0.0, 0.0, 1.602455945462182E9, 2020-10-11 17:39:05.462
93.0, 2789.81201171875, 8251.8310546875, 1287.950439453125, -18566.203125, 0.0, 0.03200000151991844, 1.0080000162124634, 0.0, 0.0, 0.0, 0.0, 0.0, 1.6024559454632254E9, 2020-10-11 17:39:05.463
93.0, 2720.3359375, 8177.59814453125, 1241.2764892578125, -18743.193359375, 0.0, 0.03200000151991844, 1.0080000162124634, 0.0, 0.0, 0.0, 0.0, 0.0, 1.6024559454632254E9, 2020-10-11 17:39:05.463
94.0, 2933.607421875, 8421.6640625, 1437.411865234375, -18893.40234375, 0.0, 0.03200000151991844, 1.0080000162124634, 0.0, 0.0, 0.0, 0.0, 0.0, 1.6024559454765654E9, 2020-10-11 17:39:05.476
94.0, 2847.814208984375, 8328.091796875, 1351.6859130859375, -18906.224609375, 0.0, 0.03200000151991844, 1.0080000162124634, 0.0, 0.0, 0.0, 0.0, 0.0, 1.6024559454765654E9, 2020-10-11 17:39:05.476
95.0, 2688.243896484375, 8138.77392578125, 1206.0953369140625, -19015.39453125, 0.0, 0.03200000151991844, 1.0080000162124634, 0.0, 0.0, 0.0, 0.0, 0.0, 1.6024559454922152E9, 2020-10-11 17:39:05.492
95.0, 2859.063720703125, 8326.1689453125, 1345.989990234375, -19231.0625, 0.0, 0.03200000151991844, 1.0080000162124634, 0.0, 0.0, 0.0, 0.0, 0.0, 1.6024559454922152E9, 2020-10-11 17:39:05.492
96.0, 2931.31494140625, 8407.8369140625, 1409.2130126953125, -19230.37109375, 0.0, 0.03200000151991844, 1.0080000162124634, 0.0, 0.0, 0.0, 0.0, 0.0, 1.6024559454929204E9, 2020-10-11 17:39:05.492
96.0, 2696.939208984375, 8640.8046875, 1206.9554443359375, -19431.396484375, 0.0, 0.03200000151991844, 1.0080000162124634, 0.0, 0.0, 0.0, 0.0, 0.0, 1.6024559454929204E9, 2020-10-11 17:39:05.492
97.0, 2789.87939453125, 8736.8154296875, 1293.4444580078125, -19492.677734375, 0.0, 0.03200000151991844, 1.0080000162124634, 0.0, 0.0, 0.0, 0.0, 0.0, 1.602455945506562E9, 2020-10-11 17:39:05.506
97.0, 2955.205322265625, 8936.6943359375, 1464.7093505859375, -19405.779296875, 0.0, 0.03200000151991844, 1.0080000162124634, 0.0, 0.0, 0.0, 0.0, 0.0, 1.602455945506562E9, 2020-10-11 17:39:05.506
98.0, 2774.725341796875, 8729.634765625, 1277.7406005859375, -19549.10546875, 0.0, 0.03200000151991844, 1.0080000162124634, 0.0, 0.0, 0.0, 0.0, 0.0, 1.602455945522176E9, 2020-10-11 17:39:05.522
98.0, 2731.933349609375, 8676.6669921875, 1225.4044189453125, -19723.1015625, 0.0, 0.03200000151991844, 1.0080000162124634, 0.0, 0.0, 0.0, 0.0, 0.0, 1.602455945522176E9, 2020-10-11 17:39:05.522
99.0, 2942.912353515625, 8907.44921875, 1428.7464599609375, -19876.361328125, 0.0, 0.03200000151991844, 1.0080000162124634, 0.0, 0.0, 0.0, 0.0, 0.0, 1.6024559455229692E9, 2020-10-11 17:39:05.522
99.0, 2859.336669921875, 8824.5654296875, 1352.5684814453125, -19879.236328125, 0.0, 0.03200000151991844, 1.0080000162124634, 0.0, 0.0, 0.0, 0.0, 0.0, 1.6024559455229692E9, 2020-10-11 17:39:05.522
100.0, 2682.75, 8619.9287109375, 1200.1824951171875, -20006.2265625, 0.0, 0.03200000151991844, 1.0240000486373901, 0.0, 0.0, 0.0, 0.0, 0.0, 1.6024559455375535E9, 2020-10-11 17:39:05.537
100.0, 2858.5439453125, 8821.20703125, 1357.153564453125, -20213.125, 0.0, 0.03200000151991844, 1.0240000486373901, 0.0, 0.0, 0.0, 0.0, 0.0, 1.6024559455375535E9, 2020-10-11 17:39:05.537
0.0, 2.103693723678589, 92.1810531616211, -1003.4076538085938, -584.682861328125, 0.0, 0.03200000151991844, 1.0240000486373901, 0.0, 0.0, 0.0, 0.0, 0.0, 1.6024559455379395E9, 2020-10-11 17:39:05.537
1.0, -240.2567901611328, 309.62445068359375, -1232.5401611328125, -800.9556884765625, 0.0, 0.03200000151991844, 1.0240000486373901, 0.0, 0.0, 0.0, 0.0, 0.0, 1.6024559455515556E9, 2020-10-11 17:39:05.551
1.0, -155.08056640625, 399.5054626464844, -1158.6883544921875, -869.2686767578125, 0.0, 0.03200000151991844, 1.0240000486373901, 0.0, 0.0, 0.0, 0.0, 0.0, 1.6024559455515556E9, 2020-10-11 17:39:05.551
2.0, 11.909711837768555, 598.1539916992188, -992.6891479492188, -783.3949584960938, -0.01600000075995922, 0.03200000151991844, 1.0240000486373901, 0.0, 0.0, 0.0, 0.0, 0.0, 1.60245594556746E9, 2020-10-11 17:39:05.567
2.0, -149.0069580078125, 408.06982421875, -1149.3123779296875, -907.1837768554688, -0.01600000075995922, 0.03200000151991844, 1.0240000486373901, 0.0, 0.0, 0.0, 0.0, 0.0, 1.60245594556746E9, 2020-10-11 17:39:05.567
3.0, -202.28184509277344, 342.4794616699219, -1215.3291015625, -1089.982666015625, -0.01600000075995922, 0.03200000151991844, 1.0240000486373901, 0.0, 0.0, 0.0, 0.0, 0.0, 1.602455945568233E9, 2020-10-11 17:39:05.568
3.0, -5.918391704559326, 566.7388305664062, -1032.9940185546875, -1252.593505859375, -0.01600000075995922, 0.03200000151991844, 1.0240000486373901, 0.0, 0.0, 0.0, 0.0, 0.0, 1.602455945568233E9, 2020-10-11 17:39:05.568
4.0, -86.56185150146484, 483.4138488769531, -1101.6549072265625, -1255.6695556640625, -0.01600000075995922, 0.03200000151991844, 1.0240000486373901, 0.0, 0.0, 0.0, 0.0, 0.0, 1.60245594558156E9, 2020-10-11 17:39:05.581
4.0, -241.9472198486328, 297.37628173828125, -1244.6910400390625, -1366.140625, -0.01600000075995922, 0.03200000151991844, 1.0240000486373901, 0.0, 0.0, 0.0, 0.0, 0.0, 1.60245594558156E9, 2020-10-11 17:39:05.581
5.0, -70.4129638671875, 496.9635009765625, -1086.9495849609375, -1578.013427734375, -0.01600000075995922, 0.03200000151991844, 1.0240000486373901, 0.0, 0.0, 0.0, 0.0, 0.0, 1.6024559455973823E9, 2020-10-11 17:39:05.597
5.0, 9.792927742004395, 595.364013671875, -996.496337890625, -1554.7998046875, -0.01600000075995922, 0.03200000151991844, 1.0240000486373901, 0.0, 0.0, 0.0, 0.0, 0.0, 1.6024559455973823E9, 2020-10-11 17:39:05.597
6.0, -220.55873107910156, 817.1344604492188, -1229.8062744140625, -1768.5482177734375, -0.01600000075995922, 0.03200000151991844, 1.0240000486373901, 0.0, 0.0, 0.0, 0.0, 0.0, 1.6024559455983737E9, 2020-10-11 17:39:05.598
6.0, -129.95217895507812, 915.8753051757812, -1125.78466796875, -1835.612060546875, -0.01600000075995922, 0.03200000151991844, 1.0240000486373901, 0.0, 0.0, 0.0, 0.0, 0.0, 1.6024559455983737E9, 2020-10-11 17:39:05.598
7.0, 14.867972373962402, 1086.1080322265625, -1001.9715576171875, -1764.555908203125, -0.01600000075995922, 0.03200000151991844, 1.0240000486373901, 0.0, 0.0, 0.0, 0.0, 0.0, 1.6024559456115773E9, 2020-10-11 17:39:05.611
7.0, -165.327880859375, 890.2046508789062, -1163.96533203125, -1892.5072021484375, -0.01600000075995922, 0.03200000151991844, 1.0240000486373901, 0.0, 0.0, 0.0, 0.0, 0.0, 1.6024559456115773E9, 2020-10-11 17:39:05.611
8.0, -188.24598693847656, 838.627685546875, -1206.2635498046875, -2066.2890625, -0.01600000075995922, 0.03200000151991844, 1.0240000486373901, 0.0, 0.0, 0.0, 0.0, 0.0, 1.6024559456272836E9, 2020-10-11 17:39:05.627
8.0, -4.0222625732421875, 1076.9677734375, -1012.9369506835938, -2226.304443359375, -0.01600000075995922, 0.03200000151991844, 1.0240000486373901, 0.0, 0.0, 0.0, 0.0, 0.0, 1.6024559456272836E9, 2020-10-11 17:39:05.627
9.0, -54.00602340698242, 1001.9566040039062, -1084.42138671875, -2209.0185546875, -0.01600000075995922, 0.03200000151991844, 1.0240000486373901, 0.0, 0.0, 0.0, 0.0, 0.0, 1.6024559456281102E9, 2020-10-11 17:39:05.628
9.0, -219.82571411132812, 811.4573364257812, -1218.2088623046875, -2330.05126953125, -0.01600000075995922, 0.03200000151991844, 1.0240000486373901, 0.0, 0.0, 0.0, 0.0, 0.0, 1.6024559456281102E9, 2020-10-11 17:39:05.628
10.0, -62.675113677978516, 993.3922119140625, -1076.462890625, -2557.523193359375, -0.01600000075995922, 0.03200000151991844, 1.0080000162124634, 0.0, 0.0, 0.0, 0.0, 0.0, 1.6024559456418347E9, 2020-10-11 17:39:05.641
10.0, 3.8016083240509033, 1073.9122314453125, -1017.6866455078125, -2537.712890625, -0.01600000075995922, 0.03200000151991844, 1.0080000162124634, 0.0, 0.0, 0.0, 0.0, 0.0, 1.6024559456418347E9, 2020-10-11 17:39:05.641
11.0, -203.67308044433594, 1318.39892578125, -1209.6220703125, -2736.9130859375, -0.01600000075995922, 0.03200000151991844, 1.0080000162124634, 0.0, 0.0, 0.0, 0.0, 0.0, 1.6024559456572354E9, 2020-10-11 17:39:05.657
11.0, -106.49178314208984, 1428.2696533203125, -1110.488525390625, -2799.82177734375, -0.01600000075995922, 0.03200000151991844, 1.0080000162124634, 0.0, 0.0, 0.0, 0.0, 0.0, 1.6024559456572354E9, 2020-10-11 17:39:05.657
12.0, 35.332706451416016, 1590.2484130859375, -991.4213256835938, -2736.600830078125, 0.0, 0.03200000151991844, 1.0080000162124634, 0.0, 0.0, 0.0, 0.0, 0.0, 1.602455945657948E9, 2020-10-11 17:39:05.657
12.0, -167.545654296875, 1376.232666015625, -1172.0697021484375, -2879.073974609375, 0.0, 0.03200000151991844, 1.0080000162124634, 0.0, 0.0, 0.0, 0.0, 0.0, 1.602455945657948E9, 2020-10-11 17:39:05.657
13.0, -203.63568115234375, 1327.8458251953125, -1213.8331298828125, -3052.613037109375, 0.0, 0.03200000151991844, 1.0080000162124634, 0.0, 0.0, 0.0, 0.0, 0.0, 1.602455945671742E9, 2020-10-11 17:39:05.671
13.0, 16.756622314453125, 1570.40087890625, -1004.2865600585938, -3199.5498046875, 0.0, 0.03200000151991844, 1.0080000162124634, 0.0, 0.0, 0.0, 0.0, 0.0, 1.602455945671742E9, 2020-10-11 17:39:05.671
14.0, -60.4947509765625, 1487.711669921875, -1076.6947021484375, -3187.5859375, 0.0, 0.03200000151991844, 1.0080000162124634, 0.0, 0.0, 0.0, 0.0, 0.0, 1.6024559456872294E9, 2020-10-11 17:39:05.687
14.0, -213.69601440429688, 1306.756591796875, -1234.742919921875, -3315.095947265625, 0.0, 0.03200000151991844, 1.0080000162124634, 0.0, 0.0, 0.0, 0.0, 0.0, 1.6024559456872294E9, 2020-10-11 17:39:05.687
15.0, -55.15043640136719, 1488.5643310546875, -1066.39501953125, -3532.9189453125, 0.0, 0.03200000151991844, 1.0080000162124634, 0.0, 0.0, 0.0, 0.0, 0.0, 1.6024559456882148E9, 2020-10-11 17:39:05.688
15.0, 12.870865821838379, 1580.648193359375, -999.45458984375, -3507.117431640625, 0.0, 0.03200000151991844, 1.0080000162124634, 0.0, 0.0, 0.0, 0.0, 0.0, 1.6024559456882148E9, 2020-10-11 17:39:05.688
16.0, -211.34735107421875, 1803.843505859375, -1216.125732421875, -3716.153564453125, 0.0, 0.03200000151991844, 1.0080000162124634, 0.0, 0.0, 0.0, 0.0, 0.0, 1.6024559457015352E9, 2020-10-11 17:39:05.701
16.0, -132.0427703857422, 1892.4417724609375, -1142.7862548828125, -3801.296142578125, 0.0, 0.03200000151991844, 1.0080000162124634, 0.0, 0.0, 0.0, 0.0, 0.0, 1.6024559457015352E9, 2020-10-11 17:39:05.701
17.0, 31.966794967651367, 2087.3916015625, -987.10546875, -3709.3076171875, 0.0, 0.03200000151991844, 1.0080000162124634, 0.0, 0.0, 0.0, 0.0, 0.0, 1.6024559457172043E9, 2020-10-11 17:39:05.717
17.0, -139.2607879638672, 1878.3909912109375, -1156.04052734375, -3842.23291015625, 0.0, 0.03200000151991844, 1.0080000162124634, 0.0, 0.0, 0.0, 0.0, 0.0, 1.6024559457172043E9, 2020-10-11 17:39:05.717
18.0, -183.58981323242188, 1839.185546875, -1181.206298828125, -4019.552734375, 0.0, 0.03200000151991844, 1.0080000162124634, 0.0, 0.0, 0.0, 0.0, 0.0, 1.6024559457179558E9, 2020-10-11 17:39:05.717
18.0, 4.826340675354004, 2054.472900390625, -1020.4578857421875, -4192.78515625, 0.0, 0.03200000151991844, 1.0080000162124634, 0.0, 0.0, 0.0, 0.0, 0.0, 1.6024559457179558E9, 2020-10-11 17:39:05.717
19.0, -56.15272903442383, 1987.3865966796875, -1068.5904541015625, -4155.02685546875, 0.0, 0.03200000151991844, 1.0080000162124634, 0.0, 0.0, 0.0, 0.0, 0.0, 1.6024559457319903E9, 2020-10-11 17:39:05.731
19.0, -219.7284698486328, 1785.5927734375, -1237.0391845703125, -4300.806640625, 0.0, 0.03200000151991844, 1.0080000162124634, 0.0, 0.0, 0.0, 0.0, 0.0, 1.6024559457319903E9, 2020-10-11 17:39:05.731
20.0, -63.26227951049805, 1982.206787109375, -1077.4764404296875, -4520.091796875, 0.0, 0.03200000151991844, 1.0080000162124634, 0.0, 0.0, 0.0, 0.0, 0.0, 1.602455945747211E9, 2020-10-11 17:39:05.747
20.0, -2.791835308074951, 2058.478271484375, -1014.6572875976562, -4496.23486328125, 0.0, 0.03200000151991844, 1.0080000162124634, 0.0, 0.0, 0.0, 0.0, 0.0, 1.602455945747211E9, 2020-10-11 17:39:05.747
21.0, -210.3488006591797, 2300.489013671875, -1212.5765380859375, -4696.81884765625, 0.0, 0.03200000151991844, 1.0080000162124634, 0.0, 0.0, 0.0, 0.0, 0.0, 1.602455945747959E9, 2020-10-11 17:39:05.747
21.0, -108.01766204833984, 2403.126953125, -1118.3984375, -4766.3662109375, 0.0, 0.03200000151991844, 1.0080000162124634, 0.0, 0.0, 0.0, 0.0, 0.0, 1.602455945747959E9, 2020-10-11 17:39:05.747
22.0, 41.80647277832031, 2592.855712890625, -968.4059448242188, -4680.1181640625, 0.0, 0.03200000151991844, 1.0080000162124634, 0.0, 0.0, 0.0, 0.0, 0.0, 1.602455945761666E9, 2020-10-11 17:39:05.761
22.0, -162.92686462402344, 2364.01123046875, -1151.8592529296875, -4815.2802734375, 0.0, 0.03200000151991844, 1.0080000162124634, 0.0, 0.0, 0.0, 0.0, 0.0, 1.602455945761666E9, 2020-10-11 17:39:05.761
23.0, -201.7058868408203, 2301.11376953125, -1215.1832275390625, -5021.61767578125, 0.0, 0.03200000151991844, 1.0080000162124634, 0.0, 0.0, 0.0, 0.0, 0.0, 1.6024559457771995E9, 2020-10-11 17:39:05.777
23.0, 4.085840702056885, 2535.59423828125, -1029.3701171875, -5181.36376953125, 0.0, 0.03200000151991844, 1.0080000162124634, 0.0, 0.0, 0.0, 0.0, 0.0, 1.6024559457771995E9, 2020-10-11 17:39:05.777
24.0, -59.68319320678711, 2468.1826171875, -1077.8914794921875, -5143.05615234375, 0.0, 0.03200000151991844, 1.0080000162124634, 0.0, 0.0, 0.0, 0.0, 0.0, 1.6024559457779245E9, 2020-10-11 17:39:05.777
24.0, -228.38259887695312, 2276.01904296875, -1228.803955078125, -5284.38525390625, 0.0, 0.03200000151991844, 1.0080000162124634, 0.0, 0.0, 0.0, 0.0, 0.0, 1.6024559457779245E9, 2020-10-11 17:39:05.777
25.0, -60.16938018798828, 2468.504150390625, -1067.2215576171875, -5495.21826171875, 0.0, 0.03200000151991844, 1.0080000162124634, 0.0, 0.0, 0.0, 0.0, 0.0, 1.602455945791851E9, 2020-10-11 17:39:05.791
25.0, 6.875805854797363, 2555.8232421875, -995.5314331054688, -5468.29833984375, 0.0, 0.03200000151991844, 1.0080000162124634, 0.0, 0.0, 0.0, 0.0, 0.0, 1.602455945791851E9, 2020-10-11 17:39:05.791
26.0, -191.63807678222656, 2311.9443359375, -1199.9581298828125, -5668.34765625, 0.0, 0.03200000151991844, 1.0080000162124634, 0.0, 0.0, 0.0, 0.0, 0.0, 1.602455945807158E9, 2020-10-11 17:39:05.807
26.0, -146.6732635498047, 2378.499755859375, -1135.714111328125, -5769.75146484375, 0.0, 0.03200000151991844, 1.0080000162124634, 0.0, 0.0, 0.0, 0.0, 0.0, 1.602455945807158E9, 2020-10-11 17:39:05.807
27.0, 30.934581756591797, 2574.986572265625, -974.3486328125, -5666.154296875, 0.0, 0.03200000151991844, 1.0080000162124634, 0.0, 0.0, 0.0, 0.0, 0.0, 1.6024559458079197E9, 2020-10-11 17:39:05.807
27.0, -155.02072143554688, 2366.10205078125, -1161.4708251953125, -5806.3759765625, 0.0, 0.03200000151991844, 1.0080000162124634, 0.0, 0.0, 0.0, 0.0, 0.0, 1.6024559458079197E9, 2020-10-11 17:39:05.807
28.0, -197.90615844726562, 2318.066650390625, -1191.8575439453125, -5993.64794921875, 0.0, 0.03200000151991844, 1.0080000162124634, 0.0, 0.0, 0.0, 0.0, 0.0, 1.6024559458215294E9, 2020-10-11 17:39:05.821
28.0, 0.6675721406936646, 2546.776611328125, -996.1185913085938, -6145.68994140625, 0.0, 0.03200000151991844, 1.0080000162124634, 0.0, 0.0, 0.0, 0.0, 0.0, 1.6024559458215294E9, 2020-10-11 17:39:05.821
29.0, -65.98492431640625, 2475.0751953125, -1059.2593994140625, -6112.59521484375, 0.0, 0.03200000151991844, 1.0080000162124634, 0.0, 0.0, 0.0, 0.0, 0.0, 1.6024559458371704E9, 2020-10-11 17:39:05.837
29.0, -237.0255126953125, 2266.265380859375, -1226.8779296875, -6268.55859375, 0.0, 0.03200000151991844, 1.0080000162124634, 0.0, 0.0, 0.0, 0.0, 0.0, 1.6024559458371704E9, 2020-10-11 17:39:05.837
30.0, -67.64543914794922, 2461.532958984375, -1083.3704833984375, -6487.34619140625, 0.0, 0.03200000151991844, 1.0240000486373901, 0.0, 0.0, 0.0, 0.0, 0.0, 1.6024559458381858E9, 2020-10-11 17:39:05.838
30.0, -15.649611473083496, 2530.51904296875, -1017.2266235351562, -6461.92236328125, 0.0, 0.03200000151991844, 1.0240000486373901, 0.0, 0.0, 0.0, 0.0, 0.0, 1.6024559458381858E9, 2020-10-11 17:39:05.838
31.0, -225.9927978515625, 2289.9912109375, -1216.0621337890625, -6670.95849609375, 0.0, 0.03200000151991844, 1.0240000486373901, 0.0, 0.0, 0.0, 0.0, 0.0, 1.6024559458517103E9, 2020-10-11 17:39:05.851
31.0, -146.14219665527344, 2377.568359375, -1144.6787109375, -6755.15869140625, 0.0, 0.03200000151991844, 1.0240000486373901, 0.0, 0.0, 0.0, 0.0, 0.0, 1.6024559458517103E9, 2020-10-11 17:39:05.851
32.0, 24.756267547607422, 2584.564453125, -968.701416015625, -6646.5126953125, 0.0, 0.03200000151991844, 1.0240000486373901, 0.0, 0.0, 0.0, 0.0, 0.0, 1.6024559458836048E9, 2020-10-11 17:39:05.883
32.0, -164.08998107910156, 2360.75390625, -1144.222412109375, -6779.46826171875, 0.0, 0.03200000151991844, 1.0240000486373901, 0.0, 0.0, 0.0, 0.0, 0.0, 1.6024559458836048E9, 2020-10-11 17:39:05.883
33.0, -200.74099731445312, 2319.712158203125, -1178.9698486328125, -6978.37451171875, 0.0, 0.03200000151991844, 1.0240000486373901, 0.0, 0.0, 0.0, 0.0, 0.0, 1.6024559458846083E9, 2020-10-11 17:39:05.884
33.0, -5.578060626983643, 2535.874755859375, -1006.9231567382812, -7141.5126953125, 0.0, 0.03200000151991844, 1.0240000486373901, 0.0, 0.0, 0.0, 0.0, 0.0, 1.6024559458846083E9, 2020-10-11 17:39:05.884
34.0, -80.64159393310547, 2454.520751953125, -1085.7078857421875, -7106.61962890625, 0.0, 0.03200000151991844, 1.0240000486373901, 0.0, 0.0, 0.0, 0.0, 0.0, 1.6024559458855484E9, 2020-10-11 17:39:05.885
34.0, -253.2529296875, 2260.89111328125, -1237.3907470703125, -7259.8115234375, 0.0, 0.03200000151991844, 1.0240000486373901, 0.0, 0.0, 0.0, 0.0, 0.0, 1.6024559458855484E9, 2020-10-11 17:39:05.885
35.0, -76.00037384033203, 2461.114013671875, -1065.5311279296875, -7467.75, 0.0, 0.03200000151991844, 1.0240000486373901, 0.0, 0.0, 0.0, 0.0, 0.0, 1.60245594588633E9, 2020-10-11 17:39:05.886
35.0, 6.988003253936768, 2554.690185546875, -994.4019775390625, -7429.853515625, 0.0, 0.03200000151991844, 1.0240000486373901, 0.0, 0.0, 0.0, 0.0, 0.0, 1.60245594588633E9, 2020-10-11 17:39:05.886
36.0, -216.97964477539062, 2783.768310546875, -1207.6248779296875, -7646.1298828125, 0.0, 0.03200000151991844, 1.0240000486373901, 0.0, 0.0, 0.0, 0.0, 0.0, 1.6024559458965888E9, 2020-10-11 17:39:05.896
36.0, -130.9095916748047, 2875.65771484375, -1124.5206298828125, -7729.61572265625, 0.0, 0.03200000151991844, 1.0240000486373901, 0.0, 0.0, 0.0, 0.0, 0.0, 1.6024559458965888E9, 2020-10-11 17:39:05.896
37.0, 40.7406005859375, 3079.08203125, -962.1491088867188, -7620.251953125, 0.0, 0.03200000151991844, 1.0240000486373901, 0.0, 0.0, 0.0, 0.0, 0.0, 1.6024559459278953E9, 2020-10-11 17:39:05.927
37.0, -144.58639526367188, 2868.61181640625, -1148.8560791015625, -7755.96728515625, 0.0, 0.03200000151991844, 1.0240000486373901, 0.0, 0.0, 0.0, 0.0, 0.0, 1.6024559459278953E9, 2020-10-11 17:39:05.927
38.0, -187.31475830078125, 2819.839599609375, -1171.0711669921875, -7946.51123046875, 0.0, 0.03200000151991844, 1.0240000486373901, 0.0, 0.0, 0.0, 0.0, 0.0, 1.602455945928685E9, 2020-10-11 17:39:05.928
38.0, 10.338953018188477, 3038.3583984375, -990.217041015625, -8108.87548828125, 0.0, 0.03200000151991844, 1.0240000486373901, 0.0, 0.0, 0.0, 0.0, 0.0, 1.602455945928685E9, 2020-10-11 17:39:05.928
39.0, -61.762577056884766, 2959.02001953125, -1059.8165283203125, -8068.75732421875, 0.0, 0.03200000151991844, 1.0240000486373901, 0.0, 0.0, 0.0, 0.0, 0.0, 1.60245594592946E9, 2020-10-11 17:39:05.929
39.0, -231.21743774414062, 2762.813720703125, -1216.2640380859375, -8230.861328125, 0.0, 0.03200000151991844, 1.0240000486373901, 0.0, 0.0, 0.0, 0.0, 0.0, 1.60245594592946E9, 2020-10-11 17:39:05.929
40.0, -49.05439758300781, 2971.660888671875, -1049.9769287109375, -8433.6162109375, 0.0, 0.03200000151991844, 1.0080000162124634, 0.0, 0.0, 0.0, 0.0, 0.0, 1.6024559459415443E9, 2020-10-11 17:39:05.941
40.0, 17.504602432250977, 3050.206298828125, -997.341552734375, -8396.96875, 0.0, 0.03200000151991844, 1.0080000162124634, 0.0, 0.0, 0.0, 0.0, 0.0, 1.6024559459415443E9, 2020-10-11 17:39:05.941
41.0, -202.04248046875, 3284.759765625, -1202.381591796875, -8624.251953125, 0.0, 0.03200000151991844, 1.0080000162124634, 0.0, 0.0, 0.0, 0.0, 0.0, 1.602455945957216E9, 2020-10-11 17:39:05.957
41.0, -116.22673797607422, 3383.485595703125, -1111.064453125, -8690.9755859375, 0.0, 0.03200000151991844, 1.0080000162124634, 0.0, 0.0, 0.0, 0.0, 0.0, 1.602455945957216E9, 2020-10-11 17:39:05.957
42.0, 34.79042053222656, 3555.592041015625, -976.5289916992188, -8605.1396484375, 0.0, 0.03200000151991844, 1.0080000162124634, 0.0, 0.0, 0.0, 0.0, 0.0, 1.6024559459579067E9, 2020-10-11 17:39:05.957
42.0, -148.81622314453125, 3351.374755859375, -1155.01953125, -8754.3115234375, 0.0, 0.03200000151991844, 1.0080000162124634, 0.0, 0.0, 0.0, 0.0, 0.0, 1.6024559459579067E9, 2020-10-11 17:39:05.957
43.0, -178.72047424316406, 3312.726806640625, -1182.20849609375, -8930.1650390625, 0.0, 0.03200000151991844, 1.0080000162124634, 0.0, 0.0, 0.0, 0.0, 0.0, 1.602455945971985E9, 2020-10-11 17:39:05.971
43.0, 1.5950673818588257, 3519.259033203125, -992.2291259765625, -9086.51171875, 0.0, 0.03200000151991844, 1.0080000162124634, 0.0, 0.0, 0.0, 0.0, 0.0, 1.602455945971985E9, 2020-10-11 17:39:05.971
44.0, -53.86764907836914, 3465.32958984375, -1044.4942626953125, -9046.7451171875, 0.0, 0.03200000151991844, 1.0080000162124634, 0.0, 0.0, 0.0, 0.0, 0.0, 1.6024559459872055E9, 2020-10-11 17:39:05.987
44.0, -199.43203735351562, 3292.527587890625, -1185.8175048828125, -9187.580078125, 0.0, 0.03200000151991844, 1.0080000162124634, 0.0, 0.0, 0.0, 0.0, 0.0, 1.6024559459872055E9, 2020-10-11 17:39:05.987
45.0, -53.893829345703125, 3454.629638671875, -1052.8416748046875, -9405.69140625, 0.0, 0.03200000151991844, 1.0080000162124634, 0.0, 0.0, 0.0, 0.0, 0.0, 1.6024559459879208E9, 2020-10-11 17:39:05.987
45.0, 7.074020862579346, 3532.9169921875, -994.136474609375, -9385.05859375, 0.0, 0.03200000151991844, 1.0080000162124634, 0.0, 0.0, 0.0, 0.0, 0.0, 1.6024559459879208E9, 2020-10-11 17:39:05.987
46.0, -215.47621154785156, 3774.19482421875, -1206.7535400390625, -9617.677734375, 0.0, 0.03200000151991844, 1.0080000162124634, 0.0, 0.0, 0.0, 0.0, 0.0, 1.602455946001534E9, 2020-10-11 17:39:06.001
46.0, -126.0140609741211, 3868.455322265625, -1118.7012939453125, -9675.26171875, 0.0, 0.03200000151991844, 1.0080000162124634, 0.0, 0.0, 0.0, 0.0, 0.0, 1.602455946001534E9, 2020-10-11 17:39:06.001
47.0, 34.173336029052734, 4050.143310546875, -965.2532348632812, -9578.4560546875, 0.0, 0.03200000151991844, 1.0080000162124634, 0.0, 0.0, 0.0, 0.0, 0.0, 1.6024559460172424E9, 2020-10-11 17:39:06.017
47.0, -138.56890869140625, 3850.9189453125, -1139.2669677734375, -9724.6015625, 0.0, 0.03200000151991844, 1.0080000162124634, 0.0, 0.0, 0.0, 0.0, 0.0, 1.6024559460172424E9, 2020-10-11 17:39:06.017
48.0, -187.74484252929688, 3795.31396484375, -1184.25048828125, -9913.4033203125, 0.0, 0.03200000151991844, 1.0080000162124634, 0.0, 0.0, 0.0, 0.0, 0.0, 1.6024559460181108E9, 2020-10-11 17:39:06.018
48.0, -12.863386154174805, 3993.3603515625, -1020.1100463867188, -10077.7607421875, 0.0, 0.03200000151991844, 1.0080000162124634, 0.0, 0.0, 0.0, 0.0, 0.0, 1.6024559460181108E9, 2020-10-11 17:39:06.018
49.0, -31.431989669799805, 3971.919677734375, -1046.708251953125, -10027.6611328125, 0.0, 0.03200000151991844, 1.0080000162124634, 0.0, 0.0, 0.0, 0.0, 0.0, 1.6024559460315764E9, 2020-10-11 17:39:06.031
49.0, -212.84706115722656, 3776.483642578125, -1210.8262939453125, -10185.10546875, 0.0, 0.03200000151991844, 1.0080000162124634, 0.0, 0.0, 0.0, 0.0, 0.0, 1.6024559460315764E9, 2020-10-11 17:39:06.031
50.0, -67.76885986328125, 3933.409912109375, -1062.868408203125, -10377.6875, 0.0, 0.03200000151991844, 1.0080000162124634, 0.0, 0.0, 0.0, 0.0, 0.0, 1.6024559460474007E9, 2020-10-11 17:39:06.047
50.0, -2.791835308074951, 4008.10302734375, -1002.8204956054688, -10381.7119140625, 0.0, 0.03200000151991844, 1.0080000162124634, 0.0, 0.0, 0.0, 0.0, 0.0, 1.6024559460474007E9, 2020-10-11 17:39:06.047
51.0, -203.71795654296875, 3784.520751953125, -1192.5531005859375, -10609.185546875, 0.0, 0.03200000151991844, 1.0080000162124634, 0.0, 0.0, 0.0, 0.0, 0.0, 1.6024559460480802E9, 2020-10-11 17:39:06.048
51.0, -118.8110122680664, 3867.52392578125, -1118.1514892578125, -10635.8251953125, 0.0, 0.03200000151991844, 1.0080000162124634, 0.0, 0.0, 0.0, 0.0, 0.0, 1.6024559460480802E9, 2020-10-11 17:39:06.048
52.0, 20.634897232055664, 4032.05712890625, -977.2396240234375, -10562.11328125, 0.0, 0.03200000151991844, 1.0080000162124634, 0.0, 0.0, 0.0, 0.0, 0.0, 1.6024559460615685E9, 2020-10-11 17:39:06.061
52.0, -133.38914489746094, 3860.758544921875, -1146.0587158203125, -10723.3837890625, 0.0, 0.03200000151991844, 1.0080000162124634, 0.0, 0.0, 0.0, 0.0, 0.0, 1.6024559460615685E9, 2020-10-11 17:39:06.061
53.0, -175.01422119140625, 3809.626708984375, -1179.1904296875, -10883.3017578125, 0.0, 0.03200000151991844, 1.0080000162124634, 0.0, 0.0, 0.0, 0.0, 0.0, 1.602455946077186E9, 2020-10-11 17:39:06.077
53.0, -9.35536003112793, 4001.700439453125, -1007.0278930664062, -11038.2607421875, 0.0, 0.03200000151991844, 1.0080000162124634, 0.0, 0.0, 0.0, 0.0, 0.0, 1.602455946077186E9, 2020-10-11 17:39:06.077
54.0, -68.37846374511719, 3938.3017578125, -1064.656005859375, -11043.2666015625, 0.0, 0.03200000151991844, 1.0080000162124634, 0.0, 0.0, 0.0, 0.0, 0.0, 1.6024559460779068E9, 2020-10-11 17:39:06.077
54.0, -218.59902954101562, 3767.17138671875, -1218.519287109375, -11175.58203125, 0.0, 0.03200000151991844, 1.0080000162124634, 0.0, 0.0, 0.0, 0.0, 0.0, 1.6024559460779068E9, 2020-10-11 17:39:06.077
55.0, -72.90373992919922, 3926.03857421875, -1077.0574951171875, -11369.5, 0.0, 0.03200000151991844, 1.0080000162124634, 0.0, 0.0, 0.0, 0.0, 0.0, 1.6024559460918672E9, 2020-10-11 17:39:06.091
55.0, -4.665524959564209, 4009.262451171875, -1010.1282958984375, -11352.89453125, 0.0, 0.03200000151991844, 1.0080000162124634, 0.0, 0.0, 0.0, 0.0, 0.0, 1.6024559460918672E9, 2020-10-11 17:39:06.091
56.0, -196.85150146484375, 3793.49658203125, -1200.3470458984375, -11582.5859375, 0.0, 0.03200000151991844, 1.0080000162124634, 0.0, 0.0, 0.0, 0.0, 0.0, 1.6024559461071928E9, 2020-10-11 17:39:06.107
56.0, -130.88714599609375, 3868.926513671875, -1126.3306884765625, -11626.76953125, 0.0, 0.03200000151991844, 1.0080000162124634, 0.0, 0.0, 0.0, 0.0, 0.0, 1.6024559461071928E9, 2020-10-11 17:39:06.107
57.0, -2.268249273300171, 4014.315185546875, -1010.6555786132812, -11558.0166015625, 0.0, 0.03200000151991844, 1.0080000162124634, 0.0, 0.0, 0.0, 0.0, 0.0, 1.6024559461082416E9, 2020-10-11 17:39:06.108
57.0, -129.52957153320312, 3862.09375, -1147.37890625, -11704.6904296875, 0.0, 0.03200000151991844, 1.0080000162124634, 0.0, 0.0, 0.0, 0.0, 0.0, 1.6024559461082416E9, 2020-10-11 17:39:06.108
58.0, -175.1675567626953, 3811.324462890625, -1185.013427734375, -11864.0283203125, 0.0, 0.03200000151991844, 1.0080000162124634, 0.0, 0.0, 0.0, 0.0, 0.0, 1.602455946121539E9, 2020-10-11 17:39:06.121
58.0, -2.6384994983673096, 3999.176025390625, -1025.3870849609375, -12025.1767578125, 0.0, 0.03200000151991844, 1.0080000162124634, 0.0, 0.0, 0.0, 0.0, 0.0, 1.602455946121539E9, 2020-10-11 17:39:06.121
59.0, -37.82721710205078, 3950.0224609375, -1082.7646484375, -12010.7900390625, 0.0, 0.03200000151991844, 1.0080000162124634, 0.0, 0.0, 0.0, 0.0, 0.0, 1.60245594613719E9, 2020-10-11 17:39:06.137
59.0, -180.23138427734375, 3784.59912109375, -1221.4288330078125, -12139.4931640625, 0.0, 0.03200000151991844, 1.0080000162124634, 0.0, 0.0, 0.0, 0.0, 0.0, 1.60245594613719E9, 2020-10-11 17:39:06.137
60.0, -24.879684448242188, 3963.01123046875, -1062.483154296875, -12325.2763671875, 0.0, 0.03200000151991844, 1.0080000162124634, 0.0, 0.0, 0.0, 0.0, 0.0, 1.6024559461379645E9, 2020-10-11 17:39:06.137
60.0, 20.62367820739746, 4016.30859375, -1028.034912109375, -12329.427734375, 0.0, 0.03200000151991844, 1.0080000162124634, 0.0, 0.0, 0.0, 0.0, 0.0, 1.6024559461379645E9, 2020-10-11 17:39:06.137
61.0, -179.47592163085938, 3793.507568359375, -1219.5439453125, -12552.962890625, 0.0, 0.03200000151991844, 1.0080000162124634, 0.0, 0.0, 0.0, 0.0, 0.0, 1.60245594615159E9, 2020-10-11 17:39:06.151
61.0, -99.04937744140625, 3874.906494140625, -1138.9715576171875, -12604.2333984375, 0.0, 0.03200000151991844, 1.0080000162124634, 0.0, 0.0, 0.0, 0.0, 0.0, 1.60245594615159E9, 2020-10-11 17:39:06.151
62.0, 49.34611129760742, 4044.204345703125, -996.1111450195312, -12514.8779296875, 0.0, 0.03200000151991844, 1.0080000162124634, 0.0, 0.0, 0.0, 0.0, 0.0, 1.6024559461673398E9, 2020-10-11 17:39:06.167
62.0, -110.86746215820312, 3858.72412109375, -1168.3260498046875, -12666.255859375, 0.0, 0.03200000151991844, 1.0080000162124634, 0.0, 0.0, 0.0, 0.0, 0.0, 1.6024559461673398E9, 2020-10-11 17:39:06.167
63.0, -144.32461547851562, 3819.627197265625, -1192.46337890625, -12839.873046875, 0.0, 0.03200000151991844, 1.0080000162124634, 0.0, 0.0, 0.0, 0.0, 0.0, 1.6024559461679313E9, 2020-10-11 17:39:06.167
63.0, 30.42969512939453, 4021.177734375, -1015.3753662109375, -12990.6396484375, 0.0, 0.03200000151991844, 1.0080000162124634, 0.0, 0.0, 0.0, 0.0, 0.0, 1.6024559461679313E9, 2020-10-11 17:39:06.167
64.0, -51.313297271728516, 3933.9072265625, -1099.48193359375, -12990.2919921875, 0.0, 0.03200000151991844, 1.0080000162124634, 0.0, 0.0, 0.0, 0.0, 0.0, 1.602455946181505E9, 2020-10-11 17:39:06.181
64.0, -202.02005004882812, 3760.47314453125, -1244.45166015625, -13137.1181640625, 0.0, 0.03200000151991844, 1.0080000162124634, 0.0, 0.0, 0.0, 0.0, 0.0, 1.602455946181505E9, 2020-10-11 17:39:06.181
65.0, -40.101078033447266, 3941.562744140625, -1077.6634521484375, -13328.544921875, 0.0, 0.03200000151991844, 1.0080000162124634, 0.0, 0.0, 0.0, 0.0, 0.0, 1.6024559461976776E9, 2020-10-11 17:39:06.197
65.0, 19.93179702758789, 4010.0927734375, -1029.6243896484375, -13311.0576171875, 0.0, 0.03200000151991844, 1.0080000162124634, 0.0, 0.0, 0.0, 0.0, 0.0, 1.6024559461976776E9, 2020-10-11 17:39:06.197
66.0, -184.60707092285156, 3780.93408203125, -1227.65576171875, -13543.9052734375, 0.0, 0.03200000151991844, 1.0080000162124634, 0.0, 0.0, 0.0, 0.0, 0.0, 1.60245594619852E9, 2020-10-11 17:39:06.198
66.0, -98.18546295166016, 3867.2060546875, -1144.5328369140625, -13589.8388671875, 0.0, 0.03200000151991844, 1.0080000162124634, 0.0, 0.0, 0.0, 0.0, 0.0, 1.60245594619852E9, 2020-10-11 17:39:06.198
67.0, 53.96114730834961, 4040.72265625, -1005.7825317382812, -13496.7060546875, 0.0, 0.03200000151991844, 1.0080000162124634, 0.0, 0.0, 0.0, 0.0, 0.0, 1.602455946211517E9, 2020-10-11 17:39:06.211
67.0, -105.60542297363281, 3873.0029296875, -1149.974365234375, -13642.8935546875, 0.0, 0.03200000151991844, 1.0080000162124634, 0.0, 0.0, 0.0, 0.0, 0.0, 1.602455946211517E9, 2020-10-11 17:39:06.211
68.0, -180.7587127685547, 3790.953369140625, -1208.8067626953125, -13841.78515625, 0.0, 0.03200000151991844, 1.0080000162124634, 0.0, 0.0, 0.0, 0.0, 0.0, 1.6024559462277403E9, 2020-10-11 17:39:06.227
68.0, 2.90029239654541, 3991.456787109375, -1041.5284423828125, -13988.3662109375, 0.0, 0.03200000151991844, 1.0080000162124634, 0.0, 0.0, 0.0, 0.0, 0.0, 1.6024559462277403E9, 2020-10-11 17:39:06.227
69.0, -41.29784393310547, 3950.037353515625, -1083.80810546875, -13961.2373046875, 0.0, 0.03200000151991844, 1.0080000162124634, 0.0, 0.0, 0.0, 0.0, 0.0, 1.6024559462280428E9, 2020-10-11 17:39:06.228
69.0, -204.57066345214844, 3765.682861328125, -1235.5806884765625, -14115.5810546875, 0.0, 0.03200000151991844, 1.0080000162124634, 0.0, 0.0, 0.0, 0.0, 0.0, 1.6024559462280428E9, 2020-10-11 17:39:06.228
70.0, -40.70320129394531, 3936.128662109375, -1087.6788330078125, -14308.185546875, 0.0, 0.03200000151991844, 1.0080000162124634, 0.0, 0.0, 0.0, 0.0, 0.0, 1.602455946241588E9, 2020-10-11 17:39:06.241
70.0, 15.926363945007324, 4015.178955078125, -1021.1011352539062, -14286.7490234375, 0.0, 0.03200000151991844, 1.0080000162124634, 0.0, 0.0, 0.0, 0.0, 0.0, 1.602455946241588E9, 2020-10-11 17:39:06.241
71.0, -205.0269317626953, 3770.35400390625, -1232.7869873046875, -14530.5400390625, 0.0, 0.03200000151991844, 1.0080000162124634, 0.0, 0.0, 0.0, 0.0, 0.0, 1.6024559462577093E9, 2020-10-11 17:39:06.257
71.0, -127.83538818359375, 3850.017578125, -1161.534423828125, -14592.431640625, 0.0, 0.03200000151991844, 1.0080000162124634, 0.0, 0.0, 0.0, 0.0, 0.0, 1.6024559462577093E9, 2020-10-11 17:39:06.257
72.0, 15.39529800415039, 4018.806640625, -1018.6029052734375, -14496.1494140625, -0.01600000075995922, 0.03200000151991844, 1.0080000162124634, 0.0, 0.0, 0.0, 0.0, 0.0, 1.6024559462585552E9, 2020-10-11 17:39:06.258
72.0, -144.92298889160156, 3834.829833984375, -1176.8492431640625, -14647.5126953125, -0.01600000075995922, 0.03200000151991844, 1.0080000162124634, 0.0, 0.0, 0.0, 0.0, 0.0, 1.6024559462585552E9, 2020-10-11 17:39:06.258
73.0, -166.15440368652344, 3805.610107421875, -1201.240966796875, -14815.228515625, -0.01600000075995922, 0.03200000151991844, 1.0080000162124634, 0.0, 0.0, 0.0, 0.0, 0.0, 1.6024559462716627E9, 2020-10-11 17:39:06.271
73.0, 31.054258346557617, 4018.458984375, -1026.4229736328125, -14958.9755859375, -0.01600000075995922, 0.03200000151991844, 1.0080000162124634, 0.0, 0.0, 0.0, 0.0, 0.0, 1.6024559462716627E9, 2020-10-11 17:39:06.271
74.0, -33.746986389160156, 3955.628662109375, -1091.8226318359375, -14935.9560546875, -0.01600000075995922, 0.03200000151991844, 1.0080000162124634, 0.0, 0.0, 0.0, 0.0, 0.0, 1.6024559462876682E9, 2020-10-11 17:39:06.287
74.0, -202.73435974121094, 3765.47705078125, -1241.714111328125, -15102.279296875, -0.01600000075995922, 0.03200000151991844, 1.0080000162124634, 0.0, 0.0, 0.0, 0.0, 0.0, 1.6024559462876682E9, 2020-10-11 17:39:06.287
75.0, -45.65108871459961, 3944.52490234375, -1081.5267333984375, -15287.1494140625, -0.01600000075995922, 0.03200000151991844, 1.0080000162124634, 0.0, 0.0, 0.0, 0.0, 0.0, 1.6024559462885284E9, 2020-10-11 17:39:06.288
75.0, 37.54298400878906, 4040.438232421875, -1008.7819213867188, -15253.3408203125, -0.01600000075995922, 0.03200000151991844, 1.0080000162124634, 0.0, 0.0, 0.0, 0.0, 0.0, 1.6024559462885284E9, 2020-10-11 17:39:06.288
76.0, -176.33815002441406, 4282.84912109375, -1216.4959716796875, -15492.625, -0.01600000075995922, 0.03200000151991844, 1.0080000162124634, 0.0, 0.0, 0.0, 0.0, 0.0, 1.6024559463017561E9, 2020-10-11 17:39:06.301
76.0, -106.30852508544922, 4360.13427734375, -1146.3653564453125, -15559.7119140625, -0.01600000075995922, 0.03200000151991844, 1.0080000162124634, 0.0, 0.0, 0.0, 0.0, 0.0, 1.6024559463017561E9, 2020-10-11 17:39:06.301
77.0, 64.18229675292969, 4551.93115234375, -991.8401489257812, -15445.470703125, -0.01600000075995922, 0.03200000151991844, 1.0080000162124634, 0.0, 0.0, 0.0, 0.0, 0.0, 1.6024559463173094E9, 2020-10-11 17:39:06.317
77.0, -94.61759948730469, 4375.6435546875, -1142.591796875, -15594.720703125, -0.01600000075995922, 0.03200000151991844, 1.0080000162124634, 0.0, 0.0, 0.0, 0.0, 0.0, 1.6024559463173094E9, 2020-10-11 17:39:06.317
78.0, -131.42942810058594, 4330.32373046875, -1182.4217529296875, -15773.73828125, -0.01600000075995922, 0.03200000151991844, 1.0080000162124634, 0.0, 0.0, 0.0, 0.0, 0.0, 1.6024559463181336E9, 2020-10-11 17:39:06.318
78.0, 28.245594024658203, 4514.513671875, -1016.44873046875, -15936.7646484375, -0.01600000075995922, 0.03200000151991844, 1.0080000162124634, 0.0, 0.0, 0.0, 0.0, 0.0, 1.6024559463181336E9, 2020-10-11 17:39:06.318
79.0, -46.8328971862793, 4438.71728515625, -1086.160400390625, -15917.818359375, -0.01600000075995922, 0.03200000151991844, 1.0080000162124634, 0.0, 0.0, 0.0, 0.0, 0.0, 1.6024559463318737E9, 2020-10-11 17:39:06.331
79.0, -176.6522979736328, 4280.92333984375, -1224.5965576171875, -16064.0244140625, -0.01600000075995922, 0.03200000151991844, 1.0080000162124634, 0.0, 0.0, 0.0, 0.0, 0.0, 1.6024559463318737E9, 2020-10-11 17:39:06.331
80.0, -25.362131118774414, 4454.4248046875, -1071.6944580078125, -16252.373046875, -0.01600000075995922, 0.03200000151991844, 1.0080000162124634, 0.0, 0.0, 0.0, 0.0, 0.0, 1.6024559463472335E9, 2020-10-11 17:39:06.347
80.0, 10.813920974731445, 4506.37548828125, -1028.4837646484375, -16238.494140625, -0.01600000075995922, 0.03200000151991844, 1.0080000162124634, 0.0, 0.0, 0.0, 0.0, 0.0, 1.6024559463472335E9, 2020-10-11 17:39:06.347
81.0, -191.77272033691406, 4274.6103515625, -1230.647705078125, -16479.080078125, -0.01600000075995922, 0.03200000151991844, 1.0080000162124634, 0.0, 0.0, 0.0, 0.0, 0.0, 1.602455946348042E9, 2020-10-11 17:39:06.348
81.0, -104.7564697265625, 4366.92236328125, -1135.691650390625, -16525.166015625, -0.01600000075995922, 0.03200000151991844, 1.0080000162124634, 0.0, 0.0, 0.0, 0.0, 0.0, 1.602455946348042E9, 2020-10-11 17:39:06.348
82.0, 57.81698226928711, 4551.12353515625, -978.855224609375, -16416.12109375, 0.0, 0.03200000151991844, 1.0080000162124634, 0.0, 0.0, 0.0, 0.0, 0.0, 1.6024559463615432E9, 2020-10-11 17:39:06.361
82.0, -134.37648010253906, 4336.3037109375, -1178.6929931640625, -16594.421875, 0.0, 0.03200000151991844, 1.0080000162124634, 0.0, 0.0, 0.0, 0.0, 0.0, 1.6024559463615432E9, 2020-10-11 17:39:06.361
83.0, -136.69522094726562, 4327.00244140625, -1178.6070556640625, -16756.505859375, 0.0, 0.03200000151991844, 1.0080000162124634, 0.0, 0.0, 0.0, 0.0, 0.0, 1.6024559463772798E9, 2020-10-11 17:39:06.377
83.0, 7.87809944152832, 4493.21484375, -1032.743408203125, -16928.58984375, 0.0, 0.03200000151991844, 1.0080000162124634, 0.0, 0.0, 0.0, 0.0, 0.0, 1.6024559463772798E9, 2020-10-11 17:39:06.377
84.0, -47.85763168334961, 4435.37744140625, -1084.1109619140625, -16892.263671875, 0.0, 0.03200000151991844, 1.0080000162124634, 0.0, 0.0, 0.0, 0.0, 0.0, 1.6024559463780448E9, 2020-10-11 17:39:06.378
84.0, -205.46075439453125, 4253.1767578125, -1241.725341796875, -17065.80859375, 0.0, 0.03200000151991844, 1.0080000162124634, 0.0, 0.0, 0.0, 0.0, 0.0, 1.6024559463780448E9, 2020-10-11 17:39:06.378
85.0, -56.848350524902344, 4423.03173828125, -1086.7999267578125, -17255.990234375, 0.0, 0.03200000151991844, 1.0080000162124634, 0.0, 0.0, 0.0, 0.0, 0.0, 1.602455946391735E9, 2020-10-11 17:39:06.391
85.0, 5.0021162033081055, 4487.43310546875, -1038.0279541015625, -17224.990234375, 0.0, 0.03200000151991844, 1.0080000162124634, 0.0, 0.0, 0.0, 0.0, 0.0, 1.602455946391735E9, 2020-10-11 17:39:06.391
86.0, -198.9047088623047, 4268.86962890625, -1225.2435302734375, -17469.630859375, 0.0, 0.03200000151991844, 1.0080000162124634, 0.0, 0.0, 0.0, 0.0, 0.0, 1.6024559464072523E9, 2020-10-11 17:39:06.407
86.0, -113.62377166748047, 4357.0751953125, -1146.241943359375, -17525.912109375, 0.0, 0.03200000151991844, 1.0080000162124634, 0.0, 0.0, 0.0, 0.0, 0.0, 1.6024559464072523E9, 2020-10-11 17:39:06.407
87.0, 28.892597198486328, 4517.0869140625, -1012.3497924804688, -17421.880859375, 0.0, 0.03200000151991844, 1.0080000162124634, 0.0, 0.0, 0.0, 0.0, 0.0, 1.6024559464080064E9, 2020-10-11 17:39:06.408
87.0, -155.60789489746094, 4312.68994140625, -1203.8663330078125, -17593.8515625, 0.0, 0.03200000151991844, 1.0080000162124634, 0.0, 0.0, 0.0, 0.0, 0.0, 1.6024559464080064E9, 2020-10-11 17:39:06.408
88.0, -186.73133850097656, 4274.33349609375, -1220.138671875, -17776.34375, 0.0, 0.03200000151991844, 1.0080000162124634, 0.0, 0.0, 0.0, 0.0, 0.0, 1.6024559464380012E9, 2020-10-11 17:39:06.438
88.0, -13.364532470703125, 4476.796875, -1040.53369140625, -17915.220703125, 0.0, 0.03200000151991844, 1.0080000162124634, 0.0, 0.0, 0.0, 0.0, 0.0, 1.6024559464380012E9, 2020-10-11 17:39:06.438
89.0, -47.31160354614258, 4433.328125, -1078.44873046875, -17874.078125, 0.0, 0.03200000151991844, 1.0080000162124634, 0.0, 0.0, 0.0, 0.0, 0.0, 1.6024559464388258E9, 2020-10-11 17:39:06.438
89.0, -199.43951416015625, 4263.9140625, -1224.67138671875, -18047.501953125, 0.0, 0.03200000151991844, 1.0080000162124634, 0.0, 0.0, 0.0, 0.0, 0.0, 1.6024559464388258E9, 2020-10-11 17:39:06.438
90.0, -43.46324920654297, 4435.83740234375, -1073.5718994140625, -18231.240234375, 0.0, 0.03200000151991844, 1.0080000162124634, 0.0, 0.0, 0.0, 0.0, 0.0, 1.6024559464394104E9, 2020-10-11 17:39:06.439
90.0, 1.348233938217163, 4492.21630859375, -1026.1761474609375, -18196.888671875, 0.0, 0.03200000151991844, 1.0080000162124634, 0.0, 0.0, 0.0, 0.0, 0.0, 1.6024559464394104E9, 2020-10-11 17:39:06.439
91.0, -189.21463012695312, 4275.10791015625, -1218.16015625, -17964.40234375, 0.0, 0.03200000151991844, 1.0080000162124634, 0.0, 0.0, 0.0, 0.0, 0.0, 1.6024559464515312E9, 2020-10-11 17:39:06.451
91.0, -127.60725402832031, 4346.1171875, -1152.0537109375, -18025.97265625, 0.0, 0.03200000151991844, 1.0080000162124634, 0.0, 0.0, 0.0, 0.0, 0.0, 1.6024559464515312E9, 2020-10-11 17:39:06.451
92.0, 14.25088882446289, 4509.1767578125, -1014.9041137695312, -17905.267578125, 0.0, 0.03200000151991844, 1.0080000162124634, 0.0, 0.0, 0.0, 0.0, 0.0, 1.602455946467502E9, 2020-10-11 17:39:06.467
92.0, -128.3215789794922, 4347.68408203125, -1159.163330078125, -18070.6328125, 0.0, 0.03200000151991844, 1.0080000162124634, 0.0, 0.0, 0.0, 0.0, 0.0, 1.602455946467502E9, 2020-10-11 17:39:06.467
93.0, -151.32943725585938, 4314.82177734375, -1180.353515625, -18254.404296875, 0.0, 0.03200000151991844, 1.0080000162124634, 0.0, 0.0, 0.0, 0.0, 0.0, 1.6024559464682264E9, 2020-10-11 17:39:06.468
93.0, -10.484809875488281, 4477.30517578125, -1040.5037841796875, -18398.9296875, 0.0, 0.03200000151991844, 1.0080000162124634, 0.0, 0.0, 0.0, 0.0, 0.0, 1.6024559464682264E9, 2020-10-11 17:39:06.468
94.0, -83.12862396240234, 4402.9150390625, -1113.1363525390625, -18390.794921875, 0.0, 0.03200000151991844, 1.0080000162124634, 0.0, 0.0, 0.0, 0.0, 0.0, 1.602455946481587E9, 2020-10-11 17:39:06.481
94.0, -195.67343139648438, 4264.9501953125, -1225.8306884765625, -18550.591796875, 0.0, 0.03200000151991844, 1.0080000162124634, 0.0, 0.0, 0.0, 0.0, 0.0, 1.602455946481587E9, 2020-10-11 17:39:06.481
95.0, -53.729270935058594, 4429.4755859375, -1078.7554931640625, -18717.814453125, 0.0, 0.03200000151991844, 1.0080000162124634, 0.0, 0.0, 0.0, 0.0, 0.0, 1.602455946497225E9, 2020-10-11 17:39:06.497
95.0, -5.649118900299072, 4489.5458984375, -1032.1787109375, -18683.87109375, 0.0, 0.03200000151991844, 1.0080000162124634, 0.0, 0.0, 0.0, 0.0, 0.0, 1.602455946497225E9, 2020-10-11 17:39:06.497
96.0, -194.18869018554688, 4275.53759765625, -1211.6378173828125, -18474.84765625, 0.0, 0.03200000151991844, 1.0080000162124634, 0.0, 0.0, 0.0, 0.0, 0.0, 1.602455946498046E9, 2020-10-11 17:39:06.498
96.0, -126.96399688720703, 4345.35400390625, -1141.0771484375, -18517.052734375, 0.0, 0.03200000151991844, 1.0080000162124634, 0.0, 0.0, 0.0, 0.0, 0.0, 1.602455946498046E9, 2020-10-11 17:39:06.498
97.0, -7.361992835998535, 4488.513671875, -1026.1761474609375, -18390.349609375, 0.0, 0.03200000151991844, 1.0080000162124634, 0.0, 0.0, 0.0, 0.0, 0.0, 1.6024559465116994E9, 2020-10-11 17:39:06.511
97.0, -136.15292358398438, 4338.3271484375, -1166.0858154296875, -18591.423828125, 0.0, 0.03200000151991844, 1.0080000162124634, 0.0, 0.0, 0.0, 0.0, 0.0, 1.6024559465116994E9, 2020-10-11 17:39:06.511
98.0, -173.75387573242188, 4298.830078125, -1189.250732421875, -18771.3515625, 0.0, 0.03200000151991844, 1.0080000162124634, 0.0, 0.0, 0.0, 0.0, 0.0, 1.6024559465436049E9, 2020-10-11 17:39:06.543
98.0, -25.122777938842773, 4456.08154296875, -1056.8433837890625, -18871.53515625, 0.0, 0.03200000151991844, 1.0080000162124634, 0.0, 0.0, 0.0, 0.0, 0.0, 1.6024559465436049E9, 2020-10-11 17:39:06.543
99.0, -87.0966567993164, 4396.6767578125, -1112.661376953125, -18884.181640625, 0.0, 0.03200000151991844, 1.0080000162124634, 0.0, 0.0, 0.0, 0.0, 0.0, 1.602455946544294E9, 2020-10-11 17:39:06.544
99.0, -187.28109741210938, 4272.123046875, -1216.125732421875, -19064.244140625, 0.0, 0.03200000151991844, 1.0080000162124634, 0.0, 0.0, 0.0, 0.0, 0.0, 1.602455946544294E9, 2020-10-11 17:39:06.544
100.0, -52.741939544677734, 4423.798828125, -1077.603515625, -19190.103515625, 0.0, 0.03200000151991844, 1.0080000162124634, 0.0, 0.0, 0.0, 0.0, 0.0, 1.6024559465451045E9, 2020-10-11 17:39:06.545
100.0, 13.686163902282715, 4498.51416015625, -1017.4210815429688, -19145.384765625, 0.0, 0.03200000151991844, 1.0080000162124634, 0.0, 0.0, 0.0, 0.0, 0.0, 1.6024559465451045E9, 2020-10-11 17:39:06.545
0.0, -186.7462921142578, -134.93185424804688, -1211.65087890625, 113.72661590576172, 0.0, 0.03200000151991844, 1.0080000162124634, 0.0, 0.0, 0.0, 0.0, 0.0, 1.6024559465458343E9, 2020-10-11 17:39:06.545
1.0, -116.91114044189453, -56.910057067871094, -1145.5406494140625, 113.53214263916016, 0.0, 0.03200000151991844, 1.0080000162124634, 0.0, 0.0, 0.0, 0.0, 0.0, 1.60245594655651E9, 2020-10-11 17:39:06.556
1.0, 1.3145748376846313, 71.4059066772461, -1027.7899169921875, 275.5577087402344, 0.0, 0.03200000151991844, 1.0080000162124634, 0.0, 0.0, 0.0, 0.0, 0.0, 1.60245594655651E9, 2020-10-11 17:39:06.556
2.0, -135.58071899414062, -79.58506774902344, -1160.2347412109375, 503.811279296875, 0.0, 0.03200000151991844, 1.0080000162124634, 0.0, 0.0, 0.0, 0.0, 0.0, 1.6024559465724623E9, 2020-10-11 17:39:06.572
2.0, -155.4545440673828, -102.8023681640625, -1185.1387939453125, 333.68695068359375, 0.0, 0.03200000151991844, 1.0080000162124634, 0.0, 0.0, 0.0, 0.0, 0.0, 1.6024559465724623E9, 2020-10-11 17:39:06.572
3.0, 0.6713120341300964, 68.66456604003906, -1035.2996826171875, 299.2462158203125, 0.0, 0.03200000151991844, 1.0080000162124634, 0.0, 0.0, 0.0, 0.0, 0.0, 1.6024559465733817E9, 2020-10-11 17:39:06.573
3.0, -49.114234924316406, 19.83268928527832, -1074.097412109375, 267.1971435546875, 0.0, 0.03200000151991844, 1.0080000162124634, 0.0, 0.0, 0.0, 0.0, 0.0, 1.6024559465733817E9, 2020-10-11 17:39:06.573
4.0, -153.09092712402344, -104.1823959350586, -1174.4464111328125, 508.817138671875, 0.0, 0.03200000151991844, 1.0080000162124634, 0.0, 0.0, 0.0, 0.0, 0.0, 1.602455946586758E9, 2020-10-11 17:39:06.586
4.0, -60.40873336791992, 4.521539211273193, -1090.6800537109375, 430.8065490722656, 0.0, 0.03200000151991844, 1.0080000162124634, 0.0, 0.0, 0.0, 0.0, 0.0, 1.602455946586758E9, 2020-10-11 17:39:06.586
5.0, -45.88670349121094, 39.09317398071289, -1065.0281982421875, 490.0690002441406, 0.0, 0.03200000151991844, 1.0080000162124634, 0.0, 0.0, 0.0, 0.0, 0.0, 1.60245594660225E9, 2020-10-11 17:39:06.602
5.0, -180.26878356933594, -124.6583480834961, -1189.9857177734375, 537.962158203125, 0.0, 0.03200000151991844, 1.0080000162124634, 0.0, 0.0, 0.0, 0.0, 0.0, 1.60245594660225E9, 2020-10-11 17:39:06.602
6.0, -88.36074829101562, -23.482831954956055, -1106.600830078125, 604.9718017578125, 0.0, 0.03200000151991844, 1.0080000162124634, 0.0, 0.0, 0.0, 0.0, 0.0, 1.6024559466033635E9, 2020-10-11 17:39:06.603
6.0, -5.204070568084717, 78.2125244140625, -1038.5421142578125, 377.7355041503906, 0.0, 0.03200000151991844, 1.0080000162124634, 0.0, 0.0, 0.0, 0.0, 0.0, 1.6024559466033635E9, 2020-10-11 17:39:06.603
7.0, -117.50578308105469, -55.0139274597168, -1141.669921875, 482.4452209472656, 0.0, 0.03200000151991844, 1.0080000162124634, 0.0, 0.0, 0.0, 0.0, 0.0, 1.6024559466166108E9, 2020-10-11 17:39:06.616
7.0, -166.25538635253906, -109.68004608154297, -1183.8858642578125, 246.046142578125, 0.0, 0.03200000151991844, 1.0080000162124634, 0.0, 0.0, 0.0, 0.0, 0.0, 1.6024559466166108E9, 2020-10-11 17:39:06.616
8.0, -27.119884490966797, 52.672752380371094, -1049.1710205078125, 372.0078430175781, 0.0, 0.03200000151991844, 1.0080000162124634, 0.0, 0.0, 0.0, 0.0, 0.0, 1.6024559466323698E9, 2020-10-11 17:39:06.632
8.0, -86.66283416748047, -14.226579666137695, -1103.3284912109375, 273.874755859375, 0.0, 0.03200000151991844, 1.0080000162124634, 0.0, 0.0, 0.0, 0.0, 0.0, 1.6024559466323698E9, 2020-10-11 17:39:06.632
9.0, -173.4285125732422, -120.82868957519531, -1179.9888916015625, 396.3976135253906, 0.0, 0.03200000151991844, 1.0080000162124634, 0.0, 0.0, 0.0, 0.0, 0.0, 1.6024559466334176E9, 2020-10-11 17:39:06.633
9.0, -57.989017486572266, 17.682247161865234, -1074.837890625, 474.039794921875, 0.0, 0.03200000151991844, 1.0080000162124634, 0.0, 0.0, 0.0, 0.0, 0.0, 1.6024559466334176E9, 2020-10-11 17:39:06.633
10.0, -53.560977935791016, 33.68901824951172, -1074.2208251953125, 563.2513427734375, 0.0, 0.03200000151991844, 1.0240000486373901, 0.0, 0.0, 0.0, 0.0, 0.0, 1.602455946646552E9, 2020-10-11 17:39:06.646
10.0, -182.83810424804688, -128.26361083984375, -1201.392333984375, 439.8739318847656, 0.0, 0.03200000151991844, 1.0240000486373901, 0.0, 0.0, 0.0, 0.0, 0.0, 1.602455946646552E9, 2020-10-11 17:39:06.646
11.0, -109.70809173583984, -47.0853385925293, -1127.01318359375, 580.181884765625, 0.0, 0.03200000151991844, 1.0240000486373901, 0.0, 0.0, 0.0, 0.0, 0.0, 1.6024559466623075E9, 2020-10-11 17:39:06.662
11.0, -28.825279235839844, 55.32807922363281, -1051.4971923828125, 445.5866394042969, 0.0, 0.03200000151991844, 1.0240000486373901, 0.0, 0.0, 0.0, 0.0, 0.0, 1.6024559466623075E9, 2020-10-11 17:39:06.662
12.0, -150.22242736816406, -91.19371795654297, -1166.95166015625, 407.87908935546875, 0.0, 0.03200000151991844, 1.0240000486373901, 0.0, 0.0, 0.0, 0.0, 0.0, 1.60245594666329E9, 2020-10-11 17:39:06.663
12.0, -143.5467071533203, -91.0777816772461, -1162.17578125, 221.89013671875, 0.0, 0.03200000151991844, 1.0240000486373901, 0.0, 0.0, 0.0, 0.0, 0.0, 1.60245594666329E9, 2020-10-11 17:39:06.663
13.0, -42.92844009399414, 34.18268585205078, -1069.9012451171875, 414.3622131347656, 0.0, 0.03200000151991844, 1.0240000486373901, 0.0, 0.0, 0.0, 0.0, 0.0, 1.6024559466765764E9, 2020-10-11 17:39:06.676
13.0, -102.7892837524414, -34.20512390136719, -1126.4410400390625, 266.903564453125, 0.0, 0.03200000151991844, 1.0240000486373901, 0.0, 0.0, 0.0, 0.0, 0.0, 1.6024559466765764E9, 2020-10-11 17:39:06.676
14.0, -171.61465454101562, -119.09337615966797, -1180.4114990234375, 345.35919189453125, 0.0, 0.03200000151991844, 1.0240000486373901, 0.0, 0.0, 0.0, 0.0, 0.0, 1.6024559466922293E9, 2020-10-11 17:39:06.692
14.0, -74.67645263671875, 0.08601769804954529, -1084.404541015625, 489.82965087890625, 0.0, 0.03200000151991844, 1.0240000486373901, 0.0, 0.0, 0.0, 0.0, 0.0, 1.6024559466922293E9, 2020-10-11 17:39:06.692
15.0, -47.59957504272461, 27.6827392578125, -1061.856689453125, 597.153564453125, 0.0, 0.03200000151991844, 1.0240000486373901, 0.0, 0.0, 0.0, 0.0, 0.0, 1.6024559466932244E9, 2020-10-11 17:39:06.693
15.0, -157.358154296875, -106.58341217041016, -1165.69873046875, 421.6269836425781, 0.0, 0.03200000151991844, 1.0240000486373901, 0.0, 0.0, 0.0, 0.0, 0.0, 1.6024559466932244E9, 2020-10-11 17:39:06.693
16.0, -113.45921325683594, -49.52375411987305, -1122.6002197265625, 583.18505859375, 0.0, 0.03200000151991844, 1.0240000486373901, 0.0, 0.0, 0.0, 0.0, 0.0, 1.6024559467070107E9, 2020-10-11 17:39:06.707
16.0, -33.133644104003906, 50.888816833496094, -1048.6922607421875, 484.9677734375, 0.0, 0.03200000151991844, 1.0240000486373901, 0.0, 0.0, 0.0, 0.0, 0.0, 1.6024559467070107E9, 2020-10-11 17:39:06.707
17.0, -136.0332489013672, -72.59893798828125, -1153.876953125, 395.286865234375, 0.0, 0.03200000151991844, 1.0240000486373901, 0.0, 0.0, 0.0, 0.0, 0.0, 1.6024559467222211E9, 2020-10-11 17:39:06.722
17.0, -126.11129760742188, -70.32134246826172, -1140.84716796875, 221.06735229492188, 0.0, 0.03200000151991844, 1.0240000486373901, 0.0, 0.0, 0.0, 0.0, 0.0, 1.6024559467222211E9, 2020-10-11 17:39:06.722
18.0, -43.8222770690918, 39.57188034057617, -1060.529052734375, 459.58135986328125, 0.0, 0.03200000151991844, 1.0240000486373901, 0.0, 0.0, 0.0, 0.0, 0.0, 1.6024559467230306E9, 2020-10-11 17:39:06.723
18.0, -94.84199523925781, -17.53639030456543, -1111.14111328125, 275.4193115234375, 0.0, 0.03200000151991844, 1.0240000486373901, 0.0, 0.0, 0.0, 0.0, 0.0, 1.6024559467230306E9, 2020-10-11 17:39:06.723
19.0, -167.97573852539062, -111.78560638427734, -1179.9290771484375, 318.64508056640625, 0.0, 0.03200000151991844, 1.0240000486373901, 0.0, 0.0, 0.0, 0.0, 0.0, 1.6024559467370052E9, 2020-10-11 17:39:06.737
19.0, -59.896366119384766, 16.283523559570312, -1086.8280029296875, 519.2476806640625, 0.0, 0.03200000151991844, 1.0240000486373901, 0.0, 0.0, 0.0, 0.0, 0.0, 1.6024559467370052E9, 2020-10-11 17:39:06.737
20.0, -38.25356674194336, 39.16423416137695, -1062.054931640625, 627.1699829101562, 0.0, 0.03200000151991844, 1.0240000486373901, 0.0, 0.0, 0.0, 0.0, 0.0, 1.6024559467522268E9, 2020-10-11 17:39:06.752
20.0, -157.50027465820312, -100.07598114013672, -1167.516357421875, 393.7796630859375, 0.0, 0.03200000151991844, 1.0240000486373901, 0.0, 0.0, 0.0, 0.0, 0.0, 1.6024559467522268E9, 2020-10-11 17:39:06.752
21.0, -103.3727035522461, -35.53279113769531, -1118.3292236328125, 590.990234375, 0.0, 0.03200000151991844, 1.0240000486373901, 0.0, 0.0, 0.0, 0.0, 0.0, 1.6024559467529824E9, 2020-10-11 17:39:06.752
21.0, -24.479515075683594, 62.695682525634766, -1042.6597900390625, 521.787109375, 0.0, 0.03200000151991844, 1.0240000486373901, 0.0, 0.0, 0.0, 0.0, 0.0, 1.6024559467529824E9, 2020-10-11 17:39:06.752
22.0, -133.9688262939453, -66.21866607666016, -1144.35888671875, 388.7008972167969, 0.0, 0.03200000151991844, 1.0240000486373901, 0.0, 0.0, 0.0, 0.0, 0.0, 1.602455946766822E9, 2020-10-11 17:39:06.766
22.0, -134.20443725585938, -75.96485137939453, -1149.58349609375, 197.65184020996094, 0.0, 0.03200000151991844, 1.0240000486373901, 0.0, 0.0, 0.0, 0.0, 0.0, 1.602455946766822E9, 2020-10-11 17:39:06.766
23.0, -33.126163482666016, 44.92367935180664, -1056.17578125, -2.9339516162872314, 0.0, 0.03200000151991844, 1.0240000486373901, 0.0, 0.0, 0.0, 0.0, 0.0, 1.6024559467821953E9, 2020-10-11 17:39:06.782
23.0, -77.86284637451172, -12.281831741333008, -1102.913330078125, -208.6714630126953, 0.0, 0.03200000151991844, 1.0240000486373901, 0.0, 0.0, 0.0, 0.0, 0.0, 1.6024559467821953E9, 2020-10-11 17:39:06.782
24.0, -136.57179260253906, -91.85194396972656, -1157.283935546875, -174.11477661132812, 0.0, 0.03200000151991844, 1.0240000486373901, 0.0, 0.0, 0.0, 0.0, 0.0, 1.6024559467829528E9, 2020-10-11 17:39:06.782
24.0, -44.001792907714844, 27.81737518310547, -1066.138916015625, 51.76582336425781, 0.0, 0.03200000151991844, 1.0240000486373901, 0.0, 0.0, 0.0, 0.0, 0.0, 1.6024559467829528E9, 2020-10-11 17:39:06.782
25.0, -39.196022033691406, 42.76949691772461, -1058.3636474609375, 152.92263793945312, 0.0, 0.03200000151991844, 1.0240000486373901, 0.0, 0.0, 0.0, 0.0, 0.0, 1.6024559467968504E9, 2020-10-11 17:39:06.796
25.0, -136.27635192871094, -84.5516586303711, -1155.2344970703125, 387.1750183105469, 0.0, 0.03200000151991844, 1.0240000486373901, 0.0, 0.0, 0.0, 0.0, 0.0, 1.6024559467968504E9, 2020-10-11 17:39:06.796
26.0, -79.31392669677734, -14.570650100708008, -1105.4415283203125, 611.6157836914062, 0.0, 0.03200000151991844, 1.0240000486373901, 0.0, 0.0, 0.0, 0.0, 0.0, 1.602455946812218E9, 2020-10-11 17:39:06.812
26.0, -2.1672720909118652, 83.7475814819336, -1025.2393798828125, 553.0713500976562, 0.0, 0.03200000151991844, 1.0240000486373901, 0.0, 0.0, 0.0, 0.0, 0.0, 1.602455946812218E9, 2020-10-11 17:39:06.812
27.0, -102.5274887084961, -34.62025451660156, -1112.0050048828125, 397.0259094238281, 0.0, 0.03200000151991844, 1.0240000486373901, 0.0, 0.0, 0.0, 0.0, 0.0, 1.602455946812958E9, 2020-10-11 17:39:06.812
27.0, -93.4956283569336, -37.74681091308594, -1106.22314453125, 232.48153686523438, 0.0, 0.03200000151991844, 1.0240000486373901, 0.0, 0.0, 0.0, 0.0, 0.0, 1.602455946812958E9, 2020-10-11 17:39:06.812
28.0, -6.393359184265137, 72.97293090820312, -1024.6297607421875, 33.253318786621094, 0.0, 0.03200000151991844, 1.0240000486373901, 0.0, 0.0, 0.0, 0.0, 0.0, 1.602455946826882E9, 2020-10-11 17:39:06.826
28.0, -82.073974609375, -13.957306861877441, -1103.7735595703125, -206.8276824951172, 0.0, 0.03200000151991844, 1.0240000486373901, 0.0, 0.0, 0.0, 0.0, 0.0, 1.602455946826882E9, 2020-10-11 17:39:06.826
29.0, -148.80126953125, -100.00118255615234, -1163.3575439453125, -184.60894775390625, 0.0, 0.03200000151991844, 1.0240000486373901, 0.0, 0.0, 0.0, 0.0, 0.0, 1.6024559468422208E9, 2020-10-11 17:39:06.842
29.0, -69.62384796142578, 5.493913173675537, -1085.788330078125, 38.750972747802734, 0.0, 0.03200000151991844, 1.0240000486373901, 0.0, 0.0, 0.0, 0.0, 0.0, 1.6024559468422208E9, 2020-10-11 17:39:06.842
30.0, -26.97028923034668, 59.29985427856445, -1047.83203125, 164.5724334716797, 0.0, 0.03200000151991844, 1.0080000162124634, 0.0, 0.0, 0.0, 0.0, 0.0, 1.6024559468429236E9, 2020-10-11 17:39:06.842
30.0, -126.63488006591797, -66.2448501586914, -1140.6563720703125, 398.2750244140625, 0.0, 0.03200000151991844, 1.0080000162124634, 0.0, 0.0, 0.0, 0.0, 0.0, 1.6024559468429236E9, 2020-10-11 17:39:06.842
31.0, -69.5041732788086, -0.9798538088798523, -1081.7529296875, 625.6964721679688, 0.0, 0.03200000151991844, 1.0080000162124634, 0.0, 0.0, 0.0, 0.0, 0.0, 1.6024559468567855E9, 2020-10-11 17:39:06.856
31.0, -7.317114353179932, 79.04278564453125, -1024.9813232421875, 547.6036376953125, 0.0, 0.03200000151991844, 1.0080000162124634, 0.0, 0.0, 0.0, 0.0, 0.0, 1.6024559468567855E9, 2020-10-11 17:39:06.856
32.0, -99.36727142333984, -38.240478515625, -1118.43017578125, 405.956787109375, 0.0, 0.03200000151991844, 1.0080000162124634, 0.0, 0.0, 0.0, 0.0, 0.0, 1.6024559468726816E9, 2020-10-11 17:39:06.872
32.0, -102.88652038574219, -42.305747985839844, -1117.117431640625, 229.29513549804688, 0.0, 0.03200000151991844, 1.0080000162124634, 0.0, 0.0, 0.0, 0.0, 0.0, 1.6024559468726816E9, 2020-10-11 17:39:06.872
33.0, -17.00719451904297, 63.38756561279297, -1040.6514892578125, 13.3720121383667, 0.0, 0.03200000151991844, 1.0080000162124634, 0.0, 0.0, 0.0, 0.0, 0.0, 1.6024559468732648E9, 2020-10-11 17:39:06.873
33.0, -66.9984359741211, 9.865856170654297, -1090.706298828125, -195.4434356689453, 0.0, 0.03200000151991844, 1.0080000162124634, 0.0, 0.0, 0.0, 0.0, 0.0, 1.6024559468732648E9, 2020-10-11 17:39:06.873
34.0, -116.79520416259766, -59.18017578125, -1133.2364501953125, -151.2191162109375, 0.0, 0.03200000151991844, 1.0080000162124634, 0.0, 0.0, 0.0, 0.0, 0.0, 1.6024559468865204E9, 2020-10-11 17:39:06.886
34.0, -29.09081268310547, 47.3546142578125, -1047.5628662109375, 63.72602462768555, 0.0, 0.03200000151991844, 1.0080000162124634, 0.0, 0.0, 0.0, 0.0, 0.0, 1.6024559468865204E9, 2020-10-11 17:39:06.886
35.0, -24.812366485595703, 65.33979034423828, -1042.480224609375, 157.45913696289062, 0.0, 0.03200000151991844, 1.0080000162124634, 0.0, 0.0, 0.0, 0.0, 0.0, 1.602455946902174E9, 2020-10-11 17:39:06.902
35.0, -142.97824096679688, -85.68484497070312, -1157.3551025390625, 391.9957580566406, 0.0, 0.03200000151991844, 1.0080000162124634, 0.0, 0.0, 0.0, 0.0, 0.0, 1.602455946902174E9, 2020-10-11 17:39:06.902
36.0, -87.04055786132812, -14.346256256103516, -1100.4898681640625, 610.8901977539062, 0.0, 0.03200000151991844, 1.0080000162124634, 0.0, 0.0, 0.0, 0.0, 0.0, 1.6024559469031467E9, 2020-10-11 17:39:06.903
36.0, -16.88003921508789, 70.29141998291016, -1039.884765625, 530.27294921875, 0.0, 0.03200000151991844, 1.0080000162124634, 0.0, 0.0, 0.0, 0.0, 0.0, 1.6024559469031467E9, 2020-10-11 17:39:06.903
37.0, -90.99363708496094, -25.023670196533203, -1108.5306396484375, 415.4598693847656, 0.0, 0.03200000151991844, 1.0080000162124634, 0.0, 0.0, 0.0, 0.0, 0.0, 1.6024559469165447E9, 2020-10-11 17:39:06.916
37.0, -102.35919189453125, -46.225162506103516, -1123.3331298828125, 228.5434112548828, 0.0, 0.03200000151991844, 1.0080000162124634, 0.0, 0.0, 0.0, 0.0, 0.0, 1.6024559469165447E9, 2020-10-11 17:39:06.916
38.0, -20.915390014648438, 71.1216812133789, -1031.3353271484375, 11.008395195007324, 0.0, 0.03200000151991844, 1.0080000162124634, 0.0, 0.0, 0.0, 0.0, 0.0, 1.6024559469325883E9, 2020-10-11 17:39:06.932
38.0, -73.25154876708984, 14.952119827270508, -1068.1060791015625, -186.47515869140625, 0.0, 0.03200000151991844, 1.0080000162124634, 0.0, 0.0, 0.0, 0.0, 0.0, 1.6024559469325883E9, 2020-10-11 17:39:06.932
39.0, -114.18849182128906, -46.81606674194336, -1107.5919189453125, -136.48016357421875, 0.0, 0.03200000151991844, 1.0080000162124634, 0.0, 0.0, 0.0, 0.0, 0.0, 1.6024559469334075E9, 2020-10-11 17:39:06.933
39.0, -30.96076202392578, 59.09041976928711, -1024.872802734375, 68.3635025024414, 0.0, 0.03200000151991844, 1.0080000162124634, 0.0, 0.0, 0.0, 0.0, 0.0, 1.6024559469334075E9, 2020-10-11 17:39:06.933
40.0, -31.67508316040039, 73.1300048828125, -1022.722412109375, 164.80430603027344, 0.0, 0.03200000151991844, 1.0080000162124634, 0.0, 0.0, 0.0, 0.0, 0.0, 1.60245594694653E9, 2020-10-11 17:39:06.946
40.0, -137.3534393310547, -63.90740966796875, -1119.3538818359375, -75.19442749023438, 0.0, 0.03200000151991844, 1.0080000162124634, 0.0, 0.0, 0.0, 0.0, 0.0, 1.60245594694653E9, 2020-10-11 17:39:06.946
41.0, -58.69211959838867, 35.70482635498047, -1035.6923828125, 155.21519470214844, 0.0, 0.03200000151991844, 1.0080000162124634, 0.0, 0.0, 0.0, 0.0, 0.0, 1.6024559469623682E9, 2020-10-11 17:39:06.962
41.0, 20.90043067932129, 127.95693969726562, -961.1973266601562, 80.80240631103516, 0.0, 0.03200000151991844, 1.0080000162124634, 0.0, 0.0, 0.0, 0.0, 0.0, 1.6024559469623682E9, 2020-10-11 17:39:06.962
42.0, -100.219970703125, -13.302824020385742, -1087.3328857421875, -61.87290573120117, 0.0, 0.03200000151991844, 1.0080000162124634, 0.0, 0.0, 0.0, 0.0, 0.0, 1.6024559469633317E9, 2020-10-11 17:39:06.963
42.0, -77.7955322265625, 4.484139919281006, -1058.4608154296875, -219.53213500976562, 0.0, 0.03200000151991844, 1.0080000162124634, 0.0, 0.0, 0.0, 0.0, 0.0, 1.6024559469633317E9, 2020-10-11 17:39:06.963
43.0, 8.84299373626709, 110.62249755859375, -977.1517333984375, -453.2534484863281, 0.0, 0.03200000151991844, 1.0080000162124634, 0.0, 0.0, 0.0, 0.0, 0.0, 1.602455946992928E9, 2020-10-11 17:39:06.992
43.0, -63.1949577331543, 26.583208084106445, -1061.56494140625, -665.8386840820312, 0.0, 0.03200000151991844, 1.0080000162124634, 0.0, 0.0, 0.0, 0.0, 0.0, 1.602455946992928E9, 2020-10-11 17:39:06.992
44.0, -104.59191131591797, -31.2805233001709, -1098.7508544921875, -606.1536254882812, 0.0, 0.03200000151991844, 1.0080000162124634, 0.0, 0.0, 0.0, 0.0, 0.0, 1.6024559469936492E9, 2020-10-11 17:39:06.993
44.0, -49.682701110839844, 42.51518249511719, -1039.8436279296875, -439.99176025390625, 0.0, 0.03200000151991844, 1.0080000162124634, 0.0, 0.0, 0.0, 0.0, 0.0, 1.6024559469936492E9, 2020-10-11 17:39:06.993
45.0, -12.4033784866333, 85.56890869140625, -1007.3963012695312, -323.4265441894531, 0.0, 0.03200000151991844, 1.0080000162124634, 0.0, 0.0, 0.0, 0.0, 0.0, 1.6024559469943745E9, 2020-10-11 17:39:06.994
45.0, -136.08935546875, -65.8222427368164, -1127.21142578125, -554.9581298828125, 0.0, 0.03200000151991844, 1.0080000162124634, 0.0, 0.0, 0.0, 0.0, 0.0, 1.6024559469943745E9, 2020-10-11 17:39:06.994
46.0, -72.22681427001953, 9.25251293182373, -1061.318115234375, -354.50885009765625, 0.0, 0.03200000151991844, 1.0080000162124634, 0.0, 0.0, 0.0, 0.0, 0.0, 1.6024559470064864E9, 2020-10-11 17:39:07.006
46.0, -6.135305881500244, 101.34381103515625, -1001.4498291015625, -454.203369140625, 0.0, 0.03200000151991844, 1.0080000162124634, 0.0, 0.0, 0.0, 0.0, 0.0, 1.6024559470064864E9, 2020-10-11 17:39:07.006
47.0, -99.83101654052734, -15.505624771118164, -1086.1099853515625, -540.5408325195312, 0.0, 0.03200000151991844, 1.0080000162124634, 0.0, 0.0, 0.0, 0.0, 0.0, 1.6024559470222375E9, 2020-10-11 17:39:07.022
47.0, -98.72400665283203, -28.688772201538086, -1096.600341796875, -721.8399658203125, 0.0, 0.03200000151991844, 1.0080000162124634, 0.0, 0.0, 0.0, 0.0, 0.0, 1.6024559470222375E9, 2020-10-11 17:39:07.022
48.0, -5.637899398803711, 94.52970886230469, -997.451904296875, -491.4826965332031, 0.0, 0.03200000151991844, 1.0080000162124634, 0.0, 0.0, 0.0, 0.0, 0.0, 1.60245594702304E9, 2020-10-11 17:39:07.023
48.0, -74.9307632446289, 16.694913864135742, -1062.79541015625, -674.7396850585938, 0.0, 0.03200000151991844, 1.0080000162124634, 0.0, 0.0, 0.0, 0.0, 0.0, 1.60245594702304E9, 2020-10-11 17:39:07.023
49.0, -131.74732971191406, -60.79955291748047, -1121.2388916015625, -601.819091796875, 0.0, 0.03200000151991844, 1.0080000162124634, 0.0, 0.0, 0.0, 0.0, 0.0, 1.602455947036744E9, 2020-10-11 17:39:07.036
49.0, -58.72951889038086, 31.557275772094727, -1054.182373046875, -464.1701965332031, 0.0, 0.03200000151991844, 1.0080000162124634, 0.0, 0.0, 0.0, 0.0, 0.0, 1.602455947036744E9, 2020-10-11 17:39:07.036
50.0, -45.32571792602539, 53.88821792602539, -1049.5262451171875, -368.9411315917969, 0.0, 0.03200000151991844, 1.0080000162124634, 0.0, 0.0, 0.0, 0.0, 0.0, 1.602455947052219E9, 2020-10-11 17:39:07.052
50.0, -161.3037567138672, -95.04207611083984, -1156.9959716796875, -538.3978881835938, 0.0, 0.03200000151991844, 1.0080000162124634, 0.0, 0.0, 0.0, 0.0, 0.0, 1.602455947052219E9, 2020-10-11 17:39:07.052
51.0, -96.49128723144531, -20.846202850341797, -1090.410888671875, -375.5382995605469, 0.0, 0.03200000151991844, 1.0080000162124634, 0.0, 0.0, 0.0, 0.0, 0.0, 1.602455947052961E9, 2020-10-11 17:39:07.052
51.0, -26.098892211914062, 78.58651733398438, -1015.4146118164062, -503.94403076171875, 0.0, 0.03200000151991844, 1.0080000162124634, 0.0, 0.0, 0.0, 0.0, 0.0, 1.602455947052961E9, 2020-10-11 17:39:07.052
52.0, -129.0882568359375, -51.992088317871094, -1121.8746337890625, -530.959228515625, 0.0, 0.03200000151991844, 1.0080000162124634, 0.0, 0.0, 0.0, 0.0, 0.0, 1.6024559470665014E9, 2020-10-11 17:39:07.066
52.0, -113.0889663696289, -38.90991973876953, -1104.6448974609375, -708.5521240234375, 0.0, 0.03200000151991844, 1.0080000162124634, 0.0, 0.0, 0.0, 0.0, 0.0, 1.6024559470665014E9, 2020-10-11 17:39:07.066
53.0, -8.768195152282715, 86.58616638183594, -1013.7840576171875, -536.4437866210938, 0.0, 0.03200000151991844, 1.0080000162124634, 0.0, 0.0, 0.0, 0.0, 0.0, 1.602455947082262E9, 2020-10-11 17:39:07.082
53.0, -76.37810516357422, 10.064070701599121, -1077.2015380859375, -667.4393920898438, 0.0, 0.03200000151991844, 1.0080000162124634, 0.0, 0.0, 0.0, 0.0, 0.0, 1.602455947082262E9, 2020-10-11 17:39:07.082
54.0, -155.35357666015625, -93.50872039794922, -1155.88525390625, -578.2988891601562, 0.0, 0.03200000151991844, 1.0080000162124634, 0.0, 0.0, 0.0, 0.0, 0.0, 1.6024559470829964E9, 2020-10-11 17:39:07.082
54.0, -58.505123138427734, 32.279075622558594, -1052.2152099609375, -490.5851135253906, 0.0, 0.03200000151991844, 1.0080000162124634, 0.0, 0.0, 0.0, 0.0, 0.0, 1.6024559470829964E9, 2020-10-11 17:39:07.082
55.0, -29.76025390625, 67.13494110107422, -1024.764404296875, -387.6705627441406, 0.0, 0.03200000151991844, 1.0080000162124634, 0.0, 0.0, 0.0, 0.0, 0.0, 1.6024559470964892E9, 2020-10-11 17:39:07.096
55.0, -140.6183624267578, -82.31145477294922, -1138.9622802734375, -459.362548828125, 0.0, 0.03200000151991844, 1.0080000162124634, 0.0, 0.0, 0.0, 0.0, 0.0, 1.6024559470964892E9, 2020-10-11 17:39:07.096
56.0, -78.76790618896484, 0.4562678039073944, -1075.6756591796875, -360.84051513671875, 0.0, 0.03200000151991844, 1.0080000162124634, 0.0, 0.0, 0.0, 0.0, 0.0, 1.60245594711222E9, 2020-10-11 17:39:07.112
56.0, -3.6445324420928955, 92.1436538696289, -1005.1672973632812, -551.470703125, 0.0, 0.03200000151991844, 1.0080000162124634, 0.0, 0.0, 0.0, 0.0, 0.0, 1.60245594711222E9, 2020-10-11 17:39:07.112
57.0, -115.32168579101562, -48.181129455566406, -1109.862060546875, -472.6709899902344, 0.0, 0.03200000151991844, 1.0080000162124634, 0.0, 0.0, 0.0, 0.0, 0.0, 1.6024559471129105E9, 2020-10-11 17:39:07.112
57.0, -130.63658142089844, -61.15110397338867, -1127.480712890625, -695.7261352539062, 0.0, 0.03200000151991844, 1.0080000162124634, 0.0, 0.0, 0.0, 0.0, 0.0, 1.6024559471129105E9, 2020-10-11 17:39:07.112
58.0, -4.934797763824463, 91.84820556640625, -1007.3701171875, -601.1683349609375, 0.0, 0.03200000151991844, 1.0080000162124634, 0.0, 0.0, 0.0, 0.0, 0.0, 1.602455947126516E9, 2020-10-11 17:39:07.126
58.0, -73.84619140625, 11.702146530151367, -1078.147705078125, -660.3765869140625, 0.0, 0.03200000151991844, 1.0080000162124634, 0.0, 0.0, 0.0, 0.0, 0.0, 1.602455947126516E9, 2020-10-11 17:39:07.126
59.0, -151.79693603515625, -92.55504608154297, -1152.0667724609375, -509.4267272949219, 0.0, 0.03200000151991844, 1.0080000162124634, 0.0, 0.0, 0.0, 0.0, 0.0, 1.6024559471422088E9, 2020-10-11 17:39:07.142
59.0, -48.919761657714844, 33.94707107543945, -1050.1619873046875, -534.5177001953125, 0.0, 0.03200000151991844, 1.0080000162124634, 0.0, 0.0, 0.0, 0.0, 0.0, 1.6024559471422088E9, 2020-10-11 17:39:07.142
60.0, -10.271635055541992, 85.7820816040039, -1009.9917602539062, -416.4715270996094, 0.0, 0.03200000151991844, 1.0080000162124634, 0.0, 0.0, 0.0, 0.0, 0.0, 1.6024559471429536E9, 2020-10-11 17:39:07.142
60.0, -164.46023559570312, -104.75460052490234, -1159.1876220703125, -395.8385009765625, 0.0, 0.03200000151991844, 1.0080000162124634, 0.0, 0.0, 0.0, 0.0, 0.0, 1.6024559471429536E9, 2020-10-11 17:39:07.142
61.0, -102.9126968383789, -23.43047332763672, -1090.3360595703125, -386.1614990234375, 0.0, 0.03200000151991844, 1.0080000162124634, 0.0, 0.0, 0.0, 0.0, 0.0, 1.6024559471565516E9, 2020-10-11 17:39:07.156
61.0, 15.028787612915039, 125.33526611328125, -977.2451782226562, -613.0949096679688, 0.0, 0.03200000151991844, 1.0080000162124634, 0.0, 0.0, 0.0, 0.0, 0.0, 1.6024559471565516E9, 2020-10-11 17:39:07.156
62.0, -145.90658569335938, -70.15678405761719, -1138.5919189453125, -426.6309509277344, 0.0, 0.03200000151991844, 1.0080000162124634, 0.0, 0.0, 0.0, 0.0, 0.0, 1.6024559471722498E9, 2020-10-11 17:39:07.172
62.0, -138.84939575195312, -68.6944808959961, -1128.1912841796875, -669.4476928710938, 0.0, 0.03200000151991844, 1.0080000162124634, 0.0, 0.0, 0.0, 0.0, 0.0, 1.6024559471722498E9, 2020-10-11 17:39:07.172
63.0, -1.67360520362854, 99.69824981689453, -998.7608642578125, -677.4511108398438, 0.0, 0.03200000151991844, 1.0080000162124634, 0.0, 0.0, 0.0, 0.0, 0.0, 1.6024559471729603E9, 2020-10-11 17:39:07.172
63.0, -85.75029754638672, 8.751365661621094, -1080.5374755859375, -652.4872436523438, 0.0, 0.03200000151991844, 1.0080000162124634, 0.0, 0.0, 0.0, 0.0, 0.0, 1.6024559471729603E9, 2020-10-11 17:39:07.172
64.0, -196.78793334960938, -135.83689880371094, -1200.2105712890625, -478.1144104003906, 0.0, 0.03200000151991844, 1.0080000162124634, 0.0, 0.0, 0.0, 0.0, 0.0, 1.6024559471865427E9, 2020-10-11 17:39:07.186
64.0, -41.907447814941406, 50.35775375366211, -1042.9776611328125, -567.9356079101562, 0.0, 0.03200000151991844, 1.0080000162124634, 0.0, 0.0, 0.0, 0.0, 0.0, 1.6024559471865427E9, 2020-10-11 17:39:07.186
65.0, 12.556714057922363, 108.61417388916016, -994.0822143554688, -438.1984558105469, 0.0, 0.03200000151991844, 1.0080000162124634, 0.0, 0.0, 0.0, 0.0, 0.0, 1.602455947202222E9, 2020-10-11 17:39:07.202
65.0, -180.49317932128906, -118.65206909179688, -1170.2239990234375, -337.3819885253906, 0.0, 0.03200000151991844, 1.0080000162124634, 0.0, 0.0, 0.0, 0.0, 0.0, 1.602455947202222E9, 2020-10-11 17:39:07.202
66.0, -98.12936401367188, -25.165786743164062, -1099.06494140625, -401.3380126953125, 0.0, 0.03200000151991844, 1.0080000162124634, 0.0, 0.0, 0.0, 0.0, 0.0, 1.6024559472029607E9, 2020-10-11 17:39:07.202
66.0, 21.562393188476562, 122.28350830078125, -989.6953125, -182.11068725585938, 0.0, 0.03200000151991844, 1.0080000162124634, 0.0, 0.0, 0.0, 0.0, 0.0, 1.6024559472029607E9, 2020-10-11 17:39:07.202
67.0, -136.0108184814453, -66.33086395263672, -1141.6400146484375, -371.5010986328125, 0.0, 0.03200000151991844, 1.0080000162124634, 0.0, 0.0, 0.0, 0.0, 0.0, 1.6024559472165701E9, 2020-10-11 17:39:07.216
67.0, -156.8944091796875, -93.79669189453125, -1164.6217041015625, -175.427490234375, 0.0, 0.03200000151991844, 1.0080000162124634, 0.0, 0.0, 0.0, 0.0, 0.0, 1.6024559472165701E9, 2020-10-11 17:39:07.216
68.0, -3.2069642543792725, 100.4911117553711, -1013.9036865234375, -242.08746337890625, 0.0, 0.03200000151991844, 1.0080000162124634, 0.0, 0.0, 0.0, 0.0, 0.0, 1.6024559472321897E9, 2020-10-11 17:39:07.232
68.0, -68.22512817382812, 17.240938186645508, -1073.3306884765625, -136.27073669433594, 0.0, 0.03200000151991844, 1.0080000162124634, 0.0, 0.0, 0.0, 0.0, 0.0, 1.6024559472321897E9, 2020-10-11 17:39:07.232
69.0, -190.01123046875, -133.56304931640625, -1195.27392578125, 52.63909149169922, 0.0, 0.03200000151991844, 1.0080000162124634, 0.0, 0.0, 0.0, 0.0, 0.0, 1.6024559472329292E9, 2020-10-11 17:39:07.232
69.0, -29.603178024291992, 56.69314193725586, -1030.70703125, -107.38748931884766, 0.0, 0.03200000151991844, 1.0080000162124634, 0.0, 0.0, 0.0, 0.0, 0.0, 1.6024559472329292E9, 2020-10-11 17:39:07.232
70.0, 6.610273361206055, 102.21146392822266, -1002.6428833007812, 15.965632438659668, 0.0, 0.03200000151991844, 1.0080000162124634, 0.0, 0.0, 0.0, 0.0, 0.0, 1.602455947246562E9, 2020-10-11 17:39:07.246
70.0, -199.69757080078125, -142.60986328125, -1193.2020263671875, 177.48443603515625, 0.0, 0.03200000151991844, 1.0080000162124634, 0.0, 0.0, 0.0, 0.0, 0.0, 1.602455947246562E9, 2020-10-11 17:39:07.246
71.0, -102.1273193359375, -20.95465850830078, -1095.250244140625, 80.51256561279297, 0.0, 0.03200000151991844, 1.0080000162124634, 0.0, 0.0, 0.0, 0.0, 0.0, 1.6024559472622013E9, 2020-10-11 17:39:07.262
71.0, 47.21810531616211, 146.51806640625, -957.592041015625, 288.2845764160156, 0.0, 0.03200000151991844, 1.0080000162124634, 0.0, 0.0, 0.0, 0.0, 0.0, 1.6024559472622013E9, 2020-10-11 17:39:07.262
72.0, -163.8955078125, -87.79041290283203, -1157.78515625, 135.76585388183594, -0.01600000075995922, 0.03200000151991844, 1.0080000162124634, 0.0, 0.0, 0.0, 0.0, 0.0, 1.6024559472629263E9, 2020-10-11 17:39:07.262
72.0, -160.26780700683594, -95.81623840332031, -1163.7801513671875, 327.84149169921875, -0.01600000075995922, 0.03200000151991844, 1.0080000162124634, 0.0, 0.0, 0.0, 0.0, 0.0, 1.6024559472629263E9, 2020-10-11 17:39:07.262
73.0, 41.72793197631836, 143.68321228027344, -957.6444091796875, 253.5147247314453, -0.01600000075995922, 0.03200000151991844, 1.0080000162124634, 0.0, 0.0, 0.0, 0.0, 0.0, 1.6024559472765477E9, 2020-10-11 17:39:07.276
73.0, -87.58658599853516, 0.830257773399353, -1094.143310546875, 348.6764831542969, -0.01600000075995922, 0.03200000151991844, 1.0080000162124634, 0.0, 0.0, 0.0, 0.0, 0.0, 1.6024559472765477E9, 2020-10-11 17:39:07.276
74.0, -211.05938720703125, -153.6463165283203, -1208.5355224609375, 564.0198974609375, -0.01600000075995922, 0.03200000151991844, 1.0080000162124634, 0.0, 0.0, 0.0, 0.0, 0.0, 1.602455947292197E9, 2020-10-11 17:39:07.292
74.0, -34.04991912841797, 51.300209045410156, -1036.2982177734375, 366.777587890625, -0.01600000075995922, 0.03200000151991844, 1.0080000162124634, 0.0, 0.0, 0.0, 0.0, 0.0, 1.602455947292197E9, 2020-10-11 17:39:07.292
75.0, -7.077760696411133, 88.87124633789062, -1014.8536376953125, 496.7091979980469, -0.01600000075995922, 0.03200000151991844, 1.0080000162124634, 0.0, 0.0, 0.0, 0.0, 0.0, 1.6024559472929585E9, 2020-10-11 17:39:07.292
75.0, -217.52566528320312, 325.9528503417969, -1217.9713134765625, 679.0779418945312, -0.01600000075995922, 0.03200000151991844, 1.0080000162124634, 0.0, 0.0, 0.0, 0.0, 0.0, 1.6024559472929585E9, 2020-10-11 17:39:07.292
76.0, -110.28404235839844, 452.41009521484375, -1112.99609375, 564.8763427734375, -0.01600000075995922, 0.03200000151991844, 1.0080000162124634, 0.0, 0.0, 0.0, 0.0, 0.0, 1.602455947306557E9, 2020-10-11 17:39:07.306
76.0, 13.185017585754395, 605.0877685546875, -988.9511108398438, 735.2942504882812, -0.01600000075995922, 0.03200000151991844, 1.0080000162124634, 0.0, 0.0, 0.0, 0.0, 0.0, 1.602455947306557E9, 2020-10-11 17:39:07.306
77.0, -195.46400451660156, 366.43353271484375, -1191.294677734375, 611.3071899414062, -0.01600000075995922, 0.03200000151991844, 1.0080000162124634, 0.0, 0.0, 0.0, 0.0, 0.0, 1.6024559473221989E9, 2020-10-11 17:39:07.322
77.0, -201.16734313964844, 351.3766784667969, -1198.220947265625, 796.6809692382812, -0.01600000075995922, 0.03200000151991844, 1.0080000162124634, 0.0, 0.0, 0.0, 0.0, 0.0, 1.6024559473221989E9, 2020-10-11 17:39:07.322
78.0, 2.3430473804473877, 588.6246948242188, -1005.8966064453125, 686.9149169921875, -0.01600000075995922, 0.03200000151991844, 1.0080000162124634, 0.0, 0.0, 0.0, 0.0, 0.0, 1.6024559473229232E9, 2020-10-11 17:39:07.322
78.0, -89.83800506591797, 486.1739196777344, -1100.1383056640625, 834.9812622070312, -0.01600000075995922, 0.03200000151991844, 1.0080000162124634, 0.0, 0.0, 0.0, 0.0, 0.0, 1.6024559473229232E9, 2020-10-11 17:39:07.322
79.0, -203.6207275390625, 340.1906433105469, -1205.640869140625, 1057.5838623046875, -0.01600000075995922, 0.03200000151991844, 1.0080000162124634, 0.0, 0.0, 0.0, 0.0, 0.0, 1.602455947336537E9, 2020-10-11 17:39:07.336
79.0, -25.953035354614258, 544.1199340820312, -1039.1405029296875, 854.00244140625, -0.01600000075995922, 0.03200000151991844, 1.0080000162124634, 0.0, 0.0, 0.0, 0.0, 0.0, 1.602455947336537E9, 2020-10-11 17:39:07.336
80.0, 3.221923828125, 588.4564208984375, -1005.563720703125, 980.8037109375, -0.01600000075995922, 0.03200000151991844, 1.0080000162124634, 0.0, 0.0, 0.0, 0.0, 0.0, 1.602455947352553E9, 2020-10-11 17:39:07.352
80.0, -235.05831909179688, 805.3575439453125, -1234.9205322265625, 1167.1966552734375, -0.01600000075995922, 0.03200000151991844, 1.0080000162124634, 0.0, 0.0, 0.0, 0.0, 0.0, 1.602455947352553E9, 2020-10-11 17:39:07.352
81.0, -131.73985290527344, 920.5576782226562, -1139.4110107421875, 1025.71240234375, -0.01600000075995922, 0.03200000151991844, 1.0080000162124634, 0.0, 0.0, 0.0, 0.0, 0.0, 1.6024559473534763E9, 2020-10-11 17:39:07.353
81.0, 48.81130599975586, 1127.4227294921875, -969.2119140625, 1239.3037109375, -0.01600000075995922, 0.03200000151991844, 1.0080000162124634, 0.0, 0.0, 0.0, 0.0, 0.0, 1.6024559473534763E9, 2020-10-11 17:39:07.353
82.0, -174.48316955566406, 1362.5147705078125, -1181.9486083984375, 1116.393798828125, -0.01600000075995922, 0.03200000151991844, 1.0080000162124634, 0.0, 0.0, 0.0, 0.0, 0.0, 1.602455947366876E9, 2020-10-11 17:39:07.366
82.0, -167.74012756347656, 1358.0306396484375, -1180.5535888671875, 1301.8946533203125, -0.01600000075995922, 0.03200000151991844, 1.0080000162124634, 0.0, 0.0, 0.0, 0.0, 0.0, 1.602455947366876E9, 2020-10-11 17:39:07.366
83.0, 20.29082679748535, 1585.10986328125, -997.4930419921875, 1181.0885009765625, -0.01600000075995922, 0.03200000151991844, 1.0080000162124634, 0.0, 0.0, 0.0, 0.0, 0.0, 1.6024559473823705E9, 2020-10-11 17:39:07.382
83.0, -95.16362762451172, 1457.1453857421875, -1110.553955078125, 1313.3948974609375, -0.01600000075995922, 0.03200000151991844, 1.0080000162124634, 0.0, 0.0, 0.0, 0.0, 0.0, 1.6024559473823705E9, 2020-10-11 17:39:07.382
84.0, -210.41986083984375, 1310.6273193359375, -1214.0518798828125, 1549.2330322265625, -0.01600000075995922, 0.03200000151991844, 1.0080000162124634, 0.0, 0.0, 0.0, 0.0, 0.0, 1.602455947383122E9, 2020-10-11 17:39:07.383
84.0, -18.581693649291992, 1531.633056640625, -1033.4334716796875, 1339.1552734375, -0.01600000075995922, 0.03200000151991844, 1.0080000162124634, 0.0, 0.0, 0.0, 0.0, 0.0, 1.602455947383122E9, 2020-10-11 17:39:07.383
85.0, -31.4506893157959, 1537.1195068359375, -1052.0582275390625, 1446.056640625, -0.01600000075995922, 0.03200000151991844, 1.0080000162124634, 0.0, 0.0, 0.0, 0.0, 0.0, 1.602455947396698E9, 2020-10-11 17:39:07.396
85.0, -220.3118896484375, 1300.9859619140625, -1223.117431640625, 1669.4296875, -0.01600000075995922, 0.03200000151991844, 1.0080000162124634, 0.0, 0.0, 0.0, 0.0, 0.0, 1.602455947396698E9, 2020-10-11 17:39:07.396
86.0, -110.25411987304688, 1430.83154296875, -1117.106201171875, 1532.83349609375, -0.01600000075995922, 0.03200000151991844, 1.0080000162124634, 0.0, 0.0, 0.0, 0.0, 0.0, 1.602455947412208E9, 2020-10-11 17:39:07.412
86.0, 19.89813804626465, 1596.9727783203125, -991.39697265625, 1713.5361328125, -0.01600000075995922, 0.03200000151991844, 1.0080000162124634, 0.0, 0.0, 0.0, 0.0, 0.0, 1.602455947412208E9, 2020-10-11 17:39:07.412
87.0, -170.61984252929688, 1360.3306884765625, -1183.631591796875, 1608.0877685546875, -0.01600000075995922, 0.03200000151991844, 1.0080000162124634, 0.0, 0.0, 0.0, 0.0, 0.0, 1.6024559474129362E9, 2020-10-11 17:39:07.412
87.0, -165.85894775390625, 1361.5274658203125, -1182.4871826171875, 1793.5811767578125, -0.01600000075995922, 0.03200000151991844, 1.0080000162124634, 0.0, 0.0, 0.0, 0.0, 0.0, 1.6024559474129362E9, 2020-10-11 17:39:07.412
88.0, 40.35165023803711, 1598.6744384765625, -994.6282348632812, 1679.084228515625, -0.01600000075995922, 0.03200000151991844, 1.0080000162124634, 0.0, 0.0, 0.0, 0.0, 0.0, 1.602455947426544E9, 2020-10-11 17:39:07.426
88.0, -68.30740356445312, 1469.80126953125, -1113.8076171875, 1813.2755126953125, -0.01600000075995922, 0.03200000151991844, 1.0080000162124634, 0.0, 0.0, 0.0, 0.0, 0.0, 1.602455947426544E9, 2020-10-11 17:39:07.426
89.0, -197.19183349609375, 1312.179443359375, -1234.9766845703125, 2031.420166015625, -0.01600000075995922, 0.03200000151991844, 1.0080000162124634, 0.0, 0.0, 0.0, 0.0, 0.0, 1.6024559474422154E9, 2020-10-11 17:39:07.442
89.0, -17.89729118347168, 1521.9093017578125, -1063.7042236328125, 1810.3397216796875, -0.01600000075995922, 0.03200000151991844, 1.0080000162124634, 0.0, 0.0, 0.0, 0.0, 0.0, 1.6024559474422154E9, 2020-10-11 17:39:07.442
90.0, 25.829618453979492, 1583.9542236328125, -1018.6309204101562, 1965.8671875, -0.01600000075995922, 0.03200000151991844, 1.0080000162124634, 0.0, 0.0, 0.0, 0.0, 0.0, 1.6024559474429488E9, 2020-10-11 17:39:07.442
90.0, -202.5436248779297, 1802.6953125, -1239.3524169921875, 2160.2783203125, -0.01600000075995922, 0.03200000151991844, 1.0080000162124634, 0.0, 0.0, 0.0, 0.0, 0.0, 1.6024559474429488E9, 2020-10-11 17:39:07.442
91.0, -83.9626235961914, 1936.793212890625, -1124.428955078125, 2019.695556640625, -0.01600000075995922, 0.03200000151991844, 1.0080000162124634, 0.0, 0.0, 0.0, 0.0, 0.0, 1.6024559474565384E9, 2020-10-11 17:39:07.456
91.0, 80.45459747314453, 2130.3779296875, -967.944091796875, 2227.018798828125, -0.01600000075995922, 0.03200000151991844, 1.0080000162124634, 0.0, 0.0, 0.0, 0.0, 0.0, 1.6024559474565384E9, 2020-10-11 17:39:07.456
92.0, -140.233154296875, 2368.431884765625, -1175.979736328125, 2110.56396484375, -0.01600000075995922, 0.03200000151991844, 1.0080000162124634, 0.0, 0.0, 0.0, 0.0, 0.0, 1.602455947472482E9, 2020-10-11 17:39:07.472
92.0, -150.75723266601562, 2346.792724609375, -1187.61083984375, 2276.112548828125, -0.01600000075995922, 0.03200000151991844, 1.0080000162124634, 0.0, 0.0, 0.0, 0.0, 0.0, 1.602455947472482E9, 2020-10-11 17:39:07.472
93.0, 49.86221694946289, 2586.449462890625, -993.3753662109375, 2164.427734375, -0.01600000075995922, 0.03200000151991844, 1.0080000162124634, 0.0, 0.0, 0.0, 0.0, 0.0, 1.6024559474733307E9, 2020-10-11 17:39:07.473
93.0, -64.64230346679688, 2456.77587890625, -1102.5318603515625, 2305.5380859375, -0.01600000075995922, 0.03200000151991844, 1.0080000162124634, 0.0, 0.0, 0.0, 0.0, 0.0, 1.6024559474733307E9, 2020-10-11 17:39:07.473
94.0, -199.5068359375, 2291.206787109375, -1240.309814453125, 2515.694091796875, -0.01600000075995922, 0.03200000151991844, 1.0080000162124634, 0.0, 0.0, 0.0, 0.0, 0.0, 1.6024559474865313E9, 2020-10-11 17:39:07.486
94.0, -18.03940773010254, 2511.83837890625, -1060.7496337890625, 2301.82421875, -0.01600000075995922, 0.03200000151991844, 1.0080000162124634, 0.0, 0.0, 0.0, 0.0, 0.0, 1.6024559474865313E9, 2020-10-11 17:39:07.486
95.0, 38.31714630126953, 2585.705078125, -999.1011962890625, 2467.37841796875, -0.01600000075995922, 0.03200000151991844, 1.0080000162124634, 0.0, 0.0, 0.0, 0.0, 0.0, 1.602455947502431E9, 2020-10-11 17:39:07.502
